time division length width area intensity CMx CMy
0 0 60.0415 13.907 835 91.103 275.303 548.52
1 0 61.0831 14.3902 879 90.9784 274.486 545.631
2 0 66.1103 14.0976 932 89.3348 274.538 545.095
3 0 67.057 13.8539 929 90.6652 274.216 543.707
4 1 35.0456 12.2697 430 90.3605 274.326 558.591
5 0 36.2199 11.9271 432 90.4144 275.042 560.502
6 0 37.0917 12.8061 475 89.8126 274.777 558.451
7 0 38.0852 12.7346 485 90.0701 274.491 556.293
8 0 40.102 12.7674 512 89.6172 274.301 556.58
9 0 42.0917 13.3756 563 88.0071 274.661 555.993
10 0 41.0272 13.162 540 90.2148 274.781 555.006
11 0 44.1185 12.9878 573 89.1099 274.609 553.97
12 0 46.0774 12.7611 588 88.7806 275.009 554.136
13 0 47.1492 13.5103 637 87.5102 274.931 552.046
14 0 48.1537 13.623 656 87.3704 274.53 551.63
15 0 50.2339 13.2182 664 87.6551 275.854 551.414
16 0 50.0946 13.0952 656 88.843 275.992 549.817
17 0 52.0738 13.2888 692 88.3353 275.731 548.85
18 0 55.0733 13.0735 720 87.4569 275.631 548.803
19 0 56.0702 13.3939 751 87.3236 275.582 547.282
20 0 58.1191 13.2659 771 87.8067 275.827 545.975
21 0 62.0533 13.6173 845 86.1018 275.796 545.166
22 0 63.139 13.494 852 86.4308 275.447 545.847
23 0 65.1974 13.6202 888 87.0923 275.43 543.484
24 0 68.0326 14.2579 970 85.568 275.243 541.881
25 0 70.1642 13.9672 980 86.5755 275.433 540.167
26 0 74.2297 13.7681 1022 86.2916 275.187 537.802
27 0 76.1806 14.0456 1070 86.3187 275.307 537.483
28 0 79.3082 13.9204 1104 88.3197 275.046 535.478
29 0 82.1874 13.3962 1101 88.3642 275.145 532.362
30 1 43.1038 12.4351 536 89.1754 275.116 551.632
31 0 45.1748 12.6177 570 87.5825 275.344 552.981
32 0 46.2192 12.7003 587 87.552 275.029 553.005
33 0 47.1732 12.9523 611 88.1604 275.219 552.061
34 0 49.1287 12.9659 637 88.0377 275.479 550.779
35 0 51.2549 12.8963 661 87.4342 275.029 550.393
36 0 52.0511 13.1602 685 87.5109 275.358 548.924
37 0 54.3394 13.3605 726 86.9435 275.361 549.034
38 0 54.2583 12.4589 676 88.7589 275.442 547.93
39 0 59.1218 13.7005 810 85.3123 275.515 546.528
40 0 60.1022 13.8265 831 85.7485 275.526 545.082
41 0 62.2024 13.4882 839 86.1514 275.846 543.597
42 0 64.3467 12.9455 833 87.3758 275.797 541.946
43 0 67.0948 13.1754 884 86.4932 275.809 539.284
44 0 70.1299 12.8333 900 87.2933 276.197 539.56
45 0 73.134 14.1247 1033 84.6157 276.807 538.026
46 0 75.1322 13.9354 1047 85.2808 276.602 536.787
47 0 80.2422 13.6337 1094 84.9342 276.872 535.633
48 0 82.3119 13.6432 1123 85.7809 277.081 533.709
49 0 85.3906 13.5261 1155 85.7195 277.651 530.952
50 1 45.0575 11.0304 497 88.2233 277.352 551.97
51 0 47.1806 11.9753 565 86.6761 277.26 552.034
52 0 48.1528 12.1696 586 86.5973 277.741 549.442
53 0 50.0738 12.841 643 85.3297 277.398 548.532
54 0 51.1053 12.3862 633 86.8136 276.428 548.306
55 0 52.1251 12.9112 673 78.4993 276.562 547.389
56 0 52.0836 12.7295 663 78.3318 276.522 546.505
57 0 57.1768 13.432 768 74.1745 276.732 545.441
58 0 59.2041 13.3775 792 76.2045 277.016 542.039
59 0 61.0465 13.4324 820 77.4451 277.748 542.817
60 0 62.272 13.6659 851 78.5546 277.149 542.388
61 0 65.1894 13.4991 880 79.4875 277.003 537.355
62 0 68.2503 13.3333 910 79.356 276.971 538.099
63 0 70.2458 14.0079 984 78.8303 276.962 534.401
64 0 73.1718 13.5025 988 79.5172 276.845 533.404
65 0 73.2509 13.679 1002 80.3513 276.989 530.69
66 0 76.2055 13.5423 1032 80.6715 277.099 530.89
67 0 80.2916 13.2766 1066 81.5113 277.444 529.493
68 0 82.1113 13.1042 1076 82.6329 277.7 526.581
69 0 86.1551 14.381 1239 79.7805 278.368 525.37
70 0 89.2675 13.3643 1193 81.5356 278.114 523.574
71 1 46.115 10.7991 498 80.8273 277.767 545.516
72 0 49.0949 11.3046 555 79.2432 277.468 544
73 0 50.0995 11.577 580 100.655 278.117 543.297
74 0 51.0271 12.1112 618 80.1278 279.544 541.778
75 0 53.0221 12.2968 652 79.5874 278.63 540.224
76 0 56.042 11.9018 667 80.2234 279.207 539.078
77 0 55.0206 12.0682 664 81.1943 279.032 537.663
78 0 59.0223 12.724 751 78.8802 279.446 536.755
79 0 59.0425 13.0245 769 79.6177 279.151 535.562
80 0 63.0468 12.5938 794 79.5516 279.597 534.199
81 0 64.0983 12.9489 830 79.506 279.127 531.943
82 0 67.0703 13.046 875 79.008 279.498 531.374
83 0 70.0365 12.7077 890 79.3247 280.271 530.079
84 0 71.1039 12.8826 916 79.5535 279.916 530.073
85 0 74.1138 13.4658 998 78.1042 280.368 527.69
86 0 77.0897 12.7254 981 78.4995 280.46 526.551
87 0 80.1182 12.7936 1025 78.0195 280.54 525.153
88 0 84.1316 13.5264 1138 78.9965 281.151 523.873
89 0 87.2366 13.5035 1178 79.034 281.98 522.909
90 0 90.2323 13.7866 1244 78.4132 281.807 519.785
91 0 92.1474 13.5327 1247 79.1067 282.55 517.985
92 0 94.2125 13.7561 1296 78.081 282.642 516.933
93 0 99.2285 14.4414 1433 75.6315 282.872 515.756
94 1 53.1108 12.0126 638 74.8166 283.157 537.052
95 0 53.1295 11.839 629 73.4658 283.561 535.963
96 0 58.1541 12.4497 724 71.2928 283.631 534.638
97 0 58.1803 11.7737 685 95.6219 283.288 533.771
98 0 61.2205 12.2508 750 70.7987 282.908 533.861
99 0 61.153 12.7549 780 71.7654 282.658 532.208
100 0 65.1783 13.4094 874 71.8924 282.646 531.937
101 0 66.2478 12.9967 861 74.3775 282.525 529.222
102 0 66.2596 12.8434 851 75.7897 282.683 529.208
103 0 70.3335 12.4976 879 73.8214 282.721 528.808
104 0 73.138 12.7841 935 74.1455 282.904 527.265
105 0 74.186 12.8865 956 75.6862 282.599 525.179
106 0 76.2643 13.3877 1021 75.7777 283.247 522.958
107 0 77.3737 13.5447 1048 75.8187 283.037 521.034
108 0 83.1888 13.86 1153 74.5499 283.018 520.667
109 0 85.2232 12.7899 1090 76.2817 283.469 518.537
110 0 89.2736 12.8369 1146 75.6745 282.987 516.721
111 1 46.2178 11.8353 547 72.9634 282.916 539.141
112 0 46.1851 10.5445 487 74.6632 282.46 538.524
113 0 49.2925 11.6042 572 72.2885 282.288 536.33
114 0 49.2363 11.9627 589 72.3277 282.402 535.253
115 0 52.2516 11.8657 620 70.729 282.46 534.503
116 0 53.249 12.019 640 70.1906 282.827 534.923
117 0 55.2999 11.8807 657 70.2481 282.505 532.836
118 0 56.1639 12.784 718 69.2256 282.997 532.386
119 0 58.2299 11.987 698 70.1648 282.415 530.908
120 0 60.2008 12.7407 767 68.7588 282.451 530.016
121 0 62.3155 12.1158 755 69.9192 283.201 530.356
122 0 64.2655 12.7751 821 68.9635 282.42 527.989
123 0 66.2529 11.9844 794 70.1222 282.448 528.098
124 0 68.2018 12.1991 832 69.6947 282.173 526.129
125 0 70.2318 12.2594 861 70.381 282.12 526.641
126 0 72.2786 12.9499 936 69.422 282.298 524.71
127 0 74.2064 13.1795 978 69.68 282.629 524.089
128 0 76.2931 13.671 1043 68.8082 282.385 524.133
129 0 79.2491 13.5143 1071 69.5677 282.013 521.976
130 0 81.4347 13.385 1090 70.3174 281.872 521.047
131 0 87.486 13.065 1143 70.7139 281.126 519.279
132 0 87.3951 13.1243 1147 71.1508 281.352 518.553
133 0 93.4172 13.7769 1287 69.6402 281.572 516.907
134 1 48.3029 9.87518 477 73.6918 281.591 538.717
135 0 51.2538 12.2528 628 70.7389 281.024 535.846
136 0 53.3154 11.01 587 71.3118 281.182 537.843
137 0 55.2825 11.595 641 69.9345 280.711 536.2
138 0 56.1941 11.923 670 70.197 281.133 534.943
139 0 58.2802 12.0624 703 69.7226 280.905 534.316
140 0 58.1686 12.395 721 69.9834 280.915 532.799
141 0 60.1949 12.4595 750 70.0947 280.704 531.021
142 0 62.1345 12.5212 778 69.6992 281.113 531.62
143 0 65.121 12.6994 827 69.1524 280.895 529.782
144 0 66.1746 12.8599 851 69.8555 280.7 527.906
145 0 68.2349 12.1932 832 71.2248 280.82 527.584
146 0 72.1837 13.147 949 69.3793 281.104 527.37
147 0 73.2026 12.1444 889 71.6772 281.127 526.585
148 0 76.1327 12.7803 973 70.851 280.45 524.856
149 0 77.1318 12.3684 954 72.3616 281.041 524.128
150 0 81.1274 13.0166 1056 71.3958 281.302 523.511
151 1 45.0576 10.3201 465 72.8172 281.531 541.834
152 0 45.0168 10.9737 494 72.4008 279.405 542.368
153 0 47.1835 11.8262 558 71.9534 279.64 541.314
154 0 48.2127 12.3204 594 72.6296 279.875 538.766
155 0 48.1411 12.4841 601 73.1265 280.351 539.83
156 0 50.0412 12.4897 625 72.3952 279.826 539.267
157 0 50.0219 12.3746 619 74.3069 279.892 538.383
158 0 52.027 12.4358 647 74.8269 279.491 537.665
159 0 56.0368 12.6346 708 73.4929 279.436 536.682
160 0 56.0326 12.7783 716 74.3226 279.775 537.497
161 0 58.1487 12.5368 729 75.2373 280.137 535.429
162 0 61.2204 13.2309 810 73.5691 279.926 534.144
163 0 61.0472 13.5305 826 74.4843 280.548 532.343
164 0 63.1413 12.7967 808 75.5161 280.954 531.567
165 0 63.159 13.5056 853 75.6811 280.073 531.11
166 0 63.159 13.5531 856 180.776 279.098 531.146
167 0 67.0948 13.6076 913 75.885 280.648 530.215
168 0 70.0927 13.5249 948 75.9209 280.921 528.235
169 0 71.0992 13.5726 965 76.2269 281.487 527.856
170 0 73.2445 12.9839 951 76.9243 281.405 526.143
171 0 76.1532 13.0395 993 76.6737 281.887 524.893
172 0 76.1369 13.5283 1030 77.3951 281.816 523.759
173 0 79.2887 13.4571 1067 77.4639 281.872 522.36
174 0 82.155 13.6936 1125 77.0018 282.059 521.199
175 0 85.1685 13.3735 1139 77.3319 281.789 518.956
176 0 88.0483 13.7311 1209 76.6625 282.174 517.312
177 0 89.3462 14.3487 1282 76.1903 282.269 515.764
178 0 93.155 13.966 1301 77.2006 282.285 514.445
179 0 96.1325 14.1471 1360 76.7162 282.524 513.732
180 0 101.154 14.5719 1474 75.9016 282.663 511.235
181 0 104.194 14.0699 1466 77.5457 283.039 509.792
182 0 107.255 14.0879 1511 78.1198 283.238 506.322
183 0 107.255 14.0785 1510 175.75 283.232 506.309
184 0 114.186 14.38 1642 77.5944 283.689 504.453
185 0 120.297 14.5141 1746 77.4645 283.564 501.378
186 0 123.245 14.7674 1820 76.8571 283.946 498.943
187 0 129.447 15.1491 1961 75.7741 283.849 495.908
188 1 74.1964 11.2944 838 80.4642 284.341 524.254
189 0 79.2069 12.3348 977 78.911 284.146 521.61
190 0 79.3063 12.4832 990 79.5313 284.264 522.157
191 0 81.2094 13.3605 1085 79.4359 284.221 519.247
192 0 85.1981 13.6975 1167 77.7284 284.377 516.985
193 0 87.3926 13.8227 1208 75.8526 284.406 516.887
194 0 89.2008 13.7106 1223 76.5437 284.413 514.379
195 0 93.2792 13.9259 1299 75.7814 284.576 513.461
196 0 94.5617 13.864 1311 77.0786 285.04 512.916
197 0 99.3475 13.6692 1358 78.1487 284.809 509.784
198 0 102.231 13.9 1421 78.1407 285.134 509.185
199 0 105.425 13.6401 1438 78.9298 284.976 506.954
200 0 108.45 13.1765 1429 79.5808 285.288 505.852
201 0 113.208 14.1509 1602 77.9694 285.265 503.725
202 0 116.238 13.5756 1578 79.7104 285.441 501.814
203 1 63.209 10.4099 658 80.193 286.029 529.153
204 0 65.1648 11.4632 747 78.8367 285.938 526.763
205 0 69.2 11.5752 801 78.1573 286.012 525.774
206 0 73.1638 12.2738 898 77.3953 286.009 523.692
207 0 71.1874 11.547 822 79.5888 285.998 523.628
208 0 74.1711 13.1857 978 76.0613 285.856 523.004
209 0 78.1186 12.4938 976 77.4805 285.099 519.776
210 0 79.2554 12.8824 1021 76.3536 285.618 520.296
211 0 80.2704 12.3956 995 77.809 285.328 519.172
212 0 83.1904 13.0063 1082 76.6553 285.465 517.493
213 0 86.2415 12.6389 1090 76.7486 285.379 515.772
214 0 89.1723 12.9973 1159 76.1682 285.149 515.137
215 0 92.1529 12.718 1172 76.3319 285.049 513.038
216 0 94.1661 13.2638 1249 75.47 284.782 511.915
217 0 98.194 12.9132 1268 75.455 284.11 510.622
218 0 102.246 13.8881 1420 73.0218 284.514 509.066
219 0 104.377 12.5507 1310 75.6313 284.391 507.959
220 0 107.171 13.0073 1394 74.6786 283.937 504.747
221 1 61.0896 9.59246 586 72.7338 284.794 531.92
222 0 64.015 10.3101 660 72.8652 283.153 528.783
223 0 67.0739 10.8835 730 72.2123 283.979 526.534
224 0 68.0362 10.9354 744 71.6075 283.082 528.224
225 0 69.0513 11.3684 785 70.7057 283.146 526.285
226 0 70.2174 11.7207 823 70.1555 282.905 524.363
227 0 75.1068 11.6767 877 69.7754 282.447 524.099
228 0 75.1298 11.7264 881 70.2043 282.193 522.563
229 0 77.1555 11.6907 902 71.3259 282.494 523.299
230 0 81.1478 12.2862 997 70.6339 282.456 520.528
231 0 83.2973 12.0892 1007 71.3476 282.803 520.519
232 0 84.3478 12.1758 1027 71.6972 282.694 519.039
233 1 45.1464 9.25877 418 69.9498 283.048 539.876
234 0 48.3191 9.68561 468 70.2073 282.694 538.397
235 0 49.1992 9.43104 464 70.5754 282.86 539.022
236 0 50.3686 10.9989 554 69.1155 282.289 536.886
237 0 52.3469 11.2328 588 68.5969 282.241 535.825
238 0 52.0523 11.354 591 69.8274 282.763 537.137
239 0 55.0809 11.3106 623 69.2103 282.95 535.631
240 0 55.1592 11.639 642 69.3832 282.815 534.735
241 0 58.1063 11.5134 669 69.6622 282.363 532.553
242 0 58.342 11.8268 690 70.1232 282.667 532.832
243 0 62.1089 11.979 744 68.9879 282.63 532.528
244 0 62.056 11.8602 736 69.5639 282.41 532.042
245 0 64.0582 12.395 794 69.4421 282.421 533.203
246 0 66.0555 12.1262 801 70.0999 282.171 529.795
247 0 68.1887 12.1574 829 69.5537 282.235 528.616
248 0 72.1617 12.4581 899 68.7697 281.853 528.868
249 0 72.1018 11.6918 843 70.6074 281.669 527.612
250 0 74.0865 12.04 892 70.074 281.779 527.232
251 0 76.177 12.6547 964 69.6784 281.022 525.513
252 0 78.1334 12.6706 990 69.8899 281.552 524.725
253 0 81.1142 12.0694 979 71.1859 281.062 522.883
254 0 84.236 12.1326 1022 71.4354 280.732 522.137
255 0 89.3447 12.491 1116 70.483 280.752 521.988
256 0 90.2693 12.5513 1133 71.2736 280.512 519.889
257 0 95.3626 13.3595 1274 69.4749 280.67 518.465
258 1 50.123 10.0154 502 71.3924 281.432 540.42
259 0 55.2903 10.9242 604 69.7086 281.175 539.631
260 0 53.2251 11.442 609 69.7209 280.874 539.24
261 0 55.054 11.1345 613 71.1892 281.302 539.362
262 0 57.2066 11.9217 682 71.0059 281.367 537.324
263 0 60.0995 11.8637 713 70.9313 280.966 537.184
264 0 60.1983 11.6282 700 72.34 281.426 535.167
265 0 64.0914 12.451 798 70.2669 280.769 534.363
266 0 65.257 12.1213 791 71.6321 280.526 534.307
267 0 66.4107 12.7389 846 71.3794 280.778 532.67
268 0 69.2622 12.5898 872 71.8016 280.786 531.249
269 0 69.3155 11.8588 822 74.0547 280.832 530.17
270 0 73.2657 13.3077 975 71.6031 280.956 530.068
271 0 73.357 12.6368 927 73.1197 281.203 528.669
272 0 76.2854 12.2173 932 74.2253 281.03 527.599
273 0 78.1571 13.0762 1022 73.0059 280.702 525.976
274 0 79.4396 12.7518 1013 73.9457 280.641 524.962
275 0 83.2715 13.5941 1132 73.265 280.929 522.989
276 0 83.4069 13.8238 1153 73.8361 281.169 522.285
277 0 87.4175 13.6929 1197 73.4403 280.709 520.797
278 0 89.4133 13.0182 1164 75.1658 281.245 519.826
279 0 90.3466 13.5036 1220 74.8311 281.311 518.322
280 0 94.3814 13.4666 1271 74.6483 281.5 515.782
281 0 96.4634 13.3833 1291 74.8466 281.658 516.04
282 0 100.441 13.6001 1366 74.3009 281.357 513.846
283 0 103.436 14.057 1454 73.2153 282.128 511.939
284 0 104.45 13.2791 1387 75.8421 282.333 510.084
285 0 109.484 13.4997 1478 75.1421 282.52 509.173
286 0 109.491 13.307 1457 76.2032 282.558 504.921
287 0 111.354 13.6861 1524 76.0171 282.35 503.101
288 0 114.62 13.8196 1584 75.7563 282.835 500.609
289 0 120.334 13.7866 1659 75.5359 283.04 498.805
290 0 124.386 13.4742 1676 75.8216 283.282 496.3
291 0 130.331 14.2484 1857 73.9677 283.132 495.161
292 0 133.335 13.9498 1860 75.2441 283.363 491.772
293 0 137.512 14.1006 1939 74.8283 283.662 491.233
294 0 142.718 13.6844 1953 76.1347 283.61 486.173
295 0 150.653 14.2314 2144 74.3591 283.896 484.809
296 0 156.615 14.8262 2322 73.5207 283.923 480.829
297 0 160.618 14.5376 2335 74.6561 284.204 478.038
298 0 168.537 15.237 2568 72.6608 284.595 470.701
299 0 170.589 14.2976 2439 75.0217 284.636 471.462
300 0 176.602 14.1618 2501 75.4138 284.621 468.71
301 0 185.652 15.1197 2807 73.0727 285.098 463.704
302 0 188.486 13.9639 2632 75.8716 285.528 462.655
303 0 197.466 14.5139 2866 74.2324 285.132 459.872
304 0 202.565 14.7459 2987 74.2159 285.347 455.795
305 0 211.503 14.813 3133 73.5235 285.221 451.778
306 0 216.766 15.782 3421 71.4923 285.23 446.082
307 0 222.521 15.5401 3458 71.9485 285.564 442.35
308 0 231.642 16.0809 3725 70.9946 285.607 439.886
309 1 65.3718 11.5187 753 73.5618 284.919 523.076
310 0 65.1654 12.0616 786 71.4555 285.228 522.195
311 0 67.1413 12.8833 865 70.6509 285.23 520.914
312 0 69.1562 12.9273 894 71.6085 285.179 517.828
313 0 73.1103 12.8026 936 71.9872 284.848 517.207
314 0 75.1277 12.6185 948 72.8861 284.753 515.821
315 0 78.0877 13.075 1021 71.8541 284.574 514.971
316 0 83.1723 13.8748 1154 69.6776 284.237 513.231
317 0 86.1968 13.1211 1131 70.7577 284.372 512.185
318 1 43.0384 10.9902 473 69.8161 284 531.899
319 0 46.0441 10.1859 469 69.6674 284.964 532.915
320 0 44.0425 10.6715 470 70.9894 284.877 532.03
321 0 47.0129 11.3586 534 68.4082 283.873 531.099
322 0 47.0602 12.1334 571 68.1051 283.848 529.9
323 0 49.0276 11.4221 560 69.0714 285.661 529.012
324 0 50.0153 11.3165 566 69.2173 285.293 529.009
325 0 50.0633 12.5841 630 67.9048 284.533 526.868
326 0 52.1486 12.0809 630 68.6746 284.09 526.863
327 0 54.0718 11.8916 643 69.3826 284.401 525.286
328 0 55.1451 11.6601 643 69.6454 283.958 524.527
329 0 58.0793 11.9148 692 69.2457 283.562 523.99
330 0 60.1168 12.2262 735 68.5306 283.367 522.803
331 0 61.1625 12.148 743 68.4482 283.814 521.421
332 0 65.5152 12.0888 792 68.2841 283.16 520.721
333 0 67.4294 12.6503 853 67.3482 283.013 518.329
334 0 68.5662 11.3759 780 69.2038 282.895 517.928
335 0 72.5329 11.6499 845 68.1467 283.221 515.473
336 0 77.618 11.4793 891 67.275 282.905 515.51
337 1 38.2812 9.97878 382 66.7539 280.997 535.783
338 0 40.1314 10.2663 412 66.2233 281.437 536.121
339 0 42.1107 10.7099 451 64.969 282.022 536.104
340 0 45.2167 11.7213 530 62.9509 282.264 534.725
341 0 45.0521 10.9651 494 64.6457 281.838 535.099
342 0 45.0486 11.6541 525 63.9695 281.503 534.43
343 0 47.0544 10.626 500 65.196 280.646 534.89
344 0 49.0484 12.1105 594 63.5067 281.854 531.966
345 0 49.0985 11.1205 546 64.881 281.885 533.623
346 0 52.112 11.648 607 64.6359 281.824 532.053
347 0 53.1089 11.693 621 65.2303 281.966 531.47
348 0 53.1451 12.099 643 65.4666 281.72 530.163
349 0 54.2471 12.2956 667 65.9535 282.229 529.049
350 0 56.1082 12.2086 685 66.6102 282.22 529.918
351 0 60.3123 12.9493 781 65.1408 281.644 527.963
352 0 58.2022 12.6799 738 66.6396 281.738 527.82
353 0 61.2591 12.9287 792 66.1907 281.427 527.37
354 0 63.1485 12.7002 802 66.2394 281.116 527.499
355 0 65.1541 12.9386 843 66.1851 281.544 526.231
356 0 67.2211 12.5407 843 66.7972 281.63 525.767
357 0 70.1016 12.596 883 66.5006 281.074 523.925
358 0 68.168 12.4399 848 67.8785 282.243 521.67
359 0 74.2611 13.0351 968 65.5 281.76 522.212
360 0 76.1378 12.5562 956 66.5178 282.098 519.914
361 0 78.1472 12.6044 985 66.8061 281.59 519.891
362 0 81.235 12.7285 1034 66.4594 281.882 517.617
363 0 84.1124 12.9945 1093 65.3779 282.966 515.386
364 1 44.0604 10.0544 443 65.3183 282.44 538.036
365 0 45.026 10.8604 489 64.2454 282.513 536.761
366 0 49.05 10.9684 538 63.8941 282.773 536.188
367 0 48.0262 11.3688 546 65.3168 282.544 534.848
368 0 50.2249 11.4684 576 64.2674 281.733 534.549
369 0 51.2239 12.0061 615 63.5902 282.046 534.888
370 0 54.2812 12.0484 654 63.1881 282.292 532.795
371 0 54.2244 11.6553 632 64.3085 282.187 531.837
372 0 56.2364 11.754 661 64.2103 282.614 531.49
373 0 58.1211 12.147 706 63.2493 282.334 530.694
374 0 58.1072 11.9951 697 64.3099 282.58 528.608
375 0 60.0859 12.0661 725 64.4317 282.548 528.454
376 0 62.1217 11.8316 735 65.1102 282.717 528.306
377 0 66.1349 12.5652 831 62.3586 282.871 527.022
378 0 66.2025 12.5675 832 63.0168 283.179 524.898
379 0 67.1978 12.4558 837 63.6356 283.137 524.747
380 0 68.2103 12.6081 860 63.7058 283.502 524.412
381 0 71.1327 12.6102 897 63.6488 283.763 523.251
382 0 72.3886 12.6401 915 64.0087 283.908 520.635
383 0 76.3286 12.2628 936 64.0769 283.616 520.965
384 0 78.3713 12.2494 960 64.5615 283.708 518.789
385 0 81.4474 12.6953 1034 63.8598 283.699 518.056
386 0 84.4003 13.353 1127 63.1118 283.853 516.063
387 0 87.3844 12.1646 1063 64.7018 284.917 513.798
388 1 45.2162 10.2839 465 64.5828 284.462 535.168
389 0 49.2371 9.50502 468 65.3077 284.972 534.524
390 0 52.1597 11.0814 578 63.6332 285.413 533.756
391 0 53.0712 12.2289 649 63.0632 285.626 532.858
392 0 53.1133 12.5204 665 64.1805 285.278 530.872
393 0 57.1875 12.153 695 64.4576 285.696 529.78
394 0 57.2672 12.7822 732 63.709 285.322 529.057
395 0 60.199 12.4587 750 63.9227 285.299 529.043
396 0 61.2294 12.935 792 64.2904 285.751 526.352
397 0 61.0966 12.603 770 65.0545 285.669 526.783
398 0 64.3303 13.0887 842 64.4822 285.494 525.461
399 0 68.4214 13.2853 909 63.6788 285.449 523.163
400 0 69.213 14.1447 979 63.3023 285.257 521.346
401 0 70.4064 12.1438 855 66.7146 285.199 523.043
402 0 74.4572 13.6186 1014 65.0434 285.279 520.342
403 0 74.1888 12.8726 955 66.8042 285.778 520.747
404 0 77.3258 12.7254 984 67.4787 285.76 519.763
405 0 79.3105 13.2769 1053 67.6059 285.772 516.309
406 0 80.4121 12.809 1030 68.4184 285.473 512.418
407 0 84.5428 13.3187 1126 68.2362 285.495 511.38
408 0 88.5247 13.8041 1222 67.5998 284.954 510.966
409 0 90.4608 13.4091 1213 69.1195 285.282 508.88
410 0 91.3994 13.2277 1209 69.914 284.895 508.299
411 0 95.3864 14.0167 1337 68.7711 285.45 506.461
412 0 99.4086 13.0975 1302 69.7089 285.316 505.025
413 1 49.1709 9.94491 489 69.8712 284.196 530.215
414 0 53.206 10.9762 584 69.8836 284.192 526.594
415 0 55.116 10.7591 593 69.1889 285.317 526.578
416 0 58.137 11.7653 684 67.4693 285.244 525.608
417 0 59.1832 12.2501 725 68.0193 285.652 524.997
418 0 61.2224 12.0871 740 68.3108 285.693 524.227
419 0 62.0992 12.2385 760 68.2934 285.492 524.491
420 0 64.1261 12.2415 785 67.8739 284.871 522.852
421 0 65.346 12.8547 840 66.9631 284.377 521.187
422 0 69.3003 11.9624 829 67.6502 284.509 520.888
423 0 71.2755 12.7253 907 66.5656 284.111 518.456
424 0 76.4046 12.1459 928 68.194 283.986 519.567
425 0 79.323 13.0479 1035 66.4628 283.805 519.695
426 0 81.4935 13.0563 1064 66.6165 283.021 517.737
427 0 83.4339 13.1961 1101 66.4233 283.109 516.847
428 0 87.323 12.9405 1130 66.323 283.455 514.35
429 0 91.6058 12.4119 1137 67.124 282.621 512.366
430 0 94.2362 13.4556 1268 65.3762 282.666 510.986
431 0 94.3879 12.7983 1208 67.043 282.552 508.436
432 1 51.2525 9.34589 479 67.4196 281.415 531.564
433 0 52.2348 11.0271 576 65.0087 281.92 531.365
434 0 55.1328 11.2274 619 64.5751 281.273 530.809
435 0 56.2003 12.1708 684 63.4693 282.058 531.009
436 0 58.0603 12.4353 722 63.9792 282.132 529.731
437 0 58.113 12.5445 729 64.6145 282.354 529.468
438 0 61.1386 13.0359 797 63.7654 282.026 528.981
439 0 62.1883 13.0089 809 64.4363 281.841 526.755
440 0 64.2265 12.2691 788 65.448 282.402 527.269
441 0 64.275 13.2089 849 64.7797 282.185 526.075
442 0 66.2305 12.5471 831 65.6703 281.898 525.764
443 0 68.0758 13.2499 902 65.2539 281.504 524.608
444 0 72.1819 13.2443 956 65.0084 281.728 524.331
445 0 74.1566 13.5389 1004 64.8974 282.105 523.318
446 0 77.2092 14.0009 1081 63.9084 281.779 521.675
447 0 80.168 14.0455 1126 63.9023 281.53 519.899
448 0 82.1543 13.5477 1113 65.0404 281.392 518.251
449 0 84.2616 12.6511 1066 66.5413 281.509 518.519
450 0 86.1458 12.711 1095 67.1361 281.422 517.12
451 0 88.1766 13.575 1197 66.2865 281.055 516.892
452 0 92.1375 13.8597 1277 65.7424 281.608 515.127
453 0 95.1742 13.1653 1253 67.3504 281.583 513.974
454 0 97.2394 13.3485 1298 67.5139 281.332 511.186
455 0 101.084 14.0972 1425 66.1186 281.331 509.587
456 0 102.245 13.409 1371 68.1831 281.448 508.841
457 0 107.151 13.8589 1485 67.1508 281.416 507.281
458 1 57.1115 10.891 622 68.3441 281.043 533.268
459 0 59.1708 11.5936 686 68.2653 281.207 532.733
460 0 61.2019 11.9604 732 67.7992 281.721 531.866
461 0 62.1194 12.5726 781 68.1024 281.312 530.56
462 0 65.2877 13.2644 866 67.0531 281.157 529.289
463 0 67.1909 13.0524 877 67.8848 281.133 528.713
464 0 68.1837 12.6277 861 68.5633 280.808 527.35
465 0 71.2596 12.9246 921 68.4028 281.181 525.942
466 0 73.2985 12.6196 925 69.2335 281.138 525.705
467 0 75.2281 12.9207 972 69.4537 281.399 524.001
468 0 78.2375 12.8583 1006 69.3738 281.109 523.028
469 0 82.2214 13.6947 1126 67.4236 280.734 521.449
470 0 84.482 12.8193 1083 69.1819 281.075 521.254
471 0 88.3287 13.0422 1152 68.6207 280.919 519.717
472 0 90.3943 13.3969 1211 68.1544 280.827 517.614
473 0 94.2938 13.3943 1263 68.6057 281.074 514.558
474 1 47.0685 9.47555 446 70.2018 280.783 538.946
475 0 50.0568 9.98866 500 69.884 280.564 538.374
476 0 51.1036 11.2321 574 68.8345 280.775 537.277
477 0 54.3461 11.5004 625 67.7424 282.323 535.778
478 0 55.13 11.8992 656 67.7027 282.203 536.015
479 0 55.2812 12.2646 678 67.6018 282.639 533.872
480 0 59.2858 12.3976 735 66.8476 282.216 532.595
481 0 60.165 13.1804 793 66.0013 282.265 532.037
482 0 60.2005 12.1095 729 68.2579 282.447 532.516
483 0 63.122 12.5788 794 67.2053 282.361 531.355
484 0 65.1331 12.866 838 66.673 282.183 530.894
485 0 65.1077 12.4716 812 68.6847 282.171 528.897
486 0 68.1097 13.2287 901 67.5128 282.625 527.58
487 0 72.0728 13.0562 941 67.5866 283.228 525.411
488 0 75.0823 12.4663 936 67.7137 283.193 525.578
489 0 76.1327 12.7015 967 68.2161 282.869 524.358
490 0 79.1601 13.0874 1036 67.4961 283.122 522.196
491 0 80.1648 12.9982 1042 68.3484 283.267 519.693
492 0 85.1838 13.2302 1127 67.4756 283.462 518.2
493 1 47.1942 11.209 529 66.189 283.951 540.348
494 0 47.0374 11.0976 522 67.3448 284.027 539.648
495 0 49.1436 11.558 568 67.1074 284.308 536.954
496 0 50.0524 12.3071 616 65.9935 283.747 535.341
497 0 50.1535 12.2823 616 66.2045 282.468 535.347
498 0 52.154 11.5619 603 67.2902 282.519 535.804
499 0 53.269 12.6903 676 66.4556 282.654 534.704
500 0 55.1165 12.6459 697 66.637 282.357 532.406
501 0 57.0957 13.346 762 65.4908 282.644 532.268
502 0 58.0807 12.5515 729 67.0137 282.534 532.639
503 0 60.109 12.8433 772 67.0803 282.448 530.705
504 0 62.1026 12.7692 793 67.6141 282.124 529.386
505 0 65.0752 12.7852 832 67.6238 282.062 529.644
506 0 65.1654 13.3506 870 67.6299 282.052 527.999
507 0 66.093 13.8441 915 67.7858 281.715 527.638
508 0 69.168 12.5636 869 69.7986 281.787 526.861
509 0 68.1653 12.7631 870 70.2966 281.385 525.39
510 0 73.1053 12.9129 944 69.4693 281.376 524.905
511 0 75.142 12.8423 965 69.942 281.686 523.283
512 0 77.119 13.1355 1013 69.4492 281.719 522.792
513 0 80.2262 13.2625 1064 69.312 281.942 520.541
514 0 82.135 12.7595 1048 69.6727 281.849 519.244
515 1 48.0667 11.0888 533 69.3715 280.902 537.598
516 0 48.0352 11.4708 551 68.5009 280.929 536.599
517 0 50.0504 12.1478 608 66.2944 281.709 536.375
518 0 51.1485 11.5546 591 67.6565 281.929 536.135
519 0 52.1023 11.9572 623 66.9615 282.631 534.488
520 0 55.0899 12.3798 682 65.544 282.548 533.239
521 0 56.1595 13.0699 734 65.4837 283.124 531.743
522 0 59.1514 12.8822 762 65.4843 282.782 531.165
523 0 60.1202 12.8077 770 65.4442 283.365 531.212
524 0 61.1547 12.2476 749 65.9987 283.294 531.487
525 0 64.1787 12.808 822 65.0596 282.763 530.633
526 0 65.1972 12.3011 802 66.3192 283.18 529.075
527 0 69.1474 13.2037 913 64.3943 282.797 528.373
528 0 69.171 13.1847 912 65.4441 282.683 525.618
529 0 71.2116 13.0597 930 65.7398 283.39 525.328
530 0 72.1886 13.6448 985 65.6701 282.422 523.909
531 0 75.1812 13.3012 1000 65.757 282.559 524.134
532 0 77.1551 13.596 1049 65.6397 282.68 521.031
533 0 81.1418 14.1481 1148 64.8763 282.755 518.089
534 0 84.1716 13.7101 1154 65.4194 283.589 518.192
535 0 86.0894 13.6951 1179 65.2901 282.836 516.648
536 0 89.2017 13.7778 1229 65.0439 283.845 515.76
537 0 92.1094 13.2668 1222 66.0401 283.168 513.485
538 1 49.0593 10.681 524 66.0076 282.655 536.763
539 0 50.0332 10.8528 543 66.7514 282.401 535.451
540 0 51.081 11.609 593 66.1164 282.206 534.631
541 0 54.1803 12.3477 669 63.9671 282.993 532.658
542 0 55.0709 12.4022 683 64.2884 282.471 532.372
543 0 56.2247 12.3611 695 65.4216 283.17 531.82
544 0 59.3677 12.8016 760 63.8237 282.041 531.199
545 0 61.1394 12.6759 775 64.3832 282.328 529.339
546 0 63.1118 12.6125 796 64.5226 282.901 529.242
547 0 63.1228 13.6084 859 63.3981 282.636 527.885
548 0 66.1587 13.4071 887 63.4994 282.812 526.395
549 0 69.1398 13.0605 903 63.7287 282.463 525.776
550 0 71.1421 13.227 941 64 282.238 524.847
551 0 73.144 12.9471 947 64.603 282.339 524.475
552 0 75.1855 13.6329 1025 64.1405 282.242 521.797
553 0 78.1695 13.1509 1028 64.6595 282.64 521.539
554 0 80.3198 13.3342 1071 64.409 282.575 521.057
555 0 83.206 13.5567 1128 63.9805 282.762 519.152
556 0 86.128 13.1781 1135 64.4714 282.607 517.498
557 0 90.2562 13.0517 1178 64.8234 282.667 515.845
558 1 44.162 11.2767 498 65.1827 283.552 538.743
559 0 48.2372 10.9045 526 64.5057 283.367 537.838
560 0 47.3271 12.0438 570 65.1386 283.195 536.581
561 0 51.196 11.9345 611 64.2062 283.586 536.007
562 0 52.3034 12.6569 662 63.7417 282.909 534.677
563 0 52.2728 11.8035 617 65.8833 283.214 533.373
564 0 53.2391 12.4345 662 65.6511 282.583 532.739
565 0 58.2253 13.1386 765 63.8902 282.959 532.218
566 0 59.3848 13.0673 776 64.1804 282.523 531.418
567 0 61.1889 13.2214 809 64.115 282.204 530.556
568 0 63.279 13.3378 844 63.6351 282.776 529.195
569 0 64.2618 12.6825 815 65.2859 282.497 527.832
570 0 67.1885 12.77 858 64.12 282.246 528.252
571 0 68.2305 13.2932 907 64.817 281.688 525.484
572 0 71.236 13.8413 986 63.3783 281.538 526.58
573 0 74.3254 12.8893 958 64.4165 282.408 525.74
574 0 77.164 13.089 1010 64.1634 281.606 523.136
575 0 79.1708 12.7951 1013 65.2517 281.526 522.082
576 0 82.1828 12.314 1012 66.2283 281.01 520.359
577 1 46.1184 10.8417 500 64.894 281.984 539.434
578 0 45.0584 11.2743 508 65.1791 281.319 538.88
579 0 45.1067 11.9716 540 65.1333 281.402 537.539
580 0 49.0767 12.0016 589 64.056 281.693 537.268
581 0 50.0946 12.4963 626 63.6502 281.006 535.791
582 0 53.2402 12.3215 656 63.2927 280.206 535.123
583 0 53.2881 12.911 688 62.9767 280.298 535.548
584 0 55.1958 12.3741 683 63.8228 280.332 535.234
585 0 58.1504 12.9836 755 62.498 280.224 533.15
586 0 59.1236 12.4992 739 63.4831 280.84 533.012
587 0 60.1636 12.5325 754 64.0106 280.048 532.186
588 0 61.272 13.7257 841 62.8514 280.069 531.716
589 0 64.1877 12.5881 808 64.2005 280.337 531.191
590 0 66.1694 13.2085 874 63.2128 280.684 530.579
591 0 69.1674 12.9107 893 63.794 280.525 529.657
592 0 70.2033 13.6888 961 63.1894 280.151 528.47
593 0 75.2216 13.5732 1021 62.5867 280.509 527.361
594 0 75.1421 13.521 1016 63.748 280.361 526.344
595 1 38.2057 10.3126 394 64.6675 280.883 544.33
596 0 40.08 11.8763 476 62.5966 280.374 543.926
597 0 42.0847 11.9758 504 60.5972 280.151 542.145
598 0 43.0443 11.8018 508 60.8091 280.303 541.612
599 0 44.1964 11.9693 529 60.775 279.679 542.032
600 0 45.2285 11.9173 539 61.7662 279.362 540.506
601 0 48.2874 13.7924 666 58.3619 279.964 539.344
602 0 47.194 12.1202 572 60.9126 279.921 539.325
603 0 51.3507 12.7165 653 60.3721 279.784 536.991
604 0 52.1615 12.6913 662 61.2644 279.832 537.406
605 0 53.223 13.2274 704 60.1449 279.259 536.509
606 0 55.2625 13.3725 739 59.5886 279.991 537.161
607 0 57.2662 13.219 757 59.9326 279.732 535.542
608 0 57.2536 12.8027 733 60.7026 279.884 535.753
609 0 60.3099 12.9829 783 60.5032 280.08 533.84
610 0 62.1377 13.7759 856 59.9708 279.606 532.907
611 0 63.0921 12.7908 807 61.3333 279.84 531.73
612 0 66.1513 13.5749 898 61.0367 279.388 530.745
613 0 69.1929 13.484 933 60.7395 279.435 529.582
614 0 70.0641 13.5162 947 61.5343 279.327 529.686
615 0 72.1126 13.8811 1001 61.3746 279.862 527.782
616 0 75.1963 13.8704 1043 62.2579 279.273 525.739
617 0 76.2006 13.95 1063 64.4083 279.255 525.449
618 0 78.0416 13.6338 1064 64.7716 279.008 526.651
619 0 80.1205 14.291 1145 64.9162 279.247 522.881
620 0 81.1304 13.9405 1131 66.4492 278.768 521.991
621 0 84.1696 14.3639 1209 66.713 279.566 521.635
622 0 87.1357 14.4028 1255 67.1737 279.054 519.887
623 0 89.0909 14.2327 1268 68.5292 279.506 519.314
624 0 93.2948 14.556 1358 68.2791 279.513 517.325
625 0 94.2597 14.1418 1333 69.91 279.702 515.991
626 0 96.2812 14.1045 1358 70.4904 279.594 513.576
627 0 102.228 14.6731 1500 69.0913 280.191 512.515
628 0 105.298 14.3307 1509 69.9695 279.784 509.312
629 1 56.1137 11.9579 671 70.7437 280.584 535.171
630 0 57.1712 12.3489 706 70.8938 280.079 534.606
631 0 60.172 13.4282 808 68.6163 280.006 532.49
632 0 61.0467 12.7935 781 70.7375 279.915 531.073
633 0 63.105 13.4379 848 69.0708 281.301 530.494
634 0 66.1926 13.5211 895 68.2615 280.315 529.787
635 0 69.0933 13.7929 953 67.4879 281.122 526.966
636 0 70.0857 13.3265 934 69.091 280.851 525.198
637 0 74.2792 13.557 1007 67.9404 281.016 524
638 0 76.1433 13.4615 1025 67.8615 281.23 523.65
639 0 78.2243 13.4869 1055 67.9905 281.17 521.28
640 0 80.3135 13.6092 1093 67.8564 281.012 519.372
641 0 84.3061 13.3798 1128 67.4752 281.998 517.66
642 0 88.2897 13.7162 1211 67.2048 282.022 516.084
643 0 90.1416 13.3789 1206 68.0746 281.25 513.863
644 0 95.4779 13.7414 1312 66.6631 281.258 512.182
645 0 98.3114 14.3523 1411 66.2098 281.263 508.786
646 0 100.261 13.5147 1355 67.1166 280.992 508.245
647 1 52.2262 12.3884 647 67.0696 281.342 533.062
648 0 56.1353 12.5768 706 64.9221 281.707 531.038
649 0 57.3062 12.4768 715 66.4476 281.934 530.943
650 0 59.186 12.5705 744 66.6277 282.319 529.074
651 0 60.4662 13.0486 789 65.8213 282.053 527.606
652 0 61.1524 13.1965 807 65.6592 281.803 527.284
653 0 64.2613 13.1183 843 65.4781 282.285 525.066
654 0 66.1938 13.3849 886 64.4594 281.918 524.258
655 0 68.271 13.1535 898 64.6203 282.464 523.296
656 0 70.4238 13.3052 937 64.5966 282.109 520.615
657 0 71.1738 13.1509 936 64.2895 282.287 520.858
658 0 73.2964 13.1248 962 64.2183 282.574 519.236
659 0 77.1896 13.1365 1014 64.0247 282.358 517.721
660 0 79.2861 13.9873 1109 63.1506 282.638 515.652
661 0 81.2757 13.3496 1085 64.5502 281.914 515.68
662 0 86.2087 13.3281 1149 63.752 282.427 514.054
663 0 87.3362 13.2248 1155 64.3169 283.041 511.296
664 0 91.3521 13.7052 1252 63.4042 282.572 511.407
665 1 45.2184 11.544 522 64.6322 283.276 532.17
666 0 47.1994 11.1018 524 64.4847 282.506 531.954
667 0 48.0415 11.9272 573 64.2635 283.017 531.794
668 0 51.0212 11.9754 611 63.9771 283.804 531.383
669 0 53.0611 12.0804 641 64.6552 282.8 530.12
670 0 53.141 12.909 686 64.1939 283.198 529.883
671 0 54.1056 12.8822 697 65.4319 285.161 529.197
672 0 57.1389 13.966 798 63.2381 284.873 528.741
673 0 59.0709 13.7631 813 63.7171 285.02 528.749
674 0 59.0599 13.1731 778 65.4023 285.42 526.811
675 0 62.0649 12.7125 789 65.6603 285.798 526.392
676 0 65.0593 13.0496 849 65.3322 284.086 525.053
677 0 67.1426 13.2405 889 65.8718 284.767 523.301
678 0 69.1047 13.6894 946 64.3953 284.441 521.733
679 0 71.0998 13.9522 992 64.37 284.652 521.579
680 0 72.1336 13.0452 941 65.9394 284.476 520.884
681 0 76.1133 13.4799 1026 65.1842 284.502 520.74
682 0 77.1532 13.6222 1051 65.7269 284.436 517.669
683 0 80.1861 13.6433 1094 65.532 285.084 517.482
684 0 82.1693 13.7521 1130 65.5478 285.177 517.417
685 0 85.1123 14.6277 1245 64.502 285.128 513.265
686 0 86.0765 13.5345 1165 66.3013 284.808 515.397
687 0 86.0765 13.4996 1162 174.19 283.8 515.481
688 0 93.2521 14.0372 1309 65.7968 284.842 510.34
689 0 96.068 13.5321 1300 66.6054 284.67 509.609
690 0 99.1559 14.6234 1450 65.1566 285.192 507.284
691 1 53.193 11.3173 602 66.3621 286.176 532.342
692 0 56.0682 12.1638 682 64.5337 285.273 531.191
693 0 56.1194 12.0992 679 65.3682 285.13 529.262
694 0 57.1193 12.4651 712 65.4733 285.157 528.098
695 0 59.0887 13.0143 769 64.8088 284.381 525.588
696 0 62.0793 13.5633 842 63.5238 284.632 524.969
697 0 65.0495 13.5282 880 63.1955 284.797 524.525
698 0 66.1082 13.0695 864 63.9294 284.655 524.692
699 0 68.2723 13.7391 938 63.2889 284.209 523.004
700 0 69.3737 12.8435 891 64.2469 285.03 523.212
701 0 73.2347 13.2314 969 63.5562 284.004 522.233
702 0 76.1504 14.2875 1088 62.6599 283.432 519.571
703 0 77.2251 13.234 1022 64.2153 283.76 519.444
704 0 81.2825 13.6069 1106 63.7939 283.428 518.004
705 0 81.2173 13.4577 1093 64.785 283 516.568
706 0 86.1269 13.9213 1199 63.9466 283.264 517.672
707 0 89.081 14.1781 1263 63.5978 283.203 513.858
708 0 90.1383 14.034 1265 64.2372 282.937 512.902
709 0 94.2513 13.8778 1308 64.2164 283.242 511.074
710 0 98.283 14.2955 1405 63.3993 282.739 509.531
711 0 100.166 13.7871 1381 64.0941 283.13 509.761
712 1 55.1218 11.9009 656 64.4588 283.172 530.436
713 0 55.2836 11.8118 653 64.8928 283.375 530.392
714 0 58.2603 12.4956 728 64.3984 283.227 528.674
715 0 61.3174 12.5576 770 63.6039 283.481 527.718
716 0 64.162 13.9958 898 62.3842 282.918 525.381
717 0 64.1861 13.788 885 63.2226 282.703 525.029
718 0 66.397 13.4494 893 63.4882 282.736 523.476
719 0 69.2053 12.8603 890 63.7652 282.158 523.103
720 0 72.1742 13.9801 1009 62.2022 282.034 520.622
721 0 73.3239 14.0336 1029 62.5481 282.594 517.527
722 0 77.2525 13.553 1047 63.3286 282.515 516.274
723 0 78.2853 13.6807 1071 63.5182 281.929 516.141
724 0 81.4645 13.4537 1096 63.7655 282.203 513.838
725 0 84.2493 13.4957 1137 64.1926 281.408 512.666
726 0 87.4349 13.7817 1205 63.9079 281.358 511.661
727 0 90.1881 13.6603 1232 63.5219 281.913 509.959
728 1 46.2086 11.513 532 64.562 280.996 532.415
729 0 48.2338 11.7552 567 64.2945 280.892 531.102
730 0 49.0431 13.009 638 62.5455 281.229 531.652
731 0 54.0905 12.7934 692 61.5954 281.234 531.461
732 0 52.1071 12.1673 634 64.1751 280.868 531.262
733 0 55.1242 13.1521 725 62.5021 280.888 530.546
734 0 58.182 12.2375 712 63.2079 280.904 529.341
735 0 60.1456 12.769 768 63.1224 280.927 527.793
736 0 63.1797 13.1846 833 61.8331 280.833 527.4
737 0 64.136 12.9257 829 62.93 280.973 526.332
738 0 67.0926 13.2205 887 62.8309 280.813 524.626
739 0 70.0899 13.7252 962 62.2235 280.752 523.387
740 0 73.1517 12.9184 945 63.2233 280.447 523.241
741 0 75.0987 13.3957 1006 63.341 280.921 521.841
742 0 78.2159 13.271 1038 63.3603 281.049 519.417
743 1 40.1043 11.2457 451 63.7251 280.956 537.455
744 0 41.1152 11.0421 454 63.837 280.681 537.562
745 0 45.1502 10.897 492 63.7886 280.474 537.148
746 0 46.1104 11.364 524 63.8492 280.723 536.578
747 0 47.0331 12.353 581 62.4096 280.711 535.563
748 0 47.2033 11.9059 562 64.0943 280.429 534.144
749 0 49.0381 12.9491 635 62.2142 280.362 533.965
750 0 49.0781 12.0828 593 64.5987 280.541 533.265
751 0 53.095 12.9579 688 62.5959 280.395 532.209
752 0 54.0586 12.7269 688 63.6759 279.802 530.349
753 0 55.1809 13.0118 718 63.9178 279.599 531.057
754 0 55.106 13.1746 726 65.0427 279.777 529.435
755 0 58.1992 13.1789 767 64.5906 279.84 528.678
756 0 60.2233 13.9149 838 63.1313 279.185 528.782
757 0 63.1471 13.334 842 64.5344 279.48 525.904
758 0 66.1047 13.1609 870 64.5322 279.3 527.586
759 0 66.1021 13.933 921 63.8827 278.884 525.756
760 0 68.2371 13.4091 915 64.9989 278.757 523.868
761 0 72.1268 14.0447 1013 64.0296 279.432 522.874
762 0 73.1582 13.4366 983 65.5015 279.046 521.825
763 0 78.2854 14.5621 1140 63.6158 279.168 520.285
764 0 79.0892 13.2761 1050 66.3133 278.836 518.785
765 1 42.0185 10.4002 437 66.8513 279.188 537.263
766 0 43.0574 11.0086 474 65.9325 279.597 537.063
767 0 41.0141 10.1185 415 66.9422 278.995 539.055
768 0 45.0563 11.4745 517 65.1586 279.302 537.783
769 0 45.1518 11.2066 506 65.9723 279.419 536.213
770 0 47.1718 12.1683 574 64.4948 279.685 536.218
771 0 50.1997 12.4503 625 63.504 279.618 536.23
772 0 52.1205 13.3537 696 62.5014 279.971 533.971
773 0 53.1745 13.277 706 63.0822 280.16 533.313
774 0 55.1253 13.2063 728 63.1387 279.979 533.036
775 0 56.0806 12.4286 697 63.9527 279.95 534.686
776 0 58.1477 12.795 744 63.5927 280.659 533.905
777 0 59.1305 13.6478 807 63.2937 280.333 531.289
778 0 62.0146 13.2227 820 63.039 280.973 530.696
779 0 62.0778 13.1931 819 63.7607 280.999 529.077
780 0 66.1002 14.1149 933 62.1618 281.008 527.449
781 0 68.0568 13.3565 909 63.4917 281.285 527.095
782 0 69.1957 13.4401 930 63.6462 281.19 526.134
783 0 74.1364 13.057 968 63.7428 281.348 524.278
784 0 74.1753 13.3468 990 64.6879 281.146 522.465
785 0 77.1233 12.9014 995 65.3146 280.87 520.852
786 1 39.1371 9.93942 389 66.0283 281.828 538.452
787 0 42.3487 9.61069 407 65.7199 281.162 539.106
788 0 43.2646 10.4242 451 65.3636 281.621 536.776
789 0 45.2407 11.7593 532 63.7556 281.679 535.156
790 0 47.4212 10.9023 517 64.7621 281.925 535.491
791 0 47.1449 11.6662 550 64.52 282.242 535.115
792 0 50.1619 12.7587 640 63.6797 281.811 531.6
793 0 51.1324 11.9689 612 65.2827 282.436 531.415
794 0 52.0957 12.2851 640 64.7703 282.719 530.58
795 0 53.3407 12.3358 658 64.7325 282.578 529.682
796 0 56.3119 12.4663 702 64.3219 282.832 528.469
797 0 56.18 12.816 720 64.3264 282.875 527.629
798 0 59.2569 12.2011 723 64.7344 282.415 526.577
799 0 61.7052 12.3977 765 64.8458 282.273 523.647
800 0 63.6126 12.8119 815 64.1423 282.528 522.547
801 0 67.6963 13.2947 900 63.1067 282.721 521.117
802 0 67.5705 12.8162 866 64.6443 282.783 519.572
803 0 68.6281 12.473 856 65.979 283.065 520.123
804 0 73.8436 13.7859 1018 63.3851 282.898 518.269
805 0 75.5414 12.9201 976 65.3852 283.011 517.552
806 0 76.6648 13.2134 1013 64.9911 283.129 516.83
807 0 81.4981 13.2273 1078 64.3052 283.31 515.573
808 0 85.6446 14.0464 1203 63.2219 283.825 513.131
809 0 86.5913 13.1191 1136 65.662 283.783 512.085
810 0 89.5748 13.3296 1194 65.4983 284.101 510.828
811 0 92.6801 13.2607 1229 65.843 283.885 508.996
812 0 95.7194 13.4246 1285 66.1097 284.315 509.121
813 0 100.59 13.3314 1341 66.003 284.699 505.238
814 1 51.3308 10.9681 563 66.6359 283.67 529.387
815 0 54.3423 10.0842 548 67.7445 284.442 528.443
816 0 55.448 10.0635 558 67.5645 284.093 528.91
817 0 56.1681 11.4122 641 67.0733 284.672 527.279
818 0 57.144 12.3548 706 66.4136 284.171 526.156
819 0 62.033 11.7196 727 66.0729 284.623 526.49
820 0 64.1372 12.4265 797 65.3726 284.511 524.395
821 0 67.0709 12.6433 848 64.7524 285.219 524.202
822 0 67.1223 12.589 845 65.4225 284.579 522.245
823 0 70.0696 13.4438 942 63.9108 283.966 521.72
824 0 71.108 12.488 888 65.5698 283.417 520.137
825 0 75.1298 12.9775 975 64.9313 284.097 519.745
826 0 77.1095 12.1905 940 66.2085 283.776 517.888
827 0 81.1884 13.4132 1089 63.6961 283.674 516.699
828 0 83.1719 12.8529 1069 64.6352 283.816 514.235
829 0 84.1838 12.7103 1070 65.6776 283.416 511.55
830 0 89.2947 13.1363 1173 64.7204 283.634 511.068
831 1 47.3393 9.63259 456 66.2632 283.482 534.114
832 0 48.4124 10.0387 486 66.1646 284.082 533.842
833 0 49.3196 11.2126 553 64.6655 284.116 533.184
834 0 51.2517 11.9411 612 64.1324 283.943 532.6
835 0 54.3458 11.4636 623 64.1509 283.928 532.066
836 0 54.3428 12.1083 658 63.4681 283.681 531.251
837 0 57.3618 12.2032 700 62.78 284.043 529.616
838 0 59.2838 12.398 735 62.2095 284.622 529.672
839 0 58.2681 12.3052 717 62.8508 283.561 529.344
840 0 61.2179 11.8266 724 63.6948 283.751 528.033
841 0 62.3815 12.4396 776 63.0954 283.463 527.13
842 0 65.1973 12.2091 796 63.2626 283.295 527.525
843 0 67.2212 12.5407 843 63.2752 283.505 525.151
844 0 68.2556 12.6143 861 63.5052 283.519 523.247
845 0 69.3738 13.2327 918 62.8519 282.834 522.637
846 0 69.3305 12.6351 876 64.6324 282.667 521.559
847 0 73.5545 12.6709 932 64.4968 282.494 519.751
848 0 76.6536 12.8891 988 63.8047 282.332 519.789
849 0 78.3338 13.0723 1024 63.8203 282.043 518.586
850 0 81.324 12.235 995 64.3809 282.198 518.774
851 0 85.2315 12.6244 1076 64.3178 282.742 516.517
852 0 87.2427 13.1129 1144 64.0551 282.43 514.47
853 0 90.3666 13.3014 1202 63.5965 282.414 512.76
854 0 93.2278 13.1506 1226 64.0636 282.286 511.322
855 1 50.1985 10.08 506 63.0158 282.964 535.107
856 0 51.2216 10.0348 514 63.284 282.796 533.706
857 0 56.3499 10.4525 589 61.163 282.553 533.869
858 0 56.2561 10.3811 584 62.9812 282.247 533.692
859 0 57.2159 11.9722 685 61.3839 282.266 531.431
860 0 58.1888 11.0846 645 63.4434 281.639 529.789
861 0 60.2385 11.2221 676 63.5118 281.799 529.484
862 0 62.152 12.3246 766 61.6841 281.982 528.493
863 0 62.1328 11.0409 686 64.1297 281.491 527.098
864 0 64.165 12.2341 785 63.1758 281.39 526.655
865 0 67.1401 11.826 794 63.4068 281.215 524.222
866 0 68.1936 12.0393 821 63.8222 281.006 523.993
867 0 71.1768 11.633 828 64.5326 281.006 522.225
868 0 72.0657 12.0723 870 64.6184 281.58 523.062
869 0 75.0616 12.5497 942 64.7176 281.351 521.839
870 0 78.126 12.9278 1010 64.8099 281.214 520.473
871 0 79.11 12.3752 979 66.2533 281.015 517.374
872 0 82.1568 12.2936 1010 66.598 280.012 518.645
873 0 84.1736 12.2485 1031 66.9961 279.466 516.718
874 0 87.2618 12.5484 1095 67.3388 280.067 514.746
875 0 89.1865 12.5692 1121 67.116 279.289 514.907
876 0 92.1724 12.6177 1163 67.4411 279.43 512.404
877 0 94.1311 12.6207 1188 67.5396 279.276 511.636
878 1 54.0242 10.1066 546 67.3993 279.062 533.603
879 0 54.0935 9.85331 533 68.5141 279.368 533.863
880 0 56.0604 10.56 592 69.0659 278.309 531.97
881 0 58.316 10.889 635 68.3165 280.427 530.811
882 0 60.1733 11.4336 688 68.1555 280.227 528.868
883 0 62.195 11.7534 731 66.3653 280.554 530.765
884 0 63.1051 11.6631 736 66.6264 281.673 529.057
885 0 64.1703 11.9837 769 66.1339 281.451 528.035
886 0 67.0968 11.9231 800 66.3625 281.108 526.171
887 0 69.1709 12.1294 839 66.5554 281.465 525.377
888 0 71.0967 11.7305 834 67.1703 281.665 524.559
889 0 73.1546 12.248 896 66.5647 281.701 524.628
890 0 76.1279 12.9256 984 64.9644 281.632 522.214
891 0 76.1882 12.1016 922 66.5803 281.816 521.789
892 0 80.0675 12.5019 1001 66.9161 281.498 519.696
893 0 82.1881 12.3984 1019 67.2983 281.62 517.974
894 0 84.1843 12.6508 1065 102.244 280.822 518.213
895 0 84.1843 12.6389 1064 144.263 280.808 518.044
896 1 47.2166 9.95414 470 67.7149 281.657 535.26
897 0 48.3045 9.50222 459 68.366 281.425 534.024
898 0 49.1422 10.9478 538 66.4257 281.799 533.522
899 0 52.139 11.9872 625 66.4176 283.026 532.563
900 0 52.2926 11.9902 627 65.4976 282.665 532.204
901 0 53.1721 11.5662 615 66.9154 282.733 530.727
902 0 53.2015 11.541 614 68.0635 283.337 529.577
903 0 55.2098 12.2442 676 67.0533 283.262 528.772
904 0 57.2547 11.8244 677 68.8936 283.49 528.306
905 0 58.2251 11.7132 682 69.1393 283.463 527.921
906 0 59.2286 11.8524 702 69.7422 283.721 526.635
907 0 61.1238 12.4992 764 68.8207 284.082 526.318
908 0 61.1671 12.1634 744 69.9167 284.27 524.888
909 0 62.2018 12.4273 773 69.7335 283.944 524.468
910 0 65.1129 12.4706 812 69.5554 284.094 523.302
911 0 68.2493 13.1137 895 67.4916 284 524.021
912 0 70.082 11.9717 839 69.8129 283.821 522.721
913 0 71.284 13.0885 933 68.7567 283.845 520.004
914 0 73.2948 13.0705 958 68.8695 283.816 520.269
915 0 76.3605 12.8601 982 69.3717 284.43 518.502
916 0 78.2664 12.8919 1009 69.4886 284.134 516.036
917 0 80.2022 12.3438 990 70.5394 284.688 515.668
918 1 43.0946 9.88522 426 69.8991 285.345 534.894
919 0 45.2259 10.2817 465 69.0731 284.886 533.475
920 0 46.108 10.8007 498 69.1767 285.054 532.382
921 0 46.1568 11.9376 551 67.6897 285.639 533.29
922 0 48.1349 10.5121 506 69.3953 286.142 532.103
923 0 50.2246 12.5636 631 65.2868 285.54 531.29
924 0 50.1336 11.0704 555 68.3622 286.034 532.013
925 0 52.2272 12.5031 653 66.2511 285.776 529.317
926 0 52.2821 11.5718 605 67.5355 285.821 530.83
927 0 55.0756 12.5464 691 66.3271 285.861 529.703
928 0 59.152 12.358 731 65.7989 286.018 528.747
929 0 58.2207 12.5213 729 66.7353 286.095 527.934
930 0 61.1756 13.0771 800 65.9662 286.519 527.611
931 0 63.1855 13.2942 840 65.8012 286.111 526.002
932 0 63.2608 11.7767 745 69.1047 285.882 526.299
933 0 65.236 13.5201 882 67.0488 285.867 523.501
934 0 68.3271 12.806 875 68.1989 285.434 523.936
935 0 70.214 13.4446 944 67.5508 285.625 522.575
936 0 73.2084 13.3182 975 67.7231 285.321 523.087
937 0 73.2118 13.2082 967 69.9038 285.066 521.212
938 0 77.348 13.4716 1042 69.1248 285.307 521.006
939 0 79.2235 13.4808 1068 69.72 285.612 519.337
940 0 81.4472 15.1141 1231 67.6214 285.266 518.491
941 0 82.5212 13.5238 1116 71.2625 285.045 516.81
942 0 86.3027 14.8779 1284 68.796 284.758 516.129
943 0 87.4841 13.7053 1199 71.0342 284.596 515.714
944 0 89.3321 14.642 1308 70.3547 284.554 513.014
945 0 91.496 13.6727 1251 71.8753 284.29 512.867
946 0 96.3003 14.6417 1410 69.9546 284.214 511.376
947 0 98.4055 14.5724 1434 70.8375 284.022 510.507
948 0 101.51 14.6784 1490 70.649 283.758 509.27
949 0 104.553 14.6529 1532 70.5692 283.702 508.36
950 0 106.3 14.0264 1491 71.5345 283.252 505.99
951 0 110.311 13.5979 1500 71.7133 283.35 506.005
952 0 112.26 14.1636 1590 71.344 283.141 501.918
953 1 60.1135 11.1123 668 72.7994 283.451 529.814
954 0 63.1705 11.841 748 71.111 283.152 527.662
955 0 65.22 11.7755 768 71.138 282.786 526.732
956 0 67.1021 12.25 822 70.938 283.202 526.214
957 0 69.1235 13.2372 915 69.5716 283.261 523.765
958 0 73.2051 12.8133 938 69.6844 282.92 522.724
959 0 75.358 13.124 989 69.1385 283.414 521.759
960 0 78.3196 13.5981 1065 68.3183 283.348 521.341
961 0 80.346 13.5663 1090 68.444 282.873 519.031
962 0 81.3683 13.8137 1124 68.5472 283.093 517.109
963 0 87.4466 13.5054 1181 68.3827 283.262 517.057
964 0 90.6056 13.785 1249 68.1065 282.987 515.356
965 0 92.3514 13.8168 1276 68.1215 282.703 514.56
966 0 96.3914 13.8498 1335 68.206 282.825 511.82
967 0 98.3459 13.8796 1365 68.1868 282.968 511.469
968 0 100.271 13.9023 1394 68.5287 282.724 509.732
969 0 104.42 13.7809 1439 68.7853 282.432 507.838
970 0 107.404 14.0032 1504 68.8424 282.675 506.103
971 0 111.396 13.9771 1557 69.149 282.539 502.945
972 0 114.46 13.804 1580 69.2582 283.044 502.247
973 0 118.415 14.2042 1682 69.2681 282.809 499.041
974 0 122.356 14.1391 1730 69.2393 282.894 499.376
975 1 65.1961 10.9976 717 71.6709 282.375 527.916
976 0 66.2166 12.2175 809 70 282.352 528.12
977 0 70.2107 13.2743 932 67.8809 282.069 527.074
978 0 72.2101 13.2391 956 68.4278 282.031 524.19
979 0 73.3115 12.8084 939 69.8296 281.571 522.361
980 0 77.3185 12.7912 989 69.003 281.868 522.211
981 0 78.1737 12.9711 1014 70.1726 281.79 519.947
982 0 84.3392 13.8014 1164 67.9725 281.815 518.987
983 0 85.2973 13.5057 1152 68.855 281.49 517.26
984 0 88.1458 13.6932 1207 68.9536 281.287 515.746
985 0 90.3657 13.5671 1226 69.3711 281.277 514.243
986 0 93.1508 13.6016 1267 69.2889 281.335 514.361
987 0 98.4725 13.3337 1313 69.7144 281.433 512.265
988 0 100.117 12.9748 1299 70.2179 281.363 510.842
989 1 52.0216 10.9378 569 68.819 281.735 534.708
990 0 55.0411 10.6829 588 68.6395 281.491 534.912
991 0 54.1596 11.5584 626 68.2732 280.668 534.334
992 0 58.2634 12.186 710 66.8606 280.318 532.051
993 0 59.2566 12.4206 736 67.572 280.374 531.753
994 0 62.1373 12.585 782 66.4476 280.019 531.194
995 0 62.0903 12.3691 768 67.4531 279.814 529.957
996 0 64.0186 12.5901 806 67.1154 279.996 529.63
997 0 66.0711 12.1687 804 67.6157 280.131 529.524
998 0 70.0829 13.4698 944 65.8676 279.541 526.212
999 0 71.1149 12.6415 899 66.7597 279.999 526.758
1000 0 73.0677 12.9743 948 67.9515 280.389 525.939
1001 0 75.0596 13.3227 1000 66.678 280.374 524.456
1002 0 76.3312 13.1401 1003 67.0818 280.108 524.186
1003 0 81.2586 14.3246 1164 64.6881 280.436 522.088
1004 0 82.1995 13.6497 1122 66.6337 280.498 520.833
1005 0 85.1066 12.9602 1103 67.786 280.124 519.822
1006 0 85.166 13.1508 1120 68.0607 280.473 518.814
1007 0 85.166 13.0803 1114 179.645 280.5 518.842
1008 0 91.195 13.8385 1262 67.0705 280.459 518.498
1009 0 93.2194 13.538 1262 67.9857 280.34 515.996
1010 0 96.118 13.7331 1320 67.6545 280.19 515.243
1011 0 100.152 13.3697 1339 68.413 280.237 513.791
1012 0 103.245 14.1411 1460 68.4199 280.354 511.043
1013 0 106.403 14.0316 1493 68.7441 280.412 511.253
1014 0 108.153 14.424 1560 68.8776 280.171 508.167
1015 0 112.225 13.9184 1562 68.5557 280.238 505.389
1016 0 118.111 13.8767 1639 68.5656 280.309 503.94
1017 0 122.14 14.0413 1715 68.2239 280.668 502.806
1018 1 65.0726 11.2797 734 68.3229 280.557 531.342
1019 0 66.1 12.4055 820 67.5317 281.018 530.337
1020 0 69.0875 12.6941 877 67.3979 280.713 529.494
1021 0 73.191 13.0617 956 66.8285 280.718 528.042
1022 0 72.1311 12.8655 928 67.9332 280.778 526.212
1023 0 77.1079 13.0077 1003 67.1675 281.207 525.671
1024 0 79.1316 13.0795 1035 66.7691 281.383 524.417
1025 0 80.1228 13.2921 1065 67.492 282.235 521.596
1026 0 84.1649 12.5468 1056 67.7888 282.296 519.179
1027 0 86.1616 13.6604 1177 66.1402 282.327 518.236
1028 0 89.3484 13.3075 1189 66.704 282.795 518.241
1029 0 94.2861 13.7984 1301 65.3713 282.647 517.537
1030 0 94.3053 13.4669 1270 67.0606 283.055 514.027
1031 0 96.378 13.2292 1275 67.7529 282.726 512.307
1032 0 103.322 13.124 1356 66.8451 282.681 511.82
1033 0 104.261 13.6197 1420 66.6268 283.031 508.518
1034 0 109.469 13.3554 1462 67.0732 283.803 507.993
1035 1 62.3258 11.6966 729 67.845 283.509 530.033
1036 0 63.2969 12.0069 760 67.8316 283.582 528.345
1037 0 67.4146 12.4157 837 67.3775 283.881 527.409
1038 0 68.3569 12.8297 877 67.2144 284.303 524.75
1039 0 70.2975 12.2337 860 68.4291 284.187 525.057
1040 0 74.29 13.6492 1014 66.501 284.753 522.986
1041 0 74.2991 13.5264 1005 67.7124 285.335 522.517
1042 0 77.3504 12.4886 966 69.617 285.24 521.893
1043 0 80.5752 13.7015 1104 68.0525 285.236 518.404
1044 0 81.3807 12.9023 1050 70.5267 285.335 518.436
1045 0 85.165 13.374 1139 70.1545 285.568 516.781
1046 0 87.3248 12.986 1134 71.6614 285.708 514.908
1047 0 90.1812 13.8277 1247 69.3136 285.758 514.657
1048 0 94.2345 13.4133 1264 70.2959 285.741 513.051
1049 0 98.148 13.9789 1372 69.4213 285.394 511.332
1050 0 101.111 13.955 1411 70.0794 285.938 509.813
1051 1 52.1568 10.7369 560 71.7661 285.664 533.361
1052 0 53.1678 10.1001 537 72.473 285.443 533.19
1053 0 55.2055 10.2526 566 73.9011 285.633 531.588
1054 0 58.2309 11.3342 660 71.7485 285.785 530.729
1055 0 59.1445 12.2581 725 71.5103 286.041 529.612
1056 0 61.2457 12.556 769 70.7256 285.138 526.954
1057 0 64.0727 12.5795 806 71.0099 284.797 527.65
1058 0 65.0872 12.6138 821 71.5006 285.096 527.005
1059 0 65.0872 12.5985 820 167.989 285.104 527.034
1060 0 69.0975 12.9238 893 70.7301 284.002 525.578
1061 0 70.1165 12.5933 883 71.5866 284.769 524.489
1062 0 72.0706 12.8624 927 71.3517 284.78 522.718
1063 0 77.0995 13.8133 1065 69.5559 284.485 521.799
1064 0 78.0711 13.6158 1063 70.4487 284.823 520.786
1065 0 80.1232 13.8037 1106 70.9539 284.616 517.652
1066 0 82.1318 13.9532 1146 70.5244 284.57 518.134
1067 0 86.0667 13.7335 1182 70.6929 284.528 518.004
1068 0 89.1188 13.6447 1216 70.736 284.507 515.949
1069 0 90.1816 13.3176 1201 71.5445 284.497 514.827
1070 1 49.0857 10.2066 501 72.9142 283.465 536.433
1071 0 50.1489 10.4489 524 72.9637 283.345 536.368
1072 0 51.118 10.8768 556 73.3381 284.174 537.178
1073 0 51.1751 12.2521 627 72.4657 283.633 535.113
1074 0 52.0543 12.1988 635 73.5465 283.339 530.197
1075 0 52.2395 12.1173 633 74.0126 283.828 530.687
1076 0 53.2407 12.6971 676 72.8284 283.833 530.12
1077 0 54.3043 11.8591 644 74.1988 283.708 530.866
1078 0 54.2527 12.5339 680 74.0735 283.601 531.215
1079 0 56.2085 12.3469 694 74.9841 283.226 530.122
1080 0 57.2145 13.2659 759 74.4875 283.228 531.81
1081 0 58.1494 12.915 751 76.1265 283.177 530.563
1082 0 60.31 13.2151 797 75.4103 282.917 530.02
1083 0 64.2216 13.5624 871 74.2124 283.049 529.095
1084 0 65.2635 12.7024 829 75.8601 282.767 527.491
1085 0 68.265 13.5355 924 74.2522 282.999 526.955
1086 0 69.1153 13.2966 919 75.2971 283.178 526.227
1087 0 71.1659 13.4615 958 75.3194 283.381 526.322
1088 0 75.2628 13.4861 1015 73.9172 282.883 527.133
1089 0 78.1422 13.2195 1033 74.9622 282.704 522.905
1090 0 80.073 13.4377 1076 74.8439 282.908 521.871
1091 1 46.0589 11.203 516 75.2306 282.155 538.729
1092 0 47.1196 12.0332 567 73.8307 282.661 538.695
1093 0 50.1335 11.5891 581 74.5577 282.89 537.723
1094 0 51.1611 12.099 619 73.0258 283.252 537.595
1095 0 53.1385 12.6462 672 72.753 282.795 535.381
1096 0 54.2383 12.5557 681 73.464 283.084 534.498
1097 0 56.1533 13.0357 732 72.5724 282.346 533.038
1098 0 56.1995 11.9218 670 74.7597 282.713 532.433
1099 0 59.1375 12.3948 733 73.487 283.004 531.383
1100 0 62.1457 12.3098 765 73.5529 282.563 530.497
1101 0 64.1258 12.5067 802 73.4501 282.597 530.572
1102 0 65.163 11.617 757 75.3131 282.25 528.587
1103 0 69.2149 12.2806 850 73.48 282.047 527.322
1104 0 71.1639 13.1527 936 71.9038 282.323 525.253
1105 0 75.1132 13.0869 983 71.823 281.768 524.828
1106 1 39.0305 8.71113 340 74.3765 280.906 543.179
1107 0 43.0451 10.6168 457 72.6061 281.19 541.376
1108 0 42.1221 10.2796 433 74.0855 280.753 539.949
1109 0 43.0833 10.7002 461 73.4642 281.009 539.803
1110 0 44.0577 10.8267 477 73.6939 281.52 538.088
1111 0 48.0417 11.4068 548 72.6661 280.593 535.476
1112 0 49.1171 11.4013 560 72.9946 280.884 536.384
1113 0 51.0857 11.5297 589 72.6604 281.194 537.598
1114 0 50.0846 12.2193 612 73.3284 281.093 535.044
1115 0 54.0687 11.9108 644 72.7888 280.62 535.34
1116 0 55.1514 12.4022 684 71.8523 280.364 534.661
1117 0 54.0993 12.6989 687 72.7613 280.293 533.086
1118 0 56.0952 12.5501 704 73.2358 280.288 532.162
1119 0 58.3397 12.9586 756 72.0278 280.64 531.923
1120 0 60.1915 13.1746 793 71.8928 280.325 531.288
1121 0 61.1888 13.7443 841 71.17 280.811 530.555
1122 0 63.3007 13.0488 826 72.7542 280.811 528.864
1123 0 66.335 13.0399 865 72.3156 280.895 526.879
1124 0 68.3968 13.4655 921 71.4191 281.048 527.51
1125 0 71.2021 13.7777 981 70.3425 281.06 527.891
1126 0 72.2723 13.3661 966 71.7226 281.428 526.784
1127 0 73.4828 12.7377 936 73.6763 281.085 525.516
1128 0 75.3118 12.9595 976 72.999 281.1 524.674
1129 1 42.2685 11.3087 478 73.1234 280.565 541.259
1130 0 43.3064 10.5296 456 72.6272 281.726 540.338
1131 0 45.1386 11.3207 511 73.5793 280.81 540.419
1132 0 46.1954 11.4081 527 74.1347 280.869 539.252
1133 0 48.1849 11.6219 560 72.5464 280.646 538.318
1134 0 49.1896 12.0147 591 72.8765 280.597 536.409
1135 0 51.188 12.1317 621 72.5958 281.462 536.217
1136 0 51.1597 12.5098 640 72.7578 281.259 535.378
1137 0 55.2347 12.7456 704 71.3594 281.314 534.737
1138 0 54.2521 13.0686 709 72.158 281.382 533.652
1139 0 57.1775 12.8022 732 71.7664 281.639 534.699
1140 0 56.2968 12.6473 712 72.9326 281.542 533.081
1141 0 58.3278 12.3783 722 72.5762 281.843 532.17
1142 0 61.2663 13.4495 824 72.3228 281.534 530.319
1143 0 63.2767 13.3224 843 72.9763 281.841 529.284
1144 0 65.2461 12.905 842 73.6283 282.119 527.197
1145 0 65.225 13.4458 877 73.7685 282.123 523.553
1146 0 69.2236 13.0447 903 73.4197 282.268 525.056
1147 0 72.1901 13.3952 967 73.7777 282.855 519.371
1148 0 74.2093 13.691 1016 73.4636 283.134 521.174
1149 0 75.2222 14.0517 1057 73.2602 283.06 520.357
1150 0 79.3494 13.346 1059 73.3456 283.036 521.619
1151 0 82.2475 13.4351 1105 73.4652 283.497 519.973
1152 0 84.2737 13.8833 1170 72.6726 283.669 516.047
1153 0 86.2753 14.1176 1218 71.9458 284.201 515.764
1154 0 89.3522 13.2621 1185 73.2684 284.338 515.004
1155 1 48.2131 11.2832 544 75.1305 283.632 534.585
1156 0 48.2332 11.5273 556 74.7122 283.746 534.173
1157 0 50.11 11.7142 587 74.0784 284.082 533.639
1158 0 53.1307 12.4975 664 71.8268 284.304 533.152
1159 0 54.0354 12.936 699 71.2346 284.874 527.987
1160 0 56.1718 12.533 704 71.2031 286.618 516.026
1161 0 58.1082 13.2856 772 70.4767 286.573 507.821
1162 0 58.1421 12.7274 740 72.6162 286.931 507.151
1163 0 58.152 13.1552 765 72.3242 286.634 506.928
1164 0 61.0771 13.5075 825 71.3576 286.958 504.444
1165 0 64.126 13.6138 873 70.0974 286.911 506.682
1166 0 66.0851 13.7247 907 69.9316 286.685 509.31
1167 0 68.1116 14.0945 960 69.4542 286.934 510.382
1168 0 70.023 13.9526 977 70.0553 287.026 510.919
1169 0 70.1667 14.095 989 70.4095 286.874 513.363
1170 0 73.186 13.9371 1020 71.0686 286.805 512.996
1171 0 74.1057 14.0205 1039 71.873 287.025 515.084
1172 0 77.1246 13.5754 1047 71.8214 287.662 514.555
1173 0 80.1399 13.5513 1086 71.9024 287.809 514.95
1174 0 84.1264 14.0146 1179 70.732 287.757 514.014
1175 1 48.0245 11.1193 534 72.5918 287.453 531.61
1176 0 49.0968 11.3042 555 73.5712 287.854 528.822
1177 0 49.08 12.1842 598 72.5853 287.811 530.152
1178 0 52.1186 12.8361 669 71.6129 287.828 529.945
1179 0 53.1517 13.1698 700 71.5543 288.166 525.279
1180 0 53.0701 13.7742 731 71.5746 287.815 527.129
1181 0 56.1869 13.3127 748 71.996 288.156 526.243
1182 0 58.0845 13.0844 760 72.2947 287.508 526.007
1183 0 58.1081 13.2167 768 73.1784 286.913 525.814
1184 0 60.121 13.1901 793 73.2169 287.411 524.498
1185 0 61.1274 13.431 821 73.3143 286.97 524.633
1186 0 65.3271 13.6391 891 72.1908 286.524 524.022
1187 0 67.1926 13.692 920 72.075 286.379 524.729
1188 0 68.3362 12.7312 870 74.154 286.895 523.411
1189 0 69.1318 13.1777 911 74.0801 287.054 521.963
1190 0 72.1282 14.1692 1022 72.2231 285.577 521.707
1191 0 75.2958 13.5598 1021 72.6454 286.243 521.509
1192 0 77.2229 13.1697 1017 74.1298 286.019 520.18
1193 0 79.344 13.2083 1048 74.3511 286.187 518.392
1194 0 81.1882 13.3517 1084 74.2085 286.253 518.153
1195 1 41.2043 11.0668 456 75.6075 286.121 535.404
1196 0 44.2167 11.3532 502 75.4861 285.833 535.189
1197 0 46.4012 11.7023 543 73.7238 285.928 534.958
1198 0 47.1893 12.185 575 74.113 285.713 533.84
1199 0 48.3813 13.1042 634 73.0584 285.885 533.191
1200 0 50.2109 12.7861 642 73.5436 285.453 532.62
1201 0 51.239 12.9589 664 73.5783 285.349 531.812
1202 0 54.3812 12.725 692 73.6199 285.039 531.092
1203 0 53.2086 13.4189 714 73.4076 285.077 530.49
1204 0 58.3624 13.0221 760 73.2553 284.841 530.024
1205 0 59.4361 12.6354 751 74.3129 284.843 528.529
1206 0 59.3143 12.7457 756 74.3571 284.786 527.237
1207 0 62.2779 13.1507 819 73.4701 284.582 527.639
1208 0 64.3405 13.211 850 73.7329 284.562 526.686
1209 0 65.3034 13.2305 864 73.6701 284.779 525.846
1210 0 69.3386 12.8932 894 72.6857 284.245 525.209
1211 0 71.2529 14.0064 998 71.3006 285.108 524.268
1212 0 74.2369 13.5782 1008 71.6161 284.928 521.981
1213 0 74.4053 12.7814 951 73.4732 284.571 521.68
1214 0 77.1423 13.4816 1040 72.6779 284.229 520.118
1215 0 80.375 13.661 1098 71.9872 284.136 518.813
1216 0 82.2737 13.6131 1120 72.3946 283.74 517.064
1217 0 82.2737 13.5888 1118 154.827 283.74 517.02
1218 0 88.2593 13.7776 1216 72.3158 283.822 515.361
1219 0 89.3969 13.8931 1242 72.4396 283.761 514.436
1220 0 92.4145 14.4458 1335 71.8367 283.645 512.139
1221 0 96.2884 13.9061 1339 72.3876 284.42 511.331
1222 0 97.4439 13.2897 1295 73.7737 283.804 511.042
1223 0 100.486 13.5839 1365 73.6593 283.44 508.457
1224 0 105.501 14.1611 1494 72.2236 282.901 507.05
1225 0 107.438 14.0733 1512 72.2586 282.562 504.294
1226 0 112.377 13.8373 1555 73.0495 282.559 501.023
1227 0 115.349 14.3391 1654 72.3718 282.454 498.927
1228 0 119.268 14.1446 1687 73.0308 282.322 496.507
1229 0 124.619 14.2996 1782 72.4254 282.442 495.74
1230 0 127.446 14.4767 1845 72.684 282.399 495.001
1231 0 131.392 14.7345 1936 72.3864 282.365 491.907
1232 0 135.33 14.1653 1917 73.1539 282.036 489.407
1233 0 138.469 14.5593 2016 73.3423 281.867 487.604
1234 1 75.4704 11.7265 885 72.7785 282.028 523.973
1235 0 77.4199 13.0328 1009 72.6591 281.608 520.336
1236 0 80.4794 12.3261 992 74.4617 281.62 517.54
1237 0 83.7873 13.6417 1143 72.4882 281.599 515.606
1238 0 85.4244 13.4856 1152 73.059 281.775 514.942
1239 0 88.6021 13.0584 1157 74.0095 281.793 513.649
1240 0 89.4221 13.207 1181 74.5555 281.421 513.273
1241 0 95.6241 13.8982 1329 72.4612 282.017 511.789
1242 0 96.7118 13.5351 1309 73.2697 281.686 510.257
1243 0 99.4952 13.3775 1331 73.6454 281.791 509.278
1244 0 101.427 13.5566 1375 73.4851 281.823 508.736
1245 0 105.564 13.6031 1436 73.4861 281.704 506.025
1246 0 106.354 13.2388 1408 74.6513 282.009 504.932
1247 0 113.589 13.6545 1551 73.1335 281.617 501.756
1248 0 115.596 13.6337 1576 75.5336 281.641 500.753
1249 0 120.58 14.1566 1707 74.4107 281.981 500.165
1250 0 122.757 14.0847 1729 75.0885 282.457 497.887
1251 0 128.723 13.8592 1784 74.917 282.644 496.775
1252 0 131.7 14.7153 1938 74.1744 282.848 493.352
1253 1 70.4718 11.2243 791 76.5537 282.374 524.898
1254 0 72.398 12.6385 915 75.4481 282.801 522.913
1255 0 74.2068 12.6808 941 74.779 282.718 520.966
1256 0 75.4119 12.7434 961 74.8918 283.097 521.222
1257 0 79.4414 12.6257 1003 74.9601 283.308 518.573
1258 0 80.4315 12.8308 1032 75.2267 283.859 517.003
1259 0 85.2441 13.3264 1136 74.2403 283.488 517.085
1260 0 87.4905 12.87 1126 74.9654 283.782 515.272
1261 0 90.3163 13.032 1177 74.7052 284.017 513.086
1262 0 92.4319 13.5559 1253 74.1429 283.94 512.431
1263 0 93.456 13.4395 1256 74.7404 284.193 509.983
1264 0 98.4218 13.9298 1371 73.6003 284.241 507.858
1265 0 102.336 13.9736 1430 73.0825 283.938 508.515
1266 0 105.268 14.0118 1475 72.9634 284.301 505.704
1267 0 107.327 13.5194 1451 73.6478 284.544 504.289
1268 0 111.3 13.3962 1491 73.8746 284.714 501.942
1269 0 114.265 13.5912 1553 73.3155 284.666 501.467
1270 0 118.307 13.541 1602 73.1835 284.641 498.59
1271 1 65.1767 12.1516 792 72.6907 284.942 524.785
1272 0 65.1942 11.9336 778 73.3663 285.233 523.397
1273 0 68.2218 12.4154 847 72.2739 285.399 522.319
1274 0 70.2613 12.4108 872 72.3475 285.718 519.405
1275 0 71.2221 12.7769 910 72.2813 286.231 520.103
1276 0 75.1697 13.7289 1032 70.1066 286.337 518.66
1277 0 77.1955 13.1096 1012 70.8409 286.571 517.682
1278 0 79.209 13.3823 1060 70.6057 287.458 515.496
1279 0 81.1226 13.079 1061 71.0462 287.392 515.704
1280 0 84.2785 12.696 1070 71.5542 286.952 515.092
1281 0 88.4672 13.7791 1219 69.9171 286.915 512.07
1282 0 88.1871 13.2559 1169 71.7374 287.678 510.621
1283 0 92.3207 13.9297 1286 70.0311 287.426 507.171
1284 0 94.2556 13.0496 1230 71.4114 287.719 507.03
1285 0 100.377 13.1504 1320 70.3295 287.746 506.017
1286 0 102.323 13.3988 1371 69.9416 287.666 503.503
1287 0 107.268 13.7972 1480 68.6831 287.542 501.749
1288 1 58.3015 11.0632 645 69.214 287.764 526.167
1289 0 62.2813 11.3838 709 69.4795 287.453 525.306
1290 0 62.2264 11.6349 724 69.8826 287.78 525.521
1291 0 64.2227 12.7681 820 68.0134 287.66 523.03
1292 0 66.1439 12.624 835 68.5066 287.756 523.001
1293 0 66.1439 12.624 835 160.528 287.756 522.97
1294 0 70.3087 13.2985 935 66.6738 288.015 521.095
1295 0 71.3876 12.3411 881 68.5766 287.906 519.106
1296 0 75.2439 12.9712 976 68.2664 287.458 517.247
1297 0 77.4438 13.0675 1012 67.9091 287.303 516.61
1298 0 79.3555 12.7905 1015 68.2581 287.042 515.424
1299 0 81.4989 13.448 1096 67.5867 287.321 514.067
1300 0 82.3492 13.0177 1072 68.8955 287.214 512.826
1301 0 88.3617 13.3089 1176 67.2857 286.256 513.935
1302 0 90.232 13.5207 1220 67.2074 286.202 512.636
1303 0 94.3712 13.5423 1278 66.8975 286.624 510.615
1304 0 95.2798 13.3816 1275 67.1278 287.213 508.507
1305 0 101.335 13.559 1374 66.4323 286.84 505.549
1306 1 54.1653 11.1141 602 67.6096 285.663 529.179
1307 0 57.141 11.3229 647 68.4343 286.896 527.116
1308 0 60.039 11.9922 720 67.1528 285.979 525.847
1309 0 62.1246 11.8633 737 65.8507 286.205 525.522
1310 0 62.1075 13.0419 810 65.6173 285.66 523.267
1311 0 65.1291 13.2813 865 65.0243 286.377 522.382
1312 0 68.2314 12.5162 854 65.5773 286.66 522.155
1313 0 70.162 13.2835 932 64.5086 286.423 519.112
1314 0 71.3926 11.7239 837 66.8686 286.474 519.766
1315 0 76.2736 13.1238 1001 64.8002 285.564 518.722
1316 0 76.2327 12.5012 953 66.1018 285.506 517.122
1317 0 78.3851 13.3316 1045 65.3053 285.164 519.896
1318 0 83.5884 12.8128 1071 65.8525 285.051 518.346
1319 0 85.5357 13.2576 1134 65.0608 285.223 516.113
1320 0 86.3391 13.3659 1154 65.4385 284.549 514.392
1321 0 89.2584 13.5786 1212 65.6056 284.742 514.232
1322 0 93.3882 13.3422 1246 65.248 284.39 512.982
1323 0 96.6208 13.9204 1345 64.374 284.042 510.387
1324 0 100.49 13.3646 1343 64.3931 284.354 508.9
1325 0 102.668 14.0745 1445 63.681 283.868 508.148
1326 1 57.2524 10.6022 607 64.6277 284.002 532.974
1327 0 58.5234 10.8675 636 65.4308 283.659 530.774
1328 0 59.4273 11.4762 682 65.3636 283.575 528.614
1329 0 61.451 12.4164 763 64.2896 283.773 527.312
1330 0 65.2194 12.4809 814 63.7224 283.514 527.971
1331 0 66.2941 13.0027 862 63.0731 283.383 527.744
1332 0 67.231 12.8363 863 64.4102 283.366 526.121
1333 0 68.4296 12.5384 858 64.4779 282.819 524.751
1334 0 69.5359 12.9861 903 66.5138 283.096 525.281
1335 0 72.5038 12.7993 928 66.3308 282.906 523.328
1336 0 73.3782 12.6059 925 66.9838 282.766 520.638
1337 0 77.3625 12.7969 990 65.8424 282.964 521.09
1338 0 80.3692 12.4301 999 66.5115 282.989 520.098
1339 0 83.4125 12.8758 1074 65.6099 282.693 518.615
1340 0 83.3231 12.5295 1044 66.5613 283.39 517.49
1341 0 88.3133 13.2709 1172 64.8319 283.892 516.904
1342 0 93.2907 13.1846 1230 64.2472 284.145 515.671
1343 0 94.358 12.8659 1214 65.1614 283.629 514.198
1344 0 97.3054 13.4319 1307 64.6037 283.538 511.785
1345 0 100.207 13.7616 1379 64.3307 283.695 508.935
1346 0 103.225 13.5723 1401 64.7288 283.547 509.285
1347 0 107.32 13.1849 1415 65.0947 283.058 508.071
1348 0 109.335 12.9053 1411 65.9362 282.787 507.925
1349 0 113.202 12.6587 1433 66.4843 282.602 504.583
1350 1 64.0757 9.62924 617 67.799 281.549 530.661
1351 0 64.0707 10.941 701 66.4522 281.331 529.431
1352 0 66.0842 11.5307 762 66.3399 280.955 528.232
1353 0 67.2268 11.6471 783 66.3997 281.381 526.423
1354 0 69.1177 11.3864 787 67.197 280.944 525.067
1355 0 72.0917 12.2899 886 65.5124 280.891 523.398
1356 0 73.1218 12.6228 923 66.0813 280.728 522.502
1357 0 75.0998 12.5833 945 66.4413 280.453 522.146
1358 0 79.1169 12.9302 1023 66.9365 281.023 521.729
1359 0 82.2737 12.7501 1049 65.8704 281.051 522.017
1360 0 84.3071 12.6324 1065 66.9042 280.888 521.479
1361 0 86.1552 12.2337 1054 68.592 280.625 518.351
1362 0 88.1877 13.0064 1147 67.1927 280.266 518.032
1363 0 93.2435 12.2689 1144 68.4143 280.259 516.055
1364 0 95.1968 13.1202 1249 67.739 280.388 514.352
1365 0 97.2776 12.9732 1262 68.4865 279.784 512.128
1366 0 100.492 13.7623 1383 67.6551 279.456 508.423
1367 0 101.556 12.7811 1298 70.0986 281.488 508.521
1368 0 104.559 12.8636 1345 69.9955 281.42 508.36
1369 0 108.271 12.8474 1391 70.3961 281.301 508.036
1370 0 111.46 12.5605 1400 71.1993 281.474 505.922
1371 0 113.472 13.1398 1491 69.8994 281.345 503.074
1372 0 117.592 13.6999 1611 69.7641 281.818 502.001
1373 0 120.511 13.8328 1667 70.4961 281.983 500.882
1374 0 121.566 13.7868 1676 70.7601 281.582 499.447
1375 0 123.597 13.2284 1635 72.3162 282.028 498.465
1376 0 127.659 13.7476 1755 71.4615 282.088 492.814
1377 0 132.492 13.4951 1788 71.9318 282.217 493.441
1378 0 135.563 12.6214 1711 73.315 282.369 491.04
1379 0 140.712 13.8652 1951 71.1456 281.638 489.621
1380 0 145.467 13.6182 1981 71.1858 281.447 487.871
1381 0 150.62 13.8494 2086 70.1088 281.374 487.172
1382 0 154.443 13.9922 2161 67.161 281.641 483.749
1383 0 158.581 13.2866 2107 68.6592 281.431 479.562
1384 0 162.556 13.5154 2197 71.0319 281.77 476.405
1385 0 168.437 13.7203 2311 70.1804 281.958 477.333
1386 0 174.92 14.5552 2546 69.1406 282.18 470.774
1387 0 178.58 14.2457 2544 69.5307 282.209 469.978
1388 0 187.608 16.1614 3032 65.7173 282 460.523
1389 0 191.551 14.3774 2754 68.8388 282.079 462.762
1390 0 196.532 14.4608 2842 68.7928 281.946 462.997
1391 0 202.445 14.646 2965 68.6722 281.775 460.015
1392 1 151.387 11.0578 1674 72.5645 281.756 488.775
1393 0 158.288 12.2877 1945 70.9162 281.58 486.964
1394 0 161.204 12.754 2056 71.5516 281.377 479.597
1395 0 166.219 14.2282 2365 69.3277 281.411 476.436
1396 0 172.343 14.9527 2577 68.3636 281.865 474.697
1397 0 172.306 14.2015 2447 70.6298 281.89 471.709
1398 0 179.36 14.719 2640 69.2621 282.181 470.014
1399 0 184.225 14.8949 2744 69.2926 282.799 467.599
1400 0 190.421 14.0793 2681 70.3305 282.736 465.088
1401 0 198.406 14.1125 2800 70.0571 283.624 462.241
1402 0 203.375 14.3528 2919 69.9832 283.557 457.319
1403 0 209.313 13.874 2904 70.3733 284.179 452.603
1404 0 220.318 14.6016 3217 68.7131 284.741 448.866
1405 0 225.295 14.0349 3162 69.8751 284.11 444.988
1406 0 232.339 14.2292 3306 69.4468 284.664 440.105
1407 0 239.384 15.4981 3710 67.0488 285.111 434.487
1408 1 61.0345 10.8791 664 64.3343 284.384 528.253
1409 0 62.0895 11.3063 702 64.292 284.632 525.275
1410 0 65.1657 12.568 819 62.4579 284.739 524.23
1411 0 67.1955 12.2181 821 62.8514 286.178 522.792
1412 0 69.3287 12.6499 877 62.1323 286.217 522.323
1413 0 73.3447 12.2163 896 62.3103 286.827 522.772
1414 0 75.2818 12.9646 976 61.4027 286.436 520.699
1415 0 77.6101 12.6916 985 61.3523 286.14 518.515
1416 0 79.4848 11.9646 951 62.918 286.596 516.711
1417 0 81.469 12.9129 1052 62.0323 286.932 514.923
1418 0 83.6339 12.0167 1005 62.9493 286.668 513.264
1419 0 87.6751 12.6718 1111 61.6796 286.544 510.32
1420 0 89.6988 12.7984 1148 61.4538 286.446 508.821
1421 0 93.7213 14.0096 1313 59.0427 286.369 507.316
1422 0 95.6914 13.0837 1252 60.3898 286.52 507.502
1423 0 99.6137 12.7794 1273 60.7188 286.34 504.973
1424 0 102.022 12.5757 1283 60.7592 286.154 504.597
1425 0 106.584 13.6231 1452 58.989 286.209 501.968
1426 0 107.707 12.6268 1360 60.3846 286.122 502.166
1427 0 112.597 13.455 1515 59.0891 285.433 498.857
1428 1 60.4271 11.2201 678 60.0723 285.463 525.412
1429 0 62.4976 11.2644 704 59.2699 285.453 524.787
1430 0 64.4176 11.9067 767 58.7106 285.408 520.971
1431 0 65.4621 12.0986 792 59.3434 285.957 521.573
1432 0 70.7154 12.1473 859 58.5669 285.376 523.412
1433 0 68.5558 12.5883 863 59.4195 285.55 521.91
1434 0 70.5325 12.519 883 60.2095 285.538 520.523
1435 0 72.4096 12.4293 900 61.1044 285.514 519.169
1436 0 76.4019 13.2196 1010 60.2624 284.962 517.937
1437 0 77.4161 12.7622 988 61.3502 284.923 517.477
1438 0 80.4675 13.3097 1071 60.2026 285.033 516.609
1439 0 83.59 13.303 1112 60.9397 284.726 514.004
1440 0 83.5939 12.8119 1071 61.8161 284.235 513.669
1441 0 87.6827 12.9558 1136 61.3662 283.883 511.733
1442 0 90.5007 13.0717 1183 61.6078 284.216 511.329
1443 0 92.8336 12.7863 1187 61.9048 284.714 510.29
1444 0 96.4183 12.8295 1237 62.0453 283.984 507.451
1445 0 99.5612 13.1979 1314 62.0304 283.499 506.653
1446 0 102.432 13.5114 1384 61.6199 283.641 506.329
1447 0 104.385 13.5844 1418 62.433 283.202 503.31
1448 0 108.565 13.8811 1507 62.3019 283.612 502.97
1449 0 113.468 13.9687 1585 62.1931 283.179 500.527
1450 1 64.4411 11.7006 754 63.4257 283.094 524.549
1451 0 67.4959 11.3637 767 63.4368 282.936 524.897
1452 0 66.7492 12.0601 805 65.0919 282.998 521.749
1453 0 70.2216 12.7026 892 64.4697 282.544 522.017
1454 0 72.4572 13.5804 984 63.75 283.37 520.268
1455 0 72.4572 13.5666 983 172.457 283.359 520.269
1456 0 75.3985 12.865 970 65.3402 282.643 518.774
1457 0 80.4135 13.5674 1091 64.5921 282.484 516.988
1458 0 81.5047 13.4839 1099 65.0983 282.388 517.08
1459 0 86.4659 13.4735 1165 65.1665 282.739 515.617
1460 0 88.3907 13.61 1203 64.7282 282.728 514.897
1461 0 92.382 14.5808 1347 63.3118 282.365 512.724
1462 0 92.294 13.1536 1214 65.6664 282.123 509.839
1463 0 99.2416 14.1372 1403 63.072 282.429 508.51
1464 0 101.352 13.2113 1339 64.7655 281.893 507.243
1465 0 104.241 13.181 1374 64.5124 281.728 506.876
1466 0 108.285 13.5106 1463 63.8859 282.024 504.958
1467 0 111.528 13.3599 1490 64.0087 281.763 503.668
1468 1 61.2051 10.7997 661 64.3359 281.118 527.939
1469 0 64.2634 11.3284 728 63.3846 281.106 526.433
1470 0 66.1279 12.1734 805 62.877 281.355 524.969
1471 0 70.2881 12.4203 873 62.2062 281.008 523.97
1472 0 71.2404 12.8579 916 61.9345 281.112 522.238
1473 0 72.2006 12.5345 905 62.021 281.432 522.802
1474 0 74.3272 12.6468 940 62.216 281.269 522.316
1475 0 77.1398 13.3264 1028 61.2218 280.762 520.451
1476 0 80.2653 12.7826 1026 61.655 280.304 519.86
1477 0 82.233 12.9996 1069 62.0065 280.152 518.817
1478 0 85.2381 13.7615 1173 60.6206 279.971 516.813
1479 0 87.3379 13.9229 1216 60.7039 280.452 517.558
1480 0 91.2898 12.904 1178 61.4151 280.423 515.626
1481 0 94.2678 13.5783 1280 60.568 281.104 514.323
1482 0 99.2563 13.5709 1347 60.2294 280.482 513.304
1483 0 100.601 13.9561 1404 60.5114 281.49 509.029
1484 0 105.46 13.2468 1397 61.063 281.359 509.054
1485 0 107.511 13.301 1430 61.1273 281.136 506.567
1486 0 113.406 13.941 1581 59.8861 281.161 504.708
1487 0 115.588 13.4616 1556 60.6684 281.458 502.729
1488 0 117.31 13.264 1556 60.8843 282.186 500.031
1489 0 121.62 13.0735 1590 60.5195 281.631 498.183
1490 0 126.396 13.5368 1711 59.8065 281.665 497.55
1491 1 75.3662 9.30125 701 59.1412 281.427 527.407
1492 0 78.3876 10.5501 827 58.9274 281.698 522.971
1493 0 79.4124 11.5599 918 57.8475 282.474 523.014
1494 0 84.2744 12.5542 1058 56.362 282.684 519.266
1495 0 86.3012 12.6997 1096 56.1341 282.307 517.948
1496 0 89.333 11.7426 1049 56.9685 282.576 517.821
1497 0 93.7385 11.8521 1111 56.9037 282.649 514.779
1498 0 95.5556 11.993 1146 56.4206 282.631 513.525
1499 0 99.3736 12.4379 1236 57.1108 282.435 513.072
1500 0 101.496 11.7247 1190 57.763 282.6 509.818
1501 0 105.487 11.8498 1250 58.176 282.554 508.63
1502 0 107.46 11.8276 1271 58.2124 282.521 507.194
1503 0 110.446 11.9244 1317 57.7768 282.916 505.69
1504 0 115.427 11.6957 1350 58.2859 282.629 504.429
1505 0 119.287 12.122 1446 57.9447 282.52 502.107
1506 0 122.478 12.1736 1491 58.1408 282.988 497.687
1507 0 127.354 12.2965 1566 58.0421 283.298 496.779
1508 1 74.082 8.22062 609 58.2529 282.798 525.854
1509 0 76.0999 10.6176 808 57.2809 284.021 521.874
1510 0 78.202 10.6263 831 57.0674 283.989 521.197
1511 0 84.1603 12.1554 1023 55.4057 284.06 520.952
1512 0 83.2206 10.9708 913 57.7218 283.665 518.025
1513 0 86.1973 11.1604 962 57.7505 284.144 518.324
1514 0 89.1652 11.6077 1035 57.5382 284.721 516.156
1515 0 92.1672 11.7829 1086 57.5193 284.654 513.735
1516 0 94.1988 11.8898 1120 57.6643 284.689 510.906
1517 0 97.2607 12.2866 1195 57.3791 285.235 509.854
1518 0 101.251 11.9011 1205 57.8531 285.595 508.316
1519 0 104.241 11.6461 1214 58.2414 286.035 505.891
1520 0 107.304 10.9968 1180 59.1466 286.503 505.838
1521 0 112.479 12.4113 1396 57.3496 286.42 502.967
1522 0 117.295 12.6689 1486 57.4764 286.827 499.948
1523 0 121.316 11.8121 1433 58.0949 287.144 497.338
1524 0 124.269 12.2476 1522 57.7904 287.982 495.449
1525 0 128.459 12.7589 1639 57.3606 287.749 493.362
1526 1 76.2982 11.075 845 56.7183 287.561 523.211
1527 0 79.2455 12.354 979 56.1246 287.301 519.297
1528 0 80.1462 12.4023 994 56.7958 287.743 518.191
1529 0 85.2061 12.6399 1077 56.3194 287.795 517.122
1530 0 86.1705 12.3824 1067 57.0028 287.64 515.75
1531 0 89.2781 13.486 1204 56.1096 287.615 516.829
1532 0 93.4507 13.5472 1266 56.3404 287.27 514.113
1533 0 93.2831 13.6252 1271 57.4186 286.828 512.208
1534 0 95.2547 12.6608 1206 59.0323 287.921 509.404
1535 0 98.2874 13.4096 1318 58.4416 286.931 509.603
1536 0 99.354 13.628 1354 59.1123 286.938 507.954
1537 0 104.243 13.4685 1404 59.2422 287.342 505.935
1538 0 107.322 12.9423 1389 60.3427 286.664 504.738
1539 0 111.261 13.8324 1539 59.4971 286.412 502.953
1540 0 112.234 13.6857 1536 60.4538 286.622 500.876
1541 0 118.261 13.3941 1584 60.8826 286.668 501.573
1542 0 120.343 12.8383 1545 62.0557 286.487 497.948
1543 0 125.171 14.3563 1797 60.0256 286.32 498.665
1544 0 126.136 13.2238 1668 62.3963 286.365 493.019
1545 1 74.1591 11.6776 866 59.4365 286.859 522.677
1546 0 75.1539 9.38075 705 61.0043 286.393 523.089
1547 0 75.2211 10.303 775 60.8477 286.421 521.644
1548 0 79.2007 11.6539 923 59.5374 286.093 521.763
1549 0 82.3128 11.6507 959 59.8582 285.248 517.513
1550 0 82.2618 12.2293 1006 59.2525 284.968 517.549
1551 0 85.3457 11.8577 1012 60.2974 285.048 517.451
1552 0 88.162 12.1594 1072 60.056 285.258 514.732
1553 0 90.2736 12.5286 1131 59.3245 284.465 514.419
1554 0 93.4271 12.277 1147 59.7855 284.419 512.179
1555 0 97.2943 12.9196 1257 59.1456 284.384 510.46
1556 0 101.342 13.0449 1322 58.7678 284.327 510.199
1557 0 104.336 13.3894 1397 58.6628 284.293 508.137
1558 0 106.251 12.9881 1380 59.2957 283.824 507.167
1559 0 108.271 12.1177 1312 60.9703 284.116 506.303
1560 0 113.574 13.4273 1525 59.1738 284.346 503.588
1561 0 115.544 12.8436 1484 60.2406 284.207 502.968
1562 0 120.531 13.9217 1678 58.77 283.706 502.04
1563 0 123.304 13.3978 1652 59.8547 283.781 497.911
1564 1 71.1677 9.72351 692 60.354 284.04 526.656
1565 0 71.2377 10.7668 767 60.6375 282.913 522.924
1566 0 75.1589 11.6819 878 59.4453 282.618 524.104
1567 0 77.3417 12.4383 962 58.9439 282.4 521.918
1568 0 79.1276 12.701 1005 59.3363 282.407 519.595
1569 0 81.0815 12.5059 1014 59.7811 282.33 518.91
1570 0 85.2649 13.0769 1115 59.0942 282.751 519.301
1571 0 85.1302 12.5337 1067 59.507 282.45 519.234
1572 0 89.329 13.3103 1189 58.1379 282.371 517.724
1573 0 92.2665 12.5831 1161 59.0551 282.301 515.311
1574 0 94.3417 12.7409 1202 59.2704 282.122 514.264
1575 0 97.2672 12.3166 1198 59.9516 282.091 513.816
1576 0 99.1416 13.3445 1323 59.1723 282.046 510.483
1577 0 102.247 12.8512 1314 59.7032 282.066 510.324
1578 0 105.252 12.3133 1296 60.5872 282.056 508.97
1579 0 109.259 12.7952 1398 60.3362 281.848 506.318
1580 0 112.39 13.5243 1520 59.8375 281.659 504.842
1581 0 114.346 13.669 1563 59.801 282.408 501.892
1582 0 120.244 13.8801 1669 59.1989 281.89 502.29
1583 0 120.23 12.9419 1556 60.9267 282.581 500.274
1584 0 127.239 13.8951 1768 59.3382 282.299 498.971
1585 0 128.309 13.6467 1751 59.996 282.09 495.984
1586 0 132.277 13.7212 1815 59.6452 282.002 495.348
1587 0 135.278 13.365 1808 60.8982 281.724 492.086
1588 0 138.293 13.9558 1930 60.0425 282.197 488.482
1589 1 82.193 8.75987 720 61.2264 281.974 520.621
1590 0 84.2031 10.4272 878 60.2278 281.785 518.818
1591 0 87.1153 10.974 956 60.0084 282.041 517.097
1592 0 92.2918 11.7779 1087 58.8427 282.648 514.552
1593 0 94.2272 11.7907 1111 59.8317 282.022 513.634
1594 0 96.2533 11.8645 1142 59.8608 282.081 514.295
1595 0 100.336 12.7273 1277 58.4714 281.73 511.638
1596 0 104.409 12.8342 1340 58.3522 282.093 509.623
1597 0 106.626 12.2766 1309 59.8755 282.337 506.6
1598 0 109.44 12.6097 1380 59.3435 282.365 505.314
1599 0 112.343 12.9069 1450 58.8083 282.601 505.248
1600 0 115.257 12.2682 1414 59.7228 282.931 502.388
1601 1 12.0062 5.83031 70 49.1143 283.129 553.743
1602 0 13.006 8.38077 109 47.1193 283.385 554.431
1603 0 14.0274 6.70115 94 48.2234 282.872 554.862
1604 0 16.0031 7.56103 121 48.281 283.231 553.603
1605 0 13.0306 6.29288 82 50.0122 283.634 554.268
1606 0 14.0051 7.9971 112 48.0625 283.571 553.545
1607 0 14.0055 7.85408 110 49.2636 283.282 553.455
1608 0 12.0023 7.41527 89 49.4831 283.596 553.348
1609 0 16.0342 6.67322 107 49.9439 284.832 551.393
1610 1 88.3769 11.9828 1059 57.6922 283.635 513.701
1611 0 89.3884 11.478 1026 59.3226 284.012 514.554
1612 0 94.4801 12.5741 1188 58.1195 283.655 513.862
1613 0 97.5636 12.6789 1237 58.4535 284.962 510.932
1614 0 98.3826 11.7094 1152 60.2231 285.208 509.249
1615 0 103.569 12.3976 1284 58.9424 285.384 507.738
1616 0 107.342 12.7629 1370 58.3518 285.885 507.365
1617 0 107.378 12.1719 1307 60.2731 285.741 503.129
1618 0 112.343 12.7555 1433 59.0195 286.225 502.532
1619 0 115.353 12.1887 1406 59.9644 286.179 498.884
1620 0 119.338 12.9464 1545 59.2673 286.784 499.614
1621 0 121.403 12.6851 1540 60.2383 286.956 495.414
1622 0 125.422 12.3583 1550 61.2142 287.404 494.938
1623 0 127.327 12.621 1607 60.7978 287.671 493.133
1624 0 130.407 12.9287 1686 60.6572 287.362 491.515
1625 0 134.401 13.3481 1794 60.6661 287.311 488.674
1626 0 137.209 13.33 1829 61.4702 287.423 486.712
1627 0 140.327 13.4115 1882 61.5909 287.892 483.581
1628 0 145.381 12.8903 1874 62.3068 288.085 481.712
1629 0 149.453 12.9138 1930 62.8404 288.461 480.069
1630 0 153.494 12.3914 1902 64.2881 288.043 478.377
1631 0 156.515 13.0147 2037 63.8891 287.798 476.665
1632 1 90.3022 9.22458 833 63.9124 287.568 513.652
1633 0 94.253 10.6734 1006 63.2087 287.538 509.754
1634 0 97.2597 11.423 1111 62.4905 287.244 508.182
1635 0 99.4178 11.4969 1143 63.1654 287.271 507.136
1636 0 102.268 12.9072 1320 61.2682 287.689 505.686
1637 0 105.426 12.6344 1332 62.5608 288.248 502.563
1638 0 108.34 11.9162 1291 63.9094 288.095 500.863
1639 0 110.28 12.4592 1374 64.8217 288.114 498.319
1640 0 115.41 12.9192 1491 63.6331 287.87 497.553
1641 0 119.267 12.5265 1494 64.5221 288.072 495.041
1642 0 121.204 11.9798 1452 64.9842 287.507 492.524
1643 0 124.281 12.6005 1566 64.9176 287.755 492.13
1644 0 128.237 12.8434 1647 64.7802 287.674 489.525
1645 0 131.291 13.8851 1823 63.5974 287.565 485.842
1646 0 133.249 13.3359 1777 65.036 287.725 486.546
1647 0 139.31 13.854 1930 64.2912 287.915 483.152
1648 1 80.2212 9.73559 781 64.2522 287.055 517.854
1649 0 80.1716 9.86634 791 64.2819 287.221 517.697
1650 0 81.1176 9.49239 770 65.1442 287.345 517.957
1651 0 86.4034 10.6246 918 63.5871 286.68 516.025
1652 0 87.1544 11.0379 962 63.6258 286.669 514.713
1653 0 88.2252 11.6293 1026 63.3928 286.362 511.467
1654 0 92.1708 12.1514 1120 62.425 286.812 510.886
1655 0 96.1938 12.454 1198 62.3506 286.143 508.67
1656 0 96.3007 11.8379 1140 63.9412 285.801 506.98
1657 0 99.2664 12.0585 1197 63.4378 285.651 506.464
1658 0 104.307 12.7987 1335 62.4891 286.288 505.711
1659 0 107.31 12.7295 1366 62.8587 285.816 502.395
1660 0 109.522 12.6824 1389 63.1922 285.557 502.299
1661 0 112.178 13.1755 1478 62.954 285.657 501.572
1662 0 115.348 12.536 1446 63.7393 285.978 500.127
1663 0 119.473 13.4172 1603 62.2645 285.451 498.086
1664 0 124.455 13.4185 1670 61.8102 285.77 495.409
1665 0 127.256 13.0996 1667 62.1608 285.203 496.493
1666 1 75.176 11.1605 839 61.584 284.961 523.169
1667 0 76.3861 11.311 864 62.1285 285.076 522.28
1668 0 79.2869 11.3638 901 60.1176 284.461 523.012
1669 0 80.2398 11.69 938 59.8529 284.832 521.732
1670 0 81.3698 11.798 960 60.5667 284.764 518.139
1671 0 84.3099 13.2725 1119 58.7703 285.498 517.063
1672 0 88.4551 12.3113 1089 59.5849 285.352 517.376
1673 0 91.3269 13.5776 1240 57.7637 285.495 513.896
1674 0 92.4978 12.7246 1177 58.6228 285.021 514.471
1675 0 96.4564 13.716 1323 57.5601 285.18 511.388
1676 0 98.6529 13.1572 1298 59.2103 284.582 510.988
1677 0 101.578 12.798 1300 59.75 285.159 511.562
1678 0 105.267 14.8764 1566 57.6622 285.123 508.004
1679 0 106.629 13.7017 1461 58.7851 284.546 507.798
1680 0 111.718 13.1044 1464 60.0321 284.615 504.128
1681 0 111.682 12.8311 1433 60.321 284.632 505.179
1682 0 114.439 13.1074 1500 60.7967 284.488 501.917
1683 0 122.685 16.7747 2058 55.484 284.102 496.092
1684 0 121.712 13.9017 1692 59.4639 284.311 499.105
1685 0 123.768 13.5495 1677 60.1908 283.83 498.36
1686 0 127.94 14.1942 1816 59.2109 283.868 495.507
1687 0 130.803 13.5624 1774 60.354 283.751 494.002
1688 0 134.834 13.5351 1825 60.4258 283.808 493.422
1689 1 74.8869 12.0181 900 59.82 283.268 524.901
1690 0 72.8005 11.7307 854 61.3173 282.96 522.778
1691 0 75.9668 12.3212 936 60.4541 283.441 520.739
1692 0 77.7923 13.4589 1047 59.6667 283.434 519.391
1693 0 80.78 13.5058 1091 59.4464 282.967 517.249
1694 0 82.6436 13.3949 1107 59.8284 282.854 515.78
1695 0 85.6779 13.3057 1140 59.8649 282.997 515.36
1696 0 88.6929 14.0372 1245 59.188 282.827 514.174
1697 0 92.0173 13.7909 1269 59.3664 282.606 512.547
1698 0 94.8078 13.6909 1298 59.5909 282.413 512.084
1699 0 97.645 14.6859 1434 58.1172 282.264 510.242
1700 0 99.7316 14.178 1414 58.8769 282.484 507.666
1701 0 102.702 14.0698 1445 59.2872 281.927 507.47
1702 0 105.58 14.5956 1541 59.1791 281.587 504.897
1703 0 108.686 14.2796 1552 59.616 281.809 502.323
1704 0 111.679 14.4701 1616 59.5792 281.499 501
1705 0 114.556 14.7438 1689 59.4257 281.632 501.344
1706 1 62.6185 11.6579 730 62.3562 280.94 525.904
1707 0 63.6404 10.9836 699 63.0014 280.84 527.768
1708 0 66.5137 11.8021 785 62.5414 281.152 524.518
1709 0 70.4741 11.5503 814 61.629 281.559 525.741
1710 0 71.6118 13.1962 945 60.6455 281.145 522.114
1711 0 73.4741 12.6847 932 60.7242 281.885 521.411
1712 0 76.5734 13.7123 1050 59.1057 281.915 519.849
1713 0 78.34 13.084 1025 59.8049 281.911 519.456
1714 0 81.667 12.9428 1057 59.5553 281.869 518.116
1715 0 83.6053 12.6906 1061 60.1018 282.336 515.385
1716 0 86.4092 13.3203 1151 59.371 283.041 515.004
1717 0 91.5895 13.899 1273 57.6819 283.322 514.348
1718 0 92.5519 12.9873 1202 59.0083 283.365 512.987
1719 0 95.4283 13.1617 1256 59.1234 283.089 512.128
1720 0 100.631 14.3991 1449 57.9262 283.326 509.072
1721 0 100.631 14.3991 1449 157.609 283.326 509.072
1722 0 106.55 14.1154 1504 58.1875 283.483 506.523
1723 0 111.471 13.8332 1542 58.5058 283.643 506.631
1724 1 57.2254 11.446 655 60.971 284.136 530.939
1725 0 61.5519 11.6325 716 60.7528 284.475 529.112
1726 0 64.3957 12.7959 824 59.8034 284.399 527.708
1727 0 65.5136 13.2186 866 60.4411 284.501 526.624
1728 0 66.4109 12.9647 861 61.4866 284.569 523.9
1729 0 67.3947 12.7755 861 61.5099 284.677 523.115
1730 0 72.6573 13.8458 1006 59.8211 284.853 520.458
1731 0 73.5297 12.8384 944 61.3496 285.222 521.361
1732 0 76.4627 13.8499 1059 59.9197 285.297 518.605
1733 0 78.4948 13.6187 1069 60.3938 286.099 516.665
1734 0 82.6098 14.3203 1183 59.2274 286.123 515.201
1735 0 82.5511 13.531 1117 61.026 285.88 515.342
1736 0 84.5083 13.7501 1162 61.4475 286.516 511.967
1737 0 89.6657 14.108 1265 60.0601 286.635 511.673
1738 0 89.4543 14.5661 1303 59.6815 286.782 509.203
1739 0 94.4797 14.13 1335 59.806 286.5 508.899
1740 0 97.7819 14.2051 1389 59.5011 286.673 508.409
1741 0 99.4285 14.0805 1400 60.765 287.434 507.024
1742 0 102.511 14.3204 1468 58.8317 287.343 505.627
1743 0 104.449 15.0696 1574 58.5788 287.258 504.233
1744 0 109.461 14.3613 1572 59.4039 287.511 503.076
1745 0 110.557 13.821 1528 61.2428 287.834 497.983
1746 0 116.6 13.7651 1605 60.5776 287.878 497.643
1747 0 119.683 12.9008 1544 61.7811 288.543 496.115
1748 0 123.545 13.3959 1655 60.6048 288.976 492.996
1749 1 70.4858 11.7187 826 60.0169 289.238 518.275
1750 0 71.5852 12.0695 864 58.6366 289.77 519.183
1751 0 72.532 12.1326 880 59.8659 289.905 515.739
1752 0 74.548 12.1801 908 59.8744 290.211 514.588
1753 0 77.3625 12.2152 945 59.7524 290.284 513.892
1754 0 78.2378 12.8199 1003 59.1416 290.048 514.158
1755 0 81.4064 12.7508 1038 58.7649 290.07 511.322
1756 0 85.3753 13.0366 1113 58.7026 289.795 510.48
1757 0 86.473 12.9751 1122 59.598 288.953 509.306
1758 0 89.3545 12.6015 1126 60.0773 289.069 507.283
1759 0 93.4844 12.9219 1208 59.2368 289.334 507.792
1760 0 95.3288 13.0705 1246 59.5803 289.069 505.891
1761 0 99.2276 13.0609 1296 59.6188 289.332 503.98
1762 0 102.384 13.508 1383 59.6414 289 500.312
1763 0 105.309 11.8603 1249 61.8783 289.523 500.319
1764 0 109.347 13.2605 1450 60.0641 288.631 498.428
1765 0 112.203 13.6004 1526 59.7156 287.904 497.417
1766 0 113.235 13.3528 1512 60.2798 288.288 495.673
1767 0 118.217 13.8136 1633 59.6773 288.47 492.887
1768 0 122.205 13.4691 1646 59.8566 288.48 493.064
1769 0 128.184 14.3544 1840 58.1179 288.729 491.829
1770 1 73.093 10.4114 761 57.5979 288.997 520.603
1771 0 75.0926 10.4138 782 58.1432 288.129 518.02
1772 0 76.086 11.4213 869 57.183 287.9 516.795
1773 0 77.0759 11.9493 921 57.5972 287.509 515.568
1774 0 80.0889 12.4861 1000 56.542 287.943 514.882
1775 0 82.1724 11.9505 982 57.2892 287.033 513.381
1776 0 86.24 12.4768 1076 57.2175 286.583 512.191
1777 0 88.323 12.7487 1126 56.7913 286.934 511.345
1778 0 91.17 12.548 1144 58.0096 286.649 509.908
1779 0 95.399 12.1385 1158 58.0527 287.116 509.392
1780 0 98.3698 13.0325 1282 57.2129 286.441 506.08
1781 0 101.307 12.4375 1260 57.8452 286.794 508.343
1782 0 103.225 12.0804 1247 58.8348 286.658 504.706
1783 0 107.306 12.8232 1376 57.8074 286.415 503.4
1784 0 110.322 13.3338 1471 57.0612 285.784 503.078
1785 0 111.384 12.4345 1385 58.6585 285.864 500.454
1786 0 114.445 12.7398 1458 57.7805 285.691 497.031
1787 0 119.327 12.319 1470 58.4007 285.604 494.59
1788 0 122.314 12.8685 1574 58.277 285.058 492.499
1789 0 127.278 13.7416 1749 57.6032 284.898 491.131
1790 0 132.277 13.5775 1796 57.4978 285.066 489.296
1791 1 77.4162 10.9667 849 57.4028 285.271 517.873
1792 0 78.2461 9.93021 777 58.2703 285.284 518.692
1793 0 80.3845 11.4326 919 57.0816 285.277 518.109
1794 0 81.3066 11.5858 942 56.9894 285.186 514.645
1795 0 86.3701 12.5275 1082 55.573 284.571 513.505
1796 0 88.5969 12.5851 1115 55.6377 284.091 510.489
1797 0 89.7291 11.9916 1076 56.9591 284.032 509.078
1798 0 93.6195 12.1983 1142 56.1891 283.795 508.343
1799 0 96.5567 12.2104 1179 56.1773 283.71 508.454
1800 0 97.617 12.5593 1226 56.3972 283.921 507.929
1801 0 99.663 12.2312 1219 57.3002 283.925 506.268
1802 0 102.516 12.6127 1293 56.2181 283.693 506.913
1803 0 103.506 12.1153 1254 57.4585 283.9 503.675
1804 0 109.671 13.3308 1462 55.5629 283.864 501.739
1805 0 113.531 13.4412 1526 55.4967 284.065 500.843
1806 0 115.496 13.1606 1520 55.948 283.524 495.822
1807 0 119.452 13.2354 1581 56.4769 283.694 494.239
1808 0 122.52 12.8469 1574 56.5756 283.588 494.135
1809 1 68.3087 10.7161 732 56.888 284.393 522.745
1810 0 68.5217 10.4784 718 57.1184 283.971 522.057
1811 0 72.4315 11.0863 803 56.8331 283.971 521.095
1812 0 73.5327 12.6474 930 55.8344 283.684 518.174
1813 0 75.7751 11.7057 887 57.0282 284.15 518.396
1814 0 78.4052 13.3027 1043 55.8245 283.866 516.623
1815 0 78.5525 12.7049 998 56.8246 284.485 515.316
1816 0 81.7533 12.9903 1062 56.7072 284.621 515.19
1817 0 85.6427 12.6222 1081 57.4376 284.149 513.382
1818 0 87.4931 12.8124 1121 57.5986 284.517 511.314
1819 0 90.6683 12.7387 1155 57.7991 283.995 511.365
1820 0 93.5442 14.2393 1332 56.1877 284.131 509.149
1821 0 95.4679 14.2037 1356 57.0951 284.188 507.263
1822 0 97.4097 12.7605 1243 58.8681 284.651 507.482
1823 0 102.482 13.6805 1402 58.1284 284.58 504.566
1824 0 105.266 14.3541 1511 57.3256 283.88 504.06
1825 0 108.38 14.5506 1577 57.2067 284.379 501.415
1826 0 109.612 14.004 1535 58.4072 284.134 501.144
1827 0 115.286 15.8822 1831 55.704 284.709 497.069
1828 0 117.52 15.6229 1836 56.4052 285.31 497.889
1829 0 118.418 14.4995 1717 58.7199 285.405 496.722
1830 0 123.371 15.0927 1862 57.2503 285.835 493.715
1831 0 125.546 14.1143 1772 58.6986 285.64 491.209
1832 0 130.584 15.4154 2013 57.077 285.637 489.809
1833 0 135.507 15.121 2049 57.3909 285.759 485.439
1834 0 138.559 14.0373 1945 58.8165 286.022 486.306
1835 0 144.374 15.0928 2179 57.7637 286.48 483.344
1836 0 147.501 14.2575 2103 58.9201 286.176 480.537
1837 1 81.446 10.9275 890 59.618 286.344 515.845
1838 0 83.3358 12.5636 1047 58.8768 286.858 512.299
1839 0 86.4335 12.391 1071 58.6947 287.044 511.84
1840 0 90.6314 13.1742 1194 57.9707 286.951 508.416
1841 0 92.4777 12.7274 1177 58.5896 287.046 507.823
1842 0 95.5345 13.2622 1267 58.1579 287.651 505.457
1843 0 99.3924 12.9688 1289 58.4057 287.728 504.587
1844 0 101.405 13.8455 1404 57.4865 287.621 502.33
1845 0 104.529 13.0107 1360 58.6456 287.843 500.381
1846 0 108.68 13.7651 1496 57.5401 288.116 499.182
1847 0 112.658 13.1105 1477 57.8077 288.08 496.86
1848 0 116.594 13.1825 1537 57.6142 288.182 494.696
1849 0 117.734 12.5368 1476 58.439 288.539 493.339
1850 0 123.461 13.6319 1683 57.0458 288.829 489.816
1851 0 126.592 12.7575 1615 57.7511 288.442 489.673
1852 0 132.444 12.8507 1702 57.7844 288.477 486.688
1853 0 135.613 12.779 1733 57.1737 288.673 487.354
1854 0 140.393 13.0277 1829 56.1881 288.842 482.862
1855 0 144.703 13.4275 1943 55.7236 288.654 478.706
1856 1 86.4119 11.3179 978 55.1104 288.133 509.709
1857 0 87.3316 11.5995 1013 55.0612 288.312 507.443
1858 0 90.5091 11.7668 1065 54.507 287.781 506.828
1859 0 93.5346 12.9471 1211 53.1536 287.728 505.621
1860 0 96.2269 12.6992 1222 53.7267 287.963 505.346
1861 0 97.2323 11.4262 1111 54.7894 287.878 505.782
1862 0 101.22 12.6458 1280 53.9812 287.566 501.325
1863 0 103.375 12.1403 1255 54.6574 287.382 501.327
1864 0 108.42 12.9957 1409 53.8424 287.318 497.892
1865 0 109.225 12.7534 1393 54.1931 287.132 497.308
1866 0 113.311 12.779 1448 54.1478 287.081 498.052
1867 0 116.345 12.6349 1470 54.6286 287.06 495.435
1868 0 120.345 12.8049 1541 54.5029 286.843 492.628
1869 0 124.303 13.0407 1621 54.3226 286.883 491.003
1870 0 129.425 13.9231 1802 53.4417 287.194 490.793
1871 0 133.381 13.9451 1860 52.7323 286.669 488.039
1872 0 136.561 13.5691 1853 53.3486 286.241 485.118
1873 0 141.476 13.2531 1875 53.8229 286.651 484.988
1874 0 146.8 14.0191 2058 53.1293 286.259 481.583
1875 0 148.589 13.5878 2019 54.264 286.309 479.627
1876 0 153.321 13.7554 2109 54.5533 285.951 474.256
1877 0 160.222 13.9494 2235 54.2336 285.794 474.684
1878 1 91.3045 11.0838 1012 55.2905 286.397 510.248
1879 0 93.4702 11.6508 1089 54.9467 286.591 509.307
1880 0 96.2253 11.2029 1078 55.7532 286.4 508.923
1881 0 99.3113 11.8013 1172 55.1886 286.142 507.271
1882 0 102.34 11.9699 1225 55.662 285.81 503.313
1883 0 105.424 13.9152 1467 54.698 285.748 502.207
1884 0 109.485 13.0977 1434 55.5858 285.812 500.107
1885 0 112.302 13.6329 1531 56.2201 285.712 496.884
1886 0 117.556 13.2788 1561 56.5977 285.42 495.126
1887 0 121.605 13.1409 1598 57.2528 285.732 495.66
1888 0 124.357 13.3728 1663 57.0812 285.366 495.763
1889 0 127.479 12.8805 1642 58.5725 285.411 492.389
1890 1 74.6279 11.1754 834 57.0827 285.783 520.412
1891 0 76.5086 10.77 824 57.8422 286.039 519.309
1892 0 77.4449 11.0401 855 57.7111 285.884 519.636
1893 0 81.5259 11.6282 948 57.2479 285.648 516.672
1894 0 83.4056 12.4092 1035 56.6531 284.595 515.588
1895 0 86.3986 12.5118 1081 56.3839 284.486 514.048
1896 0 88.3063 12.2075 1078 57.1419 284.818 510.779
1897 0 91.3573 12.774 1167 56.6761 285.605 510.839
1898 0 95.3298 12.7138 1212 56.7739 284.2 509.314
1899 0 99.4788 13.7718 1370 55.492 284.391 507.072
1900 0 104.587 13.7971 1443 55.0825 284.015 507.57
1901 0 103.438 12.9546 1340 56.644 283.854 505.022
1902 0 107.389 13.4185 1441 56.0951 283.734 503.157
1903 0 111.516 13.146 1466 56.6303 283.198 501.13
1904 0 115.343 12.4585 1437 56.8434 284.185 502.234
1905 0 119.298 12.8921 1538 56.6105 283.684 498.428
1906 0 124.446 13.6525 1699 55.6127 283.526 495.11
1907 0 128.596 12.9631 1667 56.18 283.337 494.409
1908 1 74.3429 9.57725 712 55.2022 283.222 524.017
1909 0 76.5264 10.9243 836 54.3289 282.738 522.161
1910 0 80.4832 11.5428 929 53.9914 282.312 518.983
1911 0 80.4389 10.6416 856 55.4825 282.423 519.966
1912 0 85.4732 12.4834 1067 53.7151 282.48 516.653
1913 0 88.5178 13.0934 1159 53.006 282.883 515.397
1914 0 88.3567 11.4762 1014 55.0838 282.522 513.578
1915 0 93.4569 12.4228 1161 54.1016 282.479 513.368
1916 0 93.4647 12.2506 1145 55.1572 282.541 511.568
1917 0 100.68 12.8527 1294 54.2558 282.393 509.784
1918 0 102.363 12.0649 1235 55.0785 282.317 509.69
1919 0 105.451 12.8875 1359 55.2826 282.35 507.056
1920 0 107.525 13.1412 1413 55.3878 283.694 504.42
1921 0 110.337 13.2503 1462 55.6354 282.88 504.107
1922 0 113.464 13.0878 1485 56.3906 282.492 503.392
1923 0 115.48 13.5608 1566 56.2184 282.37 500.05
1924 0 120.51 14.1897 1710 55.3766 282.43 499.443
1925 0 123.437 13.6425 1684 56.6039 281.846 495.962
1926 0 128.538 13.4201 1725 56.2157 281.856 495.179
1927 0 131.478 13.9035 1828 56.2894 282.561 494.243
1928 0 136.465 13.9816 1908 55.6871 282.625 492.998
1929 0 139.397 14.4265 2011 55.7419 282.047 489.443
1930 0 143.639 14.2232 2043 56.4807 282.599 486.54
1931 0 148.585 13.7632 2045 57.2215 282.471 485.954
1932 0 151.636 13.7435 2084 57.8704 282.257 482.719
1933 0 156.685 13.8494 2170 57.9124 282.372 482.407
1934 0 161.997 14.0743 2280 57.9667 282.554 479.052
1935 0 166.591 14.6046 2433 58.0148 282.148 476.068
1936 0 172.778 14.2379 2460 58.3191 282.166 472.004
1937 0 176.8 14.3269 2533 58.8366 282.514 470.088
1938 0 184.614 14.6955 2713 58.3181 282.594 467.346
1939 0 189.611 14.6827 2784 58.8592 282.952 463.698
1940 0 192.505 14.1035 2715 59.9864 283.132 462.628
1941 0 201.801 15.3517 3098 58.4787 283.115 456.413
1942 0 207.561 15.1907 3153 58.9118 283.175 456.092
1943 0 213.56 15.6069 3333 58.7318 283.362 452.82
1944 0 219.683 15.8865 3490 58.6911 283.181 445.96
1945 0 228.503 14.9013 3405 58 283.31 442.465
1946 0 233.604 16.361 3822 56.2606 283.632 441.384
1947 1 59.1258 10.6383 629 53.0541 283.424 532.434
1948 0 60.1084 10.165 611 54.599 283.977 530.494
1949 0 62.3294 12.3216 768 52.3646 283.341 528.681
1950 0 64.24 11.7217 753 53.502 283.518 526.807
1951 0 67.3975 12.1666 820 52.5963 283.722 527.006
1952 0 67.2303 11.2747 758 54.3668 283.583 525.079
1953 0 68.3828 11.2309 768 54.7852 284.464 523.492
1954 0 73.5363 12.81 942 52.8057 284.653 520.81
1955 0 73.6688 11.3481 836 54.5 284.97 518.194
1956 0 76.5533 12.3052 942 53.2633 284.678 516.96
1957 0 79.6105 10.8277 862 53.8805 284.997 519.271
1958 0 81.3487 12.5509 1021 52.5073 284.958 515.495
1959 0 83.6413 11.5852 969 53.4458 284.968 515.231
1960 0 87.5709 13.0865 1146 51.5969 285.408 510.623
1961 0 89.5238 12.0638 1080 52.4167 285.264 511.173
1962 0 91.9236 12.4016 1140 52.1368 284.716 510.703
1963 0 93.7144 12.6448 1185 52.2835 285.345 507.03
1964 0 94.5446 11.7299 1109 53.3102 284.892 508.079
1965 0 100.558 13.6141 1369 51.0278 285.1 506.687
1966 0 103.866 13.6137 1414 51.1407 285.562 500.796
1967 0 104.966 13.2138 1387 51.6402 285.66 499.235
1968 0 106.712 12.6322 1348 52.1662 286.081 500.223
1969 0 110.43 12.9222 1427 52.4562 286.255 499.75
1970 0 113.541 12.7267 1445 52.8512 286.669 495.443
1971 0 117.592 13.6063 1600 52.0856 286.812 495.744
1972 0 123.192 13.9376 1717 51.3314 286.984 493.99
1973 0 125.739 13.7746 1732 51.9677 286.921 488.167
1974 1 71.6437 11.2082 803 52.7086 286.94 520.653
1975 0 71.4196 11.9155 851 53.4442 287.457 517.583
1976 0 74.4572 11.8592 883 53.5108 287.391 516.667
1977 0 75.6411 13.0749 989 52.8999 287.707 516.066
1978 0 78.9062 13.0408 1029 53.2468 288.138 514.701
1979 0 80.7245 12.97 1047 53.3935 287.804 514.772
1980 0 81.8172 13.0657 1069 53.7905 288.572 511.841
1981 0 83.8272 14.005 1174 53.0596 288.1 510.594
1982 0 85.7372 13.2731 1138 54.0694 288.294 510.354
1983 0 89.7189 13.676 1227 53.6015 288.214 510.464
1984 0 91.861 14.4675 1329 53.3296 288.459 506.482
1985 0 90.7523 13.344 1211 55.1767 288.043 508.571
1986 0 94.6038 14.0586 1330 54.3962 288.05 506.636
1987 0 98.2279 14.9448 1468 53.6642 288.175 502.272
1988 0 101.071 13.8912 1404 54.963 287.869 503.455
1989 0 106.085 14.4884 1537 53.9558 287.523 502.648
1990 0 106.848 14.1977 1517 54.938 287.579 500.534
1991 0 109.703 14.9129 1636 54.4077 288.052 498.981
1992 0 110.87 14.4583 1603 55.3238 288.195 497.922
1993 0 113.935 13.9641 1591 56.0383 287.74 496.762
1994 0 117.889 15.0905 1779 54.882 287.663 495.32
1995 0 122.125 15.0501 1838 55.1289 287.371 493.682
1996 0 127.999 15.5158 1986 54.1178 287.405 490.729
1997 1 76.7893 12.5799 966 57.2878 286.853 516.579
1998 0 80.4654 12.5023 1006 57.4016 286.93 515.19
1999 0 81.8623 12.4355 1018 58.1257 287.083 513.628
2000 0 81.8167 13.958 1142 56.1637 287.24 514.522
2001 0 84.7323 14.6697 1243 55.8673 286.912 511.005
2002 0 86.5812 14.4835 1254 55.7823 286.601 510.123
2003 0 90.5571 14.5875 1321 55.2453 286.069 508.244
2004 0 93.5615 14.6 1366 55.2225 285.892 506.075
2005 0 97.7031 15.5676 1521 54.2078 285.999 505.796
2006 0 100.364 14.9057 1496 54.9853 286.233 503.435
2007 0 103.52 15.1855 1572 54.6215 286.084 501.058
2008 0 105.528 14.887 1571 55.3367 286.029 498.892
2009 0 109.596 13.7597 1508 56.1313 286.384 498.377
2010 0 113.58 14.3776 1633 55.5309 286.41 496.794
2011 0 115.633 15.2119 1759 54.257 286.545 494.35
2012 0 121.347 15.056 1827 54.0619 286.344 494.591
2013 1 56.6721 11.1872 634 54.612 285.872 525.123
2014 0 58.4949 11.5566 676 54.7544 285.429 523.556
2015 0 61.407 12.979 797 53.4304 285.06 523.438
2016 0 62.3678 13.7411 857 53.077 285.277 521.289
2017 0 64.3315 13.788 887 53.2841 285.214 520.587
2018 0 66.422 13.3992 890 53.4888 285.476 521.321
2019 0 69.3944 13.6178 945 53.2635 285.086 519.79
2020 0 71.3499 13.9314 994 52.9658 285.239 518.445
2021 0 71.4423 13.9693 998 53.7896 285.277 517.114
2022 0 75.6159 14.891 1126 52.3872 285.329 517.12
2023 0 78.6814 14.1075 1110 52.8369 285.712 516.403
2024 0 79.4986 14.6669 1166 52.8225 285.796 514.78
2025 0 82.9316 14.5421 1206 53.2421 285.993 514.362
2026 0 84.6296 14.0258 1187 53.8913 285.987 512.505
2027 0 88.8402 13.62 1210 54.5545 285.224 511.096
2028 0 88.5834 14.619 1295 53.9042 285.018 509.934
2029 0 91.7072 14.3936 1320 54.278 283.777 509.602
2030 0 95.3911 15.0014 1431 53.4878 284.501 506.95
2031 0 98.7262 14.1705 1399 54.6826 285.463 506.176
2032 0 102.56 14.9377 1532 54.1305 285.109 503.262
2033 0 104.699 13.7824 1443 55.7616 284.712 502.741
2034 0 109.657 14.828 1626 54.5947 284.287 500.769
2035 0 111.719 14.2859 1596 55.3283 284.034 501.345
2036 1 66.6033 12.5519 836 55.0347 284.071 523.706
2037 0 68.6265 13.9013 954 53.8774 283.971 522.568
2038 0 69.6636 11.9288 831 55.8351 284.496 521.001
2039 0 73.6604 12.7205 937 54.9007 284.074 519.684
2040 0 74.7751 12.6245 944 55.3189 283.984 519.052
2041 0 77.7526 12.6427 983 55.0468 284.329 518.671
2042 0 80.7859 13.6286 1101 54.1272 284.007 516.514
2043 0 82.5966 14.0199 1158 54.2358 283.002 513.929
2044 0 83.6296 13.1891 1103 55.2992 283.286 513.975
2045 0 87.6156 13.9815 1225 54.3453 282.905 514.4
2046 0 90.8451 13.5285 1229 54.9414 283.025 511.536
2047 0 93.2469 14.1131 1316 54.6413 283.714 512.804
2048 0 95.8227 13.7754 1320 54.9977 283.521 509.114
2049 0 97.5576 13.3562 1303 55.6861 283.457 509.733
2050 0 99.5395 14.3059 1424 55.4277 284.058 504.65
2051 0 104.699 14.4509 1513 54.9299 283.079 506.793
2052 0 107.756 14.5142 1564 55.4488 283.614 504.625
2053 0 110.619 13.4696 1490 56.9497 283.425 502.657
2054 0 114.654 14.5918 1673 57.5015 283.341 501.531
2055 0 115.902 14.2965 1657 58.1732 282.941 499.163
2056 1 67.5553 11.0576 747 59.6493 282.471 526.118
2057 0 69.7611 11.9551 834 60.1211 282.278 522.847
2058 0 70.7086 11.8373 837 60.7336 282.319 521.698
2059 0 73.5661 13.6204 1002 59.0419 282.607 520.852
2060 0 75.4366 13.0176 982 60.1324 282.594 520.314
2061 0 77.7121 13.6787 1063 59.905 282.764 517.593
2062 0 81.5831 14.1574 1155 58.9152 282.803 517.872
2063 0 84.8726 13.4319 1140 60.207 282.565 516.498
2064 0 87.5739 13.9996 1226 59.3589 282.421 514.979
2065 0 89.5052 14.0662 1259 60.0429 282.253 513.222
2066 0 93.6881 14.6016 1368 59.5015 281.882 512.052
2067 0 94.3319 14.131 1333 60.9175 282.695 511.024
2068 0 97.3395 14.2388 1386 61.145 282.228 510.072
2069 0 101.516 14.5789 1480 61.0459 282.939 508.41
2070 0 105.623 14.6749 1550 60.9632 282.682 506.693
2071 0 108.555 13.8731 1506 61.9555 283.576 505.56
2072 0 111.598 14.3909 1606 62.3387 283.58 504.742
2073 0 115.59 15.0619 1741 61.5405 283.615 499.604
2074 0 119.367 14.5183 1733 62.2776 283.784 499.067
2075 1 67.3449 11.6267 783 63.3576 283.198 525.365
2076 0 68.4752 11.1719 765 63.9333 283.093 523.733
2077 0 71.545 13.2504 948 62.2194 283.186 522.445
2078 0 74.5368 13.1479 980 62.4735 283.188 522.481
2079 0 73.1534 14.1484 1035 62.3353 282.986 518.789
2080 0 75.2149 12.8964 970 64.2845 283.461 518.714
2081 0 78.336 13.2761 1040 63.8827 283.715 517.509
2082 0 81.2808 13.7548 1118 63.3435 283.785 518.431
2083 0 85.3265 13.63 1163 63.6586 284.213 514.299
2084 0 86.2238 13.4997 1164 64.6933 284.552 512.766
2085 0 90.2879 13.9332 1258 64.8895 284.455 511.211
2086 0 94.2027 15.3393 1445 62.4664 284.736 511.147
2087 0 96.3729 14.5995 1407 64.349 284.847 508.508
2088 0 97.2773 13.7442 1337 65.7981 285.342 508.337
2089 0 101.264 14.7535 1494 65.3173 285.469 506.713
2090 0 104.218 13.5965 1417 67.1983 285.872 504.181
2091 0 106.332 13.7306 1460 67.8363 286.074 502.136
2092 0 110.317 14.0141 1546 67.6708 286.285 500.01
2093 0 113.233 14.1655 1604 67.7718 286.378 497.738
2094 0 116.196 14.1743 1647 68.224 286.537 497.198
2095 0 120.292 14.4399 1737 67.9557 286.763 494.643
2096 0 124.339 14.38 1788 68.3809 286.661 491.266
2097 1 29.0255 7.6829 223 55.9596 286.094 544.251
2098 0 28.0095 8.74704 245 55.3388 286.253 543.384
2099 0 27.0288 7.62149 206 56.5194 286.248 544.539
2100 0 29.0197 6.37498 185 56.8919 286.411 546.486
2101 0 26.0223 8.26214 215 55.6837 286.833 546.042
2102 0 28.0315 8.34776 234 55.3803 287.214 545.543
2103 0 27.0366 8.91383 241 54.7842 287.357 545.054
2104 0 26.0435 8.90818 232 56.5517 287.526 543.81
2105 0 26.0616 8.13456 212 56.6274 287.83 544.778
2106 0 29.0224 7.68372 223 57.3363 288.166 546.359
2107 0 27.0272 8.47294 229 56.524 288.245 544.62
2108 0 26.0396 8.41026 219 56.8174 287.913 544.813
2109 0 27.0662 9.23661 250 56.596 287.708 543.292
2110 0 26.0255 7.8769 205 58.1659 287.888 543.707
2111 0 27.0365 7.80426 211 57.2512 288.227 545.63
2112 0 28.0602 9.23014 259 55.9575 288.224 544.324
2113 0 28.0535 8.0204 225 58 288.867 543.364
2114 0 27.151 8.32383 226 56.115 288.292 544.097
2115 0 32.0624 9.26319 297 56.0202 288.242 541.239
2116 0 31.0433 9.05187 281 55.363 288.039 541.943
2117 0 31.0561 8.66174 269 55.4126 288.253 542.152
2118 0 31.0387 7.89336 245 55.5388 288.282 542.714
2119 0 33.0524 8.19911 271 56.2399 287.878 541.978
2120 0 31.0871 7.68809 239 56.9874 287.603 540.946
2121 0 30.1389 7.0341 212 58.1321 287.854 540.698
2122 0 32.0851 8.4463 271 56.3579 287.867 540.432
2123 0 37.0574 7.4479 276 56.8152 287.196 539.833
2124 0 35.0955 7.69329 270 56.863 287.126 540.341
2125 0 36.179 7.62873 276 56.837 287.322 540.279
2126 0 35.0476 8.50272 298 56.3893 286.913 540.067
2127 0 36.1215 8.80362 318 56.283 286.381 539.06
2128 0 38.0453 8.75273 333 55.2523 286.387 540.709
2129 0 35.1961 7.8986 278 56.7446 286.525 540.453
2130 0 37.0562 9.55305 354 55.3842 286.565 539.559
2131 0 39.0864 8.31491 325 55.56 286.594 540.028
2132 0 36.033 7.77064 280 56.8643 286.936 540.286
2133 0 40.0612 7.96282 319 56.1755 286.436 539.216
2134 0 37.046 7.61216 282 56.7801 286.918 538.649
2135 0 36.0105 8.44198 304 56.2895 287.086 540.141
2136 0 38.1497 9.22682 352 54.8949 286.722 539.832
2137 0 38.0327 9.33407 355 54.769 286.369 539.059
2138 0 38.047 8.43694 321 56.1963 286.713 540.09
2139 0 37.0278 9.10128 337 55.9347 285.49 538.454
2140 0 40.0581 9.1617 367 54.861 285.005 539.649
2141 0 39.1707 8.27149 324 56.5494 284.509 540.457
2142 0 38.0524 9.11901 347 55.0692 284.112 541.305
2143 0 39.1383 9.14705 358 56.1089 283.397 540.816
2144 0 36.1096 8.83423 319 57.2602 283.683 542.677
2145 0 35.1249 9.79363 344 57.3169 283.41 543.398
2146 0 34.0388 10.6055 361 58.2105 282.097 542.546
2147 0 35.0161 10.9378 383 58.3107 281.869 541.715
2148 0 34.0305 10.138 345 60.7739 282.849 543.357
2149 0 33.018 10.4791 346 61.8237 282.46 543.39
2150 0 37.0478 11.0128 408 60.8088 282.458 543.789