time division length width area intensity CMx CMy
0 0 53.2407 14.2936 761 63.1419 1142.96 561.25
1 0 55.1733 12.5423 692 66.2644 1142.4 560.699
2 0 55.2015 13.0612 721 66.025 1142.15 560.004
3 0 57.122 13.3399 762 66.0722 1142.47 559.101
4 0 59.1121 14.1595 837 64.8566 1142.49 556.849
5 0 60.225 13.6488 822 64.6959 1141.8 555.956
6 0 63.2624 13.9419 882 63.2256 1141.89 556.155
7 0 66.1874 13.7488 910 63.0066 1142.01 554.338
8 0 68.2032 13.9583 952 63.7794 1142.84 551.759
9 0 71.2089 13.5657 966 64.7557 1142.82 550.523
10 0 72.1663 12.9978 938 66.2388 1143.2 550.226
11 0 75.2431 13.5428 1019 65.5741 1143.25 549.971
12 0 78.1681 13.6245 1065 65.2423 1143.26 546.275
13 0 80.3422 12.9197 1038 65.263 1143.02 545.639
14 0 85.2246 13.7519 1172 63.605 1143.79 544.771
15 1 42.0985 11.1168 468 63.7436 1143.09 564.519
16 0 45.2309 11.3197 512 62.1211 1143.1 564.889
17 0 45.118 13.1212 592 60.8682 1143.34 562.704
18 0 48.1916 12.2428 590 60.5153 1143.38 562.236
19 0 47.3188 11.4542 542 62.1033 1143.12 561.517
20 0 51.1663 12.5278 641 60.2683 1143.51 560.716
21 0 51.1138 13.108 670 59.4224 1143.75 561.76
22 0 54.2427 12.3519 670 60.9463 1143.78 559.825
23 0 53.1858 10.8488 577 62.9965 1144.15 560.052
24 0 58.232 12.3987 722 61.1717 1144.06 559.493
25 0 59.3476 13.0081 772 61.8161 1144.1 557.009
26 0 60.2092 13.2538 798 62.0376 1144.06 556.58
27 0 62.2698 13.0561 813 62.6679 1143.93 556.096
28 0 64.3172 13.4023 862 62.551 1144.04 554.894
29 0 66.2705 13.8221 916 62.7817 1144.21 553.012
30 0 70.2449 13.154 924 63.4286 1144.23 553.43
31 0 68.311 13.1165 896 64.4029 1144.39 552.848
32 0 74.3712 13.4057 997 64.1795 1144.68 551.79
33 0 77.2306 13.2849 1026 64.1316 1144.81 551.127
34 0 79.3407 13.2089 1048 65.021 1144.83 548.979
35 0 82.2705 13.0302 1072 65.5522 1144.47 544.898
36 0 85.1973 12.9347 1102 66.1724 1144.25 544.173
37 0 90.1718 14.8494 1339 63.0739 1144.64 545.258
38 0 87.2241 12.4507 1086 67.2109 1144.66 543.221
39 0 93.1595 12.645 1178 66.8752 1144.14 541.976
40 1 48.0914 12.3099 592 64.6334 1143.85 562.652
41 0 47.069 11.7912 555 66.3964 1143.82 562.802
42 0 49.067 11.9428 586 66.2184 1144.13 562.691
43 0 51.0896 12.2138 624 66.024 1144.21 560.843
44 0 53.224 12.3065 655 65.4977 1144.56 561.957
45 0 52.1603 13.2668 692 65.828 1145.08 560.676
46 0 57.2209 12.2508 701 65.6377 1144.91 560.944
47 0 57.1307 13.0753 747 66.0455 1144.92 558.478
48 0 60.2864 12.7226 767 66.4967 1144.78 557.138
49 0 60.2307 11.8046 711 68.2672 1144.96 555.699
50 0 64.2081 13.098 841 65.5957 1144.39 555.62
51 0 64.2383 12.3758 795 67.3648 1144.99 554.184
52 0 66.17 12.619 835 66.5725 1144.47 554.709
53 0 69.1639 13.215 914 65.6105 1144.44 553.55
54 0 72.1479 12.5714 907 64.6748 1143.81 552.617
55 0 73.1991 11.981 877 60.2052 1143.65 552.243
56 0 75.1761 12.3044 925 60.6757 1144.15 549.59
57 0 77.1898 12.4498 961 61.3018 1144.49 548.314
58 0 80.1544 12.164 975 61.3549 1144.58 547.19
59 0 83.2016 13.5094 1124 59.5214 1144.35 546.474
60 0 85.2093 13.461 1147 59.9067 1145.15 543.93
61 0 88.1675 13.0434 1150 60.2156 1145.03 543.597
62 0 92.2141 13.024 1201 60.3988 1145.14 541.372
63 1 48.0609 11.0277 530 60.2811 1143.56 561.657
64 0 53.1662 11.9249 634 58.6088 1143.99 561.058
65 0 55.0744 12.7464 702 56.9003 1144.19 560.293
66 0 56.2186 12.0601 678 59.1077 1144.89 559.366
67 0 57.1398 12.4432 711 59.4163 1145.45 557.498
68 0 56.1425 12.9136 725 59.6276 1145.81 555.879
69 0 59.265 11.5414 684 60.4108 1146.41 556.392
70 0 63.1482 12.4786 788 58.9327 1146.19 554.147
71 0 64.3108 13.2015 849 58.3475 1145.72 552.65
72 0 66.2219 11.99 794 59.5101 1146.18 553.149
73 0 67.2373 12.2105 821 59.9367 1146.56 550.344
74 0 69.1435 13.0309 901 59.1343 1146.36 549.042
75 0 72.2688 13.5328 978 58.453 1147.41 547.041
76 0 74.1784 12.2677 910 59.6176 1147.12 546.794
77 0 78.1866 13.3782 1046 58.0516 1147.07 545.811
78 0 79.1929 13.2335 1048 58.2195 1147.06 542.698
79 0 80.2251 12.2904 986 58.8032 1147.45 541.487
80 0 82.1427 13.44 1104 57.9882 1147.89 537.582
81 0 87.4078 14.7241 1287 56.0917 1148.18 537.378
82 1 44.114 10.9036 481 56.9439 1147.64 558.304
83 0 48.1888 10.8947 525 57.76 1147.68 555.905
84 0 48.0753 10.5668 508 58.124 1147.68 553.754
85 0 50.0901 10.2815 515 56.9884 1147.62 555.553
86 0 51.0815 11.2761 576 56.3872 1147.86 553.743
87 0 52.0612 11.6209 605 55.2413 1148.46 551.483
88 0 56.2168 12.4162 698 53.616 1148.6 551.851
89 0 54.2054 12.2497 664 53.6702 1148.89 550.372
90 0 60.1518 13.2664 798 52.5752 1149.44 548.277
91 0 61.2848 13.2496 812 56.0086 1150.22 548.408
92 0 62.2985 12.3117 767 59.837 1150.68 547.029
93 0 66.1757 12.8899 853 57.8546 1150.54 545.882
94 0 68.2163 12.0792 824 56.8884 1150.37 545.354
95 0 70.3363 12.1843 857 54.8238 1149.94 543.635
96 0 74.1616 11.2592 835 55.0491 1150.18 542.756
97 0 76.2916 13.8285 1055 74.0265 1150.2 541.347
98 0 78.2339 13.5108 1057 52.333 1149.19 540.113
99 0 80.1712 14.8807 1193 51.5968 1149.47 536.018
100 0 81.2043 12.8072 1040 55.0375 1150.01 535.832
101 0 81.2286 13.2712 1078 55.4323 1150.25 534.1
102 0 86.3153 12.9641 1119 54.664 1150.13 532.306
103 1 50.2804 10.163 511 55.6164 1149.27 553.143
104 0 53.2027 10.6949 569 55.0228 1149.09 553.513
105 0 51.337 11.9991 616 57.0584 1150.1 549.932
106 0 54.2297 12.0045 651 57.8172 1150.73 549.061
107 0 55.2983 11.2843 624 58.859 1150.31 548.516
108 0 57.1348 13.0743 747 55.9759 1150.7 548.479
109 0 56.1835 12.0498 677 55.7238 1151.51 546.282
110 0 60.1653 12.1665 732 52.3292 1150.75 548.034
111 0 59.2579 12.7072 753 52.9216 1150.88 546.887
112 0 70.2851 11.7094 823 52.8736 1150.65 547.374
113 0 69.2585 12.475 864 52.9664 1151.01 544.296
114 0 70.1567 13.6837 960 51.6656 1150.6 543.505
115 0 72.2124 15.6344 1129 50.4358 1150.5 540.674
116 0 72.2219 12.4201 897 53.4805 1150.52 540.872
117 0 83.1978 10.433 868 55.0104 1150.3 540.359
118 0 83.2777 11.7078 975 54.0615 1150.43 537.735
119 0 83.1089 12.9108 1073 53.9702 1150.19 533.874
120 0 83.1575 12.9152 1074 53.2654 1150.18 535.393
121 0 87.2156 14.4814 1263 51.6429 1150.2 534.633
122 0 89.2064 12.869 1148 53.3336 1150.02 530.795
123 1 46.1205 9.692 447 52.4698 1149.48 554.242
124 0 47.2749 10.0899 477 52.8197 1149.98 554.44
125 0 50.3195 10.7712 542 52.3598 1150.48 551.09
126 0 49.1717 10.7989 531 52.7702 1149.98 551.111
127 0 51.1747 11.0601 566 52.795 1150.25 551.519
128 0 53.305 11.3498 605 52.9455 1149.48 549.721
129 0 57.1831 10.6325 608 54.0345 1149.93 548.615
130 0 55.33 12.6152 698 53.2264 1149.47 547.403
131 0 57.2701 12.5895 721 53.5936 1149.39 548.183
132 0 59.1945 12.2815 727 54.9216 1148.67 547.162
133 0 61.2629 11.0834 679 56.1208 1148.45 546.844
134 0 61.207 12.2862 752 55.4176 1148.56 546.001
135 0 65.2307 12.5708 820 54.7598 1148.37 546.235
136 0 65.2122 12.7584 832 55.476 1148.78 543.868
137 0 68.2309 13.8354 944 54.8528 1148.79 539.506
138 0 69.2405 13.1137 908 55.7952 1149.04 541.975
139 0 71.3402 13.8071 985 55.1198 1148.65 540.786
140 0 74.25 12.404 921 56.1922 1148.61 540.101
141 0 77.3328 13.2156 1022 55.8963 1148.74 539.623
142 0 78.2161 13.4755 1054 55.8634 1148.66 538.21
143 0 78.3161 13.088 1025 56.5112 1148.83 537.557
144 0 83.3809 13.1085 1093 56.6889 1148.22 535.007
145 0 87.1628 13.3543 1164 56.2234 1149.15 533.628
146 0 91.2698 13.1588 1201 56.3114 1148.99 531.187
147 1 51.1834 9.26081 474 56.0654 1148.93 553.112
148 0 50.1541 10.7469 539 56.2968 1148.83 550.859
149 0 50.2058 11.6919 587 55.8399 1148.85 549.916
150 0 53.1723 11.5662 615 55.3886 1149.35 551.39
151 0 54.2047 11.8071 640 56.8031 1150.03 548.43
152 0 57.177 12.4526 712 56.0688 1149.99 547.632
153 0 57.2335 11.7414 672 57.0521 1149.73 548.335
154 0 61.2932 13.2315 811 55.5018 1149.97 546.52
155 0 60.1982 12.8907 776 57.1211 1149.56 545.784
156 0 63.1835 12.8198 810 56.9099 1149.68 545.391
157 0 65.2567 13.24 864 56.2535 1150.23 545.068
158 0 68.1752 13.5093 921 56.1444 1150.03 541.661
159 0 67.3596 13.5393 912 56.4112 1150.04 541.673
160 0 70.1624 13.8821 974 56.5924 1150.39 539.65
161 0 71.141 13.8036 982 56.5927 1150.26 540.716
162 0 75.1841 15.1096 1136 55.2852 1150.2 538.141
163 0 79.2414 15.9765 1266 54.0545 1150.14 536.017
164 0 80.123 12.6306 1012 57.4565 1149.96 538.548
165 0 83.239 13.7916 1148 56.9294 1149.98 534.004
166 0 83.239 13.7436 1144 150.066 1149.98 534.004
167 0 84.2138 12.3614 1041 58.731 1150.66 535.702
168 0 90.3214 13.4741 1217 58.0608 1150.54 532.226
169 0 95.1623 14.7012 1399 56.777 1150.77 530.15
170 0 93.3361 13.4996 1260 58.3802 1150.86 529.286
171 0 93.3361 13.446 1255 163.109 1150.85 529.368
172 1 51.0309 12.463 636 56.0928 1150.82 548.454
173 0 52.0651 12.3115 641 56.2652 1151.08 547.147
174 0 56.1651 13.0508 733 56.9291 1151.3 547.48
175 0 55.1851 12.9745 716 58.0866 1151.44 545.014
176 0 58.1795 13.9396 811 55.8964 1151.52 546.686
177 0 60.0785 12.6668 761 57.2878 1151.47 544.401
178 0 62.0429 13.1038 813 56.6777 1151.53 542.434
179 0 64.3734 12.5828 810 57.0778 1151.74 543.595
180 0 66.1151 13.2496 876 56.7671 1151.93 541.055
181 0 69.2993 13.8818 962 56.3971 1152.31 541.771
182 0 71.1697 13.4186 955 57.3225 1152.36 538.273
183 0 72.1511 13.3886 966 57.3768 1152.54 536.832
184 0 74.209 13.4889 1001 58.1968 1152.98 534.694
185 0 76.1754 12.0511 918 58.9368 1153.11 535.636
186 0 78.1586 12.8457 1004 58.4432 1153.54 530.801
187 0 81.1318 13.2624 1076 57.1032 1153.48 529.484
188 0 84.2234 12.4193 1046 57.825 1153.8 529.435
189 0 85.1723 13.7721 1173 57.0367 1154.04 525.486
190 0 91.2055 13.8807 1266 56.8626 1153.88 524.81
191 0 94.2577 13.4843 1271 58.1204 1154.32 525.183
192 0 96.2899 13.0336 1255 58.898 1154.7 523.509
193 0 99.3168 13.0995 1301 57.8985 1154.77 524.58
194 1 55.1612 11.4936 634 54.8975 1154.56 544.964
195 0 58.2958 12.1964 711 53.4473 1154.34 544.198
196 0 59.0956 12.3021 727 53.5557 1153.15 543.305
197 0 59.1218 11.8569 701 55.2825 1153.16 542.427
198 0 62.1099 11.4958 714 56.2661 1153.06 541.943
199 0 66.1864 11.4525 758 56.2599 1153.63 541.215
200 0 67.1966 12.6346 849 55.7444 1153.94 538.505
201 0 69.161 13.3601 924 55.0996 1154.55 536.821
202 0 70.3014 12.6598 890 55.6596 1154.82 536.058
203 0 74.4377 11.8488 882 56.3367 1154.31 535.917
204 0 80.4075 10.2851 827 57.0726 1154.74 538.109
205 0 80.3159 12.9489 1040 55.7894 1155.01 531.924
206 0 82.2466 12.7908 1052 56.3232 1154.87 532.105
207 0 84.3499 12.4363 1049 56.6892 1154.9 529.674
208 0 92.2851 10.6843 986 57.4757 1154.37 531.585
209 0 89.3882 11.9926 1072 57.2798 1154.27 528.337
210 0 93.3793 13.6004 1270 56.0283 1154.41 524.609
211 0 102.41 10.3798 1063 57.9445 1153.7 524.804
212 0 104.303 11.016 1149 56.9121 1153.47 525.279
213 0 106.309 13.6394 1450 54.9317 1153.66 522.862
214 1 60.5312 11.4817 695 55.3813 1153.44 542.945
215 0 59.3083 11.2295 666 56.1577 1153.28 543.222
216 0 61.4179 12.5045 768 54.3555 1152.26 542.738
217 0 63.4618 10.5575 670 55.997 1152.23 541.676
218 0 66.5268 11.6645 776 54.2204 1152.35 542.943
219 0 66.326 11.9862 795 55.3472 1152.24 540.838
220 0 69.3647 12.4559 864 54.5914 1152.12 538.44
221 0 71.4334 12.6692 905 54.2088 1151.99 537.975
222 0 74.4452 13.6342 1015 53.5557 1151.81 533.705
223 0 76.3618 12.1003 924 54.8344 1151.81 535.004
224 0 79.362 11.6554 925 55.2076 1152.03 534.438
225 0 81.361 12.4138 1010 54.6475 1152.3 533.662
226 0 84.4621 12.1711 1028 54.6469 1151.76 532.496
227 0 86.3558 13.1201 1133 53.7785 1151.79 531.369
228 0 89.3363 11.91 1064 55.1194 1151.36 530.274
229 0 92.39 12.6312 1167 54.2794 1151.63 529.507
230 0 95.3276 12.4203 1184 55.0405 1151.6 527.434
231 0 97.3933 12.6703 1234 54.8031 1151.38 525.923
232 0 102.436 12.1345 1243 54.7747 1151.64 525.348
233 0 103.472 11.52 1192 55.1174 1151.56 524.618
234 1 57.3761 11.4159 655 53.9099 1150.96 544.655
235 0 58.2472 11.0735 645 53.6558 1151.26 548.088
236 0 58.1495 12.7946 744 52.8051 1151.03 543.777
237 0 60.1237 12.7737 768 52.6042 1150.84 542.595
238 0 64.2254 12.3938 796 53.1068 1150.86 541.646
239 0 66.3428 13.2343 878 52.1697 1150.93 540.418
240 0 67.2844 12.5735 846 52.8026 1150.26 539.441
241 0 66.1688 12.7855 846 53.6678 1150.5 538.021
242 0 71.1277 13.3984 953 52.7198 1150.6 537.061
243 0 71.323 12.3242 879 53.4403 1150.25 536.362
244 0 75.1456 12.895 969 53.5604 1150.01 537.79
245 0 77.1726 13.243 1022 53.3943 1150.45 536.117
246 0 75.1676 13.3967 1007 53.6792 1150.85 534.029
247 0 79.1782 12.8065 1014 54.1045 1150.26 532.901
248 0 83.267 13.6669 1138 53.7012 1150.35 530.782
249 0 85.2619 12.9483 1104 55.1567 1150.19 531.941
250 0 89.2955 13.3265 1190 54.7302 1150.05 530.194
251 0 93.183 14.1871 1322 54.553 1150.18 527.337
252 0 95.2534 14.7921 1409 54.0653 1150.08 525.581
253 0 98.266 13.0055 1278 56.0516 1150.43 525.877
254 1 54.1933 10.6471 577 54.6464 1149.32 548.191
255 0 53.1431 9.3521 497 55.9014 1149.77 549.074
256 0 57.0498 11.4462 653 53.5146 1150.07 548.701
257 0 57.062 11.5664 660 54.7152 1149.81 546.192
258 0 59.1021 12.1315 717 54.8382 1149.32 545.912
259 0 63.1889 13.5309 855 54.0117 1149.93 547.165
260 0 65.1586 11.2188 731 56.4364 1149.55 549.007
261 0 64.1543 13.5455 869 55.0852 1149.01 546.269
262 0 66.2069 13.3521 884 55.4853 1149.08 544.782
263 0 70.1346 14.4864 1016 53.7096 1148.96 545.33
264 0 69.1097 13.6884 946 55.4693 1149.08 542.479
265 0 70.2279 13.5132 949 55.2877 1149.22 542.678
266 0 74.1483 13.6753 1014 55.8609 1148.9 540.667
267 0 78.1947 13.9907 1094 55.4899 1148.87 539.076
268 0 79.2553 12.8824 1021 56.6298 1149.13 539.317
269 0 83.1758 13.1288 1092 56.4771 1149.61 538.12
270 0 86.2125 13.0607 1126 56.738 1149.89 537.806
271 0 86.1777 13.681 1179 57.117 1150.17 534.173
272 0 91.1602 14.4581 1318 56.4082 1149.92 531.035
273 0 95.2849 13.4859 1285 57.1813 1149.44 529.388
274 0 98.241 14.3626 1411 56.9709 1149.82 527.069
275 0 99.2706 13.3373 1324 58.2009 1149.92 525.585
276 1 52.0681 12.1572 633 57.1406 1149.64 549.567
277 0 53.0816 11.4729 609 57.5731 1149.25 550.688
278 0 57.1901 13.0967 749 55.4072 1149.9 549.132
279 0 57.1348 12.6718 724 57.232 1150.17 546.935
280 0 58.2066 11.9746 697 57.4261 1149.93 547.397
281 0 61.2407 11.8875 728 57.4038 1150.27 545.337
282 0 61.1854 12.3395 755 57.5735 1150.76 544.008
283 0 65.1929 11.8725 774 56.8191 1150.42 544.385
284 0 70.2926 11.6228 817 56.836 1150.34 544.591
285 0 69.3524 12.0544 836 56.5658 1150.21 542.301
286 0 71.2489 12.9686 924 56.3658 1151.28 538.89
287 0 71.2489 12.9686 924 141.293 1153.3 538.819
288 0 75.1394 12.8827 968 57.2552 1151.25 537.252
289 0 79.2195 12.3328 977 56.8905 1151.03 537.917
290 0 80.2916 11.4582 920 58.3533 1152.11 534.921
291 1 41.0592 9.42542 387 58.8398 1151.26 553.77
292 0 43.1471 11.1016 479 57.0731 1151.3 554.031
293 0 45.1833 10.7119 484 57.5475 1150.94 553.091
294 0 46.1702 11.8908 549 57.2933 1151.34 550.508
295 0 48.1712 11.1893 539 57.7347 1151.63 551.137
296 0 50.2381 12.9981 653 56.4548 1152.22 548.328
297 0 49.1151 10.7706 529 58.845 1152.45 550.403
298 0 51.2201 11.8118 605 57.8479 1152.76 548.974
299 0 55.1955 12.6641 699 56.485 1153.17 546.778
300 0 56.1686 13.05 733 57.1146 1153.24 545.36
301 0 58.2888 13.639 795 56.322 1153.58 546.202
302 0 58.2888 13.639 795 154.624 1153.58 546.202
303 0 60.3082 12.8341 774 58.9044 1153.43 542.59
304 0 63.2804 13.8748 878 57.9681 1153.52 541.62
305 0 65.2801 13.557 885 58.2045 1153.91 542.692
306 0 66.299 14.4346 957 58.2006 1153.98 540.08
307 0 69.2447 14.1816 982 58.9338 1153.98 538.806
308 0 70.2224 14.3544 1008 59.501 1153.75 537.19
309 0 69.1074 12.8351 887 62.1736 1154.21 536.339
310 0 73.3812 15.2083 1116 59.1478 1154.35 536.03
311 0 75.2277 13.16 990 61.8455 1153.77 536.83
312 0 78.2248 14.3816 1125 60.4667 1153.98 535.362
313 0 82.1585 14.3747 1181 60.6969 1154.15 532.872
314 1 42.1068 9.87964 416 62.4663 1152.65 553.56
315 0 44.1282 11.308 499 62.8818 1152.48 550.99
316 0 45.1571 9.83234 444 64.4144 1152.74 552.286
317 0 48.2077 9.95692 480 63.9875 1152.89 551.333
318 0 48.1847 12.3276 594 61.6801 1152.79 548.604
319 0 46.0526 12.0732 556 63.7536 1152.87 548.052
320 0 50.1007 11.8362 593 64.4098 1152.38 547.653
321 0 54.0684 11.9848 648 64.1512 1152.63 546.032
322 0 54.0946 13.347 722 63.0222 1152.63 544.827
323 0 55.0749 12.5102 689 64.3062 1152.66 544.71
324 0 57.1242 13.4969 771 63.0259 1152.52 543.541
325 0 58.1223 12.7318 740 64.3757 1152.36 543.373
326 0 60.126 13.2721 798 63.5664 1152.62 541.154
327 0 62.2902 14.1756 883 62.3296 1153.14 542.121
328 0 62.1226 13.4895 838 63.5262 1153.04 540.858
329 0 66.2803 14.2425 944 62.1059 1152.78 540.183
330 0 66.1199 14.2469 942 63.2537 1152.77 537.863
331 0 69.1963 15.0008 1038 61.7486 1152.82 538.228
332 0 70.3026 13.1716 926 63.4449 1153.12 539.745
333 0 71.198 13.7644 980 63.6439 1153.04 535.659
334 0 75.2853 12.4726 939 64.1629 1152.69 537.441
335 0 78.4429 14.1504 1110 62.2171 1152.71 533.978
336 0 76.3701 14.1809 1083 156.442 1152.8 533.529
337 0 81.2166 14.2705 1159 62.352 1152.91 531.415
338 0 85.3896 15.1306 1292 60.8096 1152.46 531.587
339 1 41.1537 12.0038 494 62.5466 1151.3 550.842
340 0 45.2295 11.0105 498 62.8072 1151.63 551.143
341 0 43.3409 11.698 507 63.1499 1151.32 551.803
342 0 47.2827 12.457 589 61.3718 1151.52 549.088
343 0 48.1872 11.2893 544 62.6415 1151.32 550.974
344 0 48.1364 12.3607 595 62.3899 1151.39 548.045
345 0 50.1448 12.3841 621 61.5717 1150.95 547.937
346 0 51.1398 13.0231 666 60.5691 1151 546.374
347 0 56.2304 12.68 713 60.6536 1151.15 547.808
348 0 55.2494 12.1449 671 62.1908 1151.43 546.72
349 0 58.1864 14.3676 836 58.6136 1151.62 545.559
350 0 60.2221 13.7657 829 59.117 1151.21 544.259
351 0 61.2095 13.0372 798 60.1366 1150.88 543.155
352 0 64.2234 13.5153 868 59.4804 1150.35 543.018
353 0 65.2188 13.355 871 59.8898 1150.16 541.235
354 0 67.1306 13.5259 908 59.7203 1150.18 541.476
355 0 69.1887 14.2653 987 58.8845 1149.67 541.082
356 0 72.2542 13.757 994 59.6227 1149.59 536.958
357 0 73.1323 12.7987 936 60.2724 1149.3 538.018
358 0 76.1275 12.2952 936 60.2949 1148.92 537.687
359 0 78.1472 13.948 1090 58.3569 1149.56 537.099
360 1 43.0988 9.09538 392 59.7781 1148.93 554.161
361 0 43.0414 9.64189 415 59.7253 1149.05 552.812
362 0 45.0778 11.6243 524 57.063 1149.86 550.872
363 0 45.0278 10.549 475 58.4168 1149.42 550.282
364 0 45.061 10.5413 475 58.2905 1150.09 549.625
365 0 47.0173 11.4851 540 57.5944 1150.31 548.243
366 0 50.1269 12.6878 636 57.7421 1150.27 550.918
367 0 49.1342 13.3512 656 57.5762 1149.85 549.229
368 0 52.1541 11.4469 597 58.7538 1150.15 550.502
369 0 54.1073 13.9168 753 56.5086 1151.17 547.72
370 0 55.2482 12.5796 695 57.3367 1151.41 546.576
371 0 57.1954 12.1688 696 57.7371 1150.58 546.029
372 0 59.299 13.3898 794 56.8854 1151.26 544.412
373 0 63.1578 13.2842 839 56.8653 1151.34 543.196
374 0 64.1976 13.2092 848 56.77 1151.73 543.167
375 0 66.1983 14.0185 928 56.6207 1151.65 540.814
376 0 69.3073 13.8081 957 55.4316 1151.46 540.324
377 0 68.2015 13.2255 902 56.6353 1151.63 539.236
378 0 73.183 13.5687 993 55.6002 1151.74 539.853
379 0 76.275 12.8745 982 56.3798 1151.8 538.6
380 1 39.145 9.91187 388 57.2603 1150.4 555.299
381 0 42.1592 11.2905 476 57.0987 1151.26 552.863
382 0 42.1592 11.3854 480 158.306 1152.27 552.908
383 0 42.16 10.8159 456 58.4561 1151.25 552.226
384 0 47.0888 12.3172 580 55.7759 1151.15 550.624
385 0 46.1889 12.9468 598 56.0752 1151.76 549.162
386 0 46.257 11.4577 530 57.8208 1151.63 549.562
387 0 47.2248 13.1499 621 56.2061 1152.04 549.147
388 0 51.2441 13.0161 667 55.6972 1152.41 548.547
389 0 53.1634 11.1543 593 57.715 1153 547.703
390 0 53.2803 12.6125 672 56.8512 1152.39 546.771
391 0 55.1962 14.4032 795 55.3912 1152.55 544.423
392 0 58.1272 13.3328 775 56.2503 1152.82 544.639
393 0 59.1439 12.2075 722 57.3047 1153.42 545.313
394 0 61.2556 13.5988 833 56.4262 1153.49 542.873
395 0 63.1812 14.1656 895 56.0715 1153.82 539.946
396 0 65.168 13.2734 865 56.0462 1153.77 542.49
397 0 68.2167 13.4278 916 56.6834 1153.94 539.11
398 0 69.1528 12.8267 887 57.7452 1154.12 536.942
399 0 72.1192 14.4483 1042 56.642 1154.07 535.207
400 0 77.191 14.1726 1094 56.1472 1154.09 535.297
401 0 80.2103 14.8859 1194 55.9221 1154.35 532.023
402 0 81.2141 15.5392 1262 55.454 1154.66 531.901
403 0 82.1942 13.8331 1137 57.584 1154.24 530.912
404 0 84.1676 14.4592 1217 56.4224 1154.29 531.162
405 0 85.2604 12.843 1095 57.8466 1154.18 531.935
406 1 49.2239 11.2547 554 57.4224 1153.99 546.419
407 0 49.1383 12.6785 623 56.9486 1154.19 545.661
408 0 49.1008 11.9754 588 58.0612 1153.83 546.075
409 0 52.1964 14.1772 740 55.9095 1153.61 545.926
410 0 54.1744 13.5119 732 57.0546 1153.92 545.018
411 0 54.1405 13.5573 734 57.1771 1154.06 544.255
412 0 54.1356 12.8935 698 57.9613 1153.93 542.451
413 0 58.0908 13.6166 791 56.7168 1153.99 542.716
414 0 60.1179 13.1242 789 57.545 1154.11 541.005
415 0 60.1169 14.4053 866 56.5335 1154.06 541.157
416 0 64.0727 13.4222 860 57.4291 1154.22 539.841
417 0 65.0709 14.1538 921 57.1488 1153.54 539.288
418 0 67.2383 14.1586 952 56.8981 1152.94 538.426
419 0 69.1579 14.0982 975 57.1097 1152.92 536.993
420 0 70.375 14.6359 1030 56.4485 1152.71 536.298
421 0 74.4156 13.1021 975 58.239 1152.22 535.869
422 0 74.1419 14.189 1052 58.3042 1151.68 533.366
423 0 79.2499 13.7035 1086 58.4871 1151.54 534.162
424 0 81.2012 14.9751 1216 57.3026 1151.93 531.869
425 0 82.3817 13.3768 1102 59.4319 1151.35 531.346
426 0 84.1809 14.4213 1214 58.7026 1151.83 532.064
427 0 89.1746 14.1632 1263 58.3967 1152.03 529.032
428 0 92.23 13.5964 1254 59.1037 1152.38 526.272
429 1 47.1882 12.0793 570 59.1877 1150.94 549.109
430 0 47.1932 11.1669 527 60.1138 1151.6 549.761
431 0 49.2745 10.9184 538 60.5967 1151.39 548.712
432 0 49.2112 12.9239 636 58.7107 1151.32 547.698
433 0 52.2549 13.6064 711 57.3797 1150.67 545.979
434 0 54.1755 12.681 687 58.0742 1150.06 546.245
435 0 57.1685 13.7139 784 56.9643 1150.15 545.45
436 0 57.1527 11.7405 671 58.9195 1150.4 545.443
437 0 61.3044 12.8702 789 57.2332 1150.42 543.243
438 0 60.1092 12.2444 736 58.3954 1149.93 542.189
439 0 66.3807 13.6636 907 56.2437 1149.53 541.461
440 0 68.3075 13.937 952 55.9758 1149.48 541.018
441 0 69.2971 13.4782 934 56.5557 1149.38 541.377
442 0 72.2046 13.5171 976 56.7613 1149.99 538.03
443 0 75.2658 13.2464 997 56.6419 1149.77 538.804
444 0 77.4589 13.775 1067 56.1115 1149.51 538.841
445 0 79.1838 13.0077 1030 57.4709 1150.25 535.129
446 1 43.2007 10.6017 458 56.5546 1149.75 557.142
447 0 45.1682 11.7339 530 56.4245 1149.66 553.621
448 0 46.2901 12.184 564 56.7376 1150.86 552.165
449 0 48.2175 12.0288 580 57.1103 1151.02 550.945
450 0 49.1483 10.8244 532 57.5771 1150.56 550.276
451 0 53.1274 12.5547 667 56.0315 1149.84 549.597
452 0 55.3871 14.0827 780 54.409 1150.25 547.628
453 0 57.1474 12.284 702 55.6866 1149.91 547.66
454 0 58.1876 12.4081 722 55.5263 1150.09 547.712
455 0 59.184 12.8244 759 55.3755 1150.46 545.19
456 0 62.2552 12.4969 778 55.2275 1150.79 543.814
457 0 65.2347 13.0605 852 54.4495 1150.4 542.519
458 0 68.1608 12.6759 864 54.4931 1150.7 542.456
459 0 71.3469 14.5206 1036 53.0637 1150.81 540.594
460 0 72.1964 14.4744 1045 52.9856 1150.79 540.385
461 0 74.272 12.3061 914 55.5044 1150.4 540.279
462 1 39.1463 10.5757 414 53.901 1149.74 557.358
463 0 40.105 10.7717 432 53.963 1149.25 557.472
464 0 40.1041 10.4728 420 54.5429 1149.76 555.16
465 0 39.157 10.8027 423 55.9338 1149.23 554.567
466 0 43.0621 10.659 459 55.5556 1149.47 554.584
467 0 45.1257 13.54 611 53.7856 1149.31 552.228
468 0 46.262 12.213 565 54.915 1149.58 552.088
469 0 48.2726 12.7609 616 54.349 1149.87 551.938
470 0 49.1658 11.7358 577 55.5685 1150.12 550.558
471 0 50.3325 11.5631 582 55.8007 1149.75 551.522
472 0 51.1592 12.7641 653 54.9158 1149.82 549.821
473 0 55.1694 12.4525 687 55.0509 1149.94 548.141
474 0 57.1936 12.956 741 54.4103 1150.04 548.771
475 0 60.1506 13.1171 789 54.3232 1150.24 546.369
476 0 59.1832 12.7908 757 54.9075 1150.43 546.376
477 0 61.1478 13.7863 843 54.0166 1150.36 545.539
478 0 63.3491 12.7074 805 55.0037 1149.95 544.234
479 0 63.3048 12.811 811 55.0395 1150.38 544.393
480 0 67.1194 13.0961 879 54.4676 1150.59 541.799
481 0 69.1101 11.2719 779 55.6662 1150.89 541.546
482 0 73.2393 12.7527 934 53.9368 1150.75 541.054
483 0 72.3694 11.6348 842 55.7838 1150.71 538.317
484 0 75.1383 13.2822 998 54.1132 1150.82 536.007
485 0 80.2763 12.7435 1023 54.4956 1150.66 536.293
486 1 42.0383 10.7997 454 53.6542 1149.73 555.857
487 0 41.09 10.6595 438 54.3516 1150.01 554.571
488 0 44.2056 12.555 555 52.3333 1149.54 554.429
489 0 46.2321 12.8699 595 53.0387 1149.96 553.308
490 0 49.1978 12.6225 621 52.8454 1150.45 553.538
491 0 49.2786 11.851 584 53.6678 1150.75 553.625
492 0 50.1333 12.2274 613 54.124 1151.03 550.984
493 0 53.2003 13.0638 695 53.3237 1151.33 549.691
494 0 54.456 14.25 776 52.3363 1151.53 548.499
495 0 55.1819 13.1565 726 53.1667 1151.59 547.558
496 0 56.2278 13.6232 766 53.2807 1151.88 546.529
497 0 57.2173 13.6672 782 53.0396 1151.94 546.983
498 0 58.2649 13.4558 784 54.0638 1152.45 545.389
499 0 60.2536 11.8665 715 55.8126 1151.92 544.765
500 0 61.2099 12.0732 739 55.5832 1152.41 543.562
501 0 65.3 12.2205 798 54.52 1152.67 543.373
502 0 69.2024 12.3695 856 54.3563 1152.41 542.364
503 0 69.2629 13.9324 965 53.4705 1152.37 540.097
504 0 71.3873 15.0587 1075 52.6986 1152.33 539.417
505 0 73.3001 13.5607 994 54.168 1152.65 538.964
506 0 78.3122 13.2291 1036 54.3311 1152.4 536.008
507 0 78.3516 13.2352 1037 54.8496 1152.06 536.296
508 0 81.7773 13.9525 1141 53.6678 1152.91 534.955
509 1 40.1792 11.9962 482 55.0809 1152.7 553.869
510 0 40.4939 10.8905 441 55.9093 1152.54 554.184
511 0 46.2897 12.1409 562 54.0356 1152.47 552.169
512 0 48.2993 13.9339 673 52.9272 1152.4 550.581
513 0 50.2048 13.7238 689 53.3614 1152.42 551.89
514 0 48.2403 13.2669 640 55.7828 1151.62 548.936
515 0 51.186 13.1481 673 55.1322 1151.89 549.308
516 0 54.2245 12.854 697 54.198 1151.85 547.476
517 0 55.2262 15.1921 839 52.3909 1152.32 545.741
518 0 57.4757 13.5362 778 54.1427 1151.76 546.146
519 0 58.4478 13.2084 772 54.7604 1152.21 545.132
520 0 60.5313 13.5137 818 54.8765 1152.85 544.358
521 0 60.4037 13.6912 827 55.6445 1152.81 544.129
522 0 63.3009 13.6649 865 55.3665 1153.4 540.291
523 0 64.377 14.3529 924 54.71 1153.71 540.237
524 0 66.5272 13.2728 883 55.795 1153.6 538.432
525 0 68.4803 13.0548 894 55.7394 1153.2 539.519
526 0 69.5991 13.2042 919 56.3798 1153.86 537.509
527 0 71.4898 14.1279 1010 55.7901 1153.08 536.491
528 0 74.6261 13.5475 1011 56.5866 1153.57 535.221
529 0 75.5476 12.8396 970 56.5134 1153.28 535.388
530 0 75.2598 12.5964 948 57.4283 1153.84 533.085
531 0 78.3432 12.9175 1012 57.5692 1153.98 530.119
532 0 82.4694 15.2056 1254 55.6252 1154.09 527.306
533 0 83.5182 12.8475 1073 57.8602 1154.33 526.854
534 0 87.5475 14.495 1269 56.5098 1154.8 524.416
535 1 43.3195 10.3187 447 58.5839 1154.76 545.519
536 0 47.3015 12.4098 587 56.8279 1154.68 543.24
537 0 49.392 12.1882 602 55.8771 1154.41 545.204
538 0 50.279 12.0328 605 56.6116 1155 543.782
539 0 53.347 12.4843 666 56.5015 1154.68 542.875
540 0 52.296 12.7734 668 56.8204 1154.65 541.792
541 0 55.3103 14.4096 797 55.4329 1154.34 541.934
542 0 57.2547 12.523 717 56.8884 1154.37 540.576
543 0 58.1937 13.73 799 56.4668 1154.27 538.494
544 0 59.4391 11.8104 702 57.4544 1153.85 540.963
545 0 60.5641 12.7468 772 57.1218 1153.67 539.209
546 0 65.3199 13.166 860 56.2977 1153.75 536.238
547 0 63.4062 13.4056 850 56.42 1153.1 536.694
548 0 69.2418 12.7524 883 56.1597 1153.12 536.635
549 0 67.298 12.6304 850 57.6129 1153.32 532.688
550 0 71.226 12.5937 897 57.0112 1153.23 535.154
551 0 74.3505 14.6334 1088 55.5358 1153.24 531.673
552 0 76.3501 14.1716 1082 56.1701 1153.47 532.178
553 0 78.3842 13.2935 1042 57.2822 1153.65 530.178
554 0 82.3368 14.7322 1213 55.8417 1153.08 529.87
555 0 86.3981 15.0582 1301 55.6549 1154.22 527.363
556 0 89.3231 15.5391 1388 54.92 1153.48 526.635
557 1 45.1816 12.151 549 56.827 1152.9 547.565
558 0 48.2428 11.753 567 59.8589 1153.57 545.34
559 0 48.4121 10.7205 519 57.9249 1153.44 545.484
560 0 52.1414 12.3894 646 56.4969 1153.55 545.059
561 0 54.179 12.8648 697 55.9139 1153.16 545.197
562 0 57.2531 14.0953 807 55.8501 1152.9 543.195
563 0 60.2098 14.2668 859 55.3562 1152.73 543.196
564 0 60.2374 13.895 837 56.3035 1153 541.916
565 0 63.2771 13.9229 881 56.0182 1152.73 540.786
566 0 64.3281 14.224 915 55.8557 1152.27 539.732
567 0 65.2417 13.6876 893 56.6607 1152.36 539.227
568 0 69.285 13.8269 958 56.4676 1152.6 539.342
569 0 70.3606 14.0419 988 56.7682 1152.78 537.019
570 0 70.1862 13.1792 925 57.8432 1152.59 538.27
571 0 74.3506 14.7275 1095 56.4794 1152.38 536.554
572 0 72.392 13.2473 959 58.3233 1151.88 536.076
573 0 78.2047 15.1014 1181 56.6173 1152.01 534.487
574 0 80.3754 15.8506 1274 55.6923 1151.94 531.861
575 0 79.2778 14.3294 1136 57.7412 1151.46 531.748
576 0 83.302 14.1053 1175 58.7319 1151.4 531.718
577 0 86.2461 13.2296 1141 59.4908 1151.16 529.923
578 0 89.2531 13.9491 1245 58.7494 1150.88 531.214
579 0 91.2438 13.8968 1268 59.3486 1150.98 527.948
580 0 94.3134 14.9077 1406 58.1899 1151.07 526.63
581 0 98.2299 13.4379 1320 59.5402 1151.36 522.706
582 0 99.2004 13.9012 1379 58.9036 1151.38 524.345
583 0 104.176 13.1893 1374 59.6798 1150.91 523.126
584 0 110.085 14.2889 1573 57.8964 1151.53 520.078
585 1 60.1463 12.2202 735 58.4204 1150 544.705
586 0 61.1467 11.9222 729 59.1001 1149.57 543.392
587 0 61.1454 12.8873 788 58.1878 1149.92 542.033
588 0 64.1432 13.7817 884 57.0407 1150 542.282
589 0 67.0894 13.5491 909 57.3113 1149.98 539.429
590 0 71.0998 12.6301 898 57.8541 1149.83 538.712
591 0 72.0649 14.5425 1048 56.0029 1149.46 536.995
592 0 74.2176 13.6895 1016 56.6427 1150.02 536.782
593 0 79.1173 13.2209 1046 57.0803 1150.12 535.931
594 0 80.1075 14.3932 1153 55.6964 1150.03 534.603
595 1 160.317 13.5419 2171 57.0631 1149.92 498.284
596 0 159.256 13.2554 2111 57.117 1149.92 499.599
597 0 161.401 11.5799 1869 58.1857 1149.96 501.68
598 0 162.371 10.9749 1782 58.1841 1150.39 505.319
599 1 93.163 13.6857 1275 55.9976 1149.43 530.323
600 0 97.1562 14.9656 1454 54.6596 1149.81 526.783
601 0 101.195 13.973 1414 54.4031 1149.13 525.342
602 0 101.174 14.2823 1445 54.0228 1149.33 525.68
603 0 100.184 11.8982 1192 55.6024 1149.47 526.85
604 1 62.1023 11.9641 743 51.7618 1148.63 546.502
605 0 62.1597 11.6152 722 51.9654 1149.39 545.112
606 0 64.2096 12.8797 827 51.2503 1148.66 545.706
607 0 66.276 12.8252 850 52.5235 1149.74 545.305
608 0 70.2495 13.8933 976 52.3361 1149.49 543.63
609 0 72.211 11.9649 864 54.1875 1149.8 541.391
610 0 79.3141 12.709 1008 53.1528 1149.78 539.066
611 0 78.2039 11.112 869 55.4499 1149.7 539.328
612 0 80.3808 12.9508 1041 53.5322 1150.21 536.069
613 0 86.3176 12.2802 1060 54.8387 1150.32 533.673
614 0 86.2783 11.8918 1026 54.7505 1150.52 536.016
615 0 90.3132 13.6193 1230 52.6968 1150.67 532.224
616 1 45.3776 10.4016 472 53.6928 1149.63 554.606
617 0 50.2541 11.6209 584 51.6884 1149.28 553.293
618 0 51.1862 11.6633 597 52.0084 1149.57 551.665
619 0 50.216 12.1674 611 50.91 1149.88 551.961
620 0 54.2375 12.1503 659 50.4992 1149.72 550.346
621 0 55.2563 11.0395 610 52.3082 1149.7 550.279
622 0 57.2675 13.4806 772 50.0453 1150.21 549.434
623 0 55.129 11.3552 626 52.0799 1150.31 549.241
624 0 60.2647 13.4739 812 50.1897 1150.16 547.282
625 0 60.2647 13.5071 814 138.918 1149.16 547.217
626 0 64.2104 13.9541 896 48.8527 1151.2 544.468
627 0 64.2014 11.8066 758 51.6781 1150.99 544.084
628 0 65.149 12.4791 813 51.1685 1151.24 543.534
629 0 67.1479 12.6735 851 50.9589 1150.9 543.08
630 0 70.1055 13.765 965 49.5399 1150.93 542.924
631 0 72.2088 13.6964 989 50.1982 1150.69 538.772
632 0 74.1584 12.7025 942 50.5064 1150.37 541.598
633 0 76.1975 12.4151 946 50.7516 1150.92 538.913
634 0 79.1682 12.2398 969 50.5046 1151.05 538.158
635 0 78.2138 12.7088 994 50.6992 1151.5 536.03
636 0 85.267 13.7216 1170 49.3111 1151.84 533.582
637 0 89.2354 12.764 1139 49.777 1151.78 531.576
638 0 89.1598 12.7412 1136 49.8583 1153.1 531.029
639 0 98.1363 11.5452 1133 50.0477 1152.54 530.732
640 0 97.1939 12.4288 1208 49.9917 1153.02 525.918
641 0 100.209 11.6756 1170 50.5521 1153.26 525.439
642 0 103.24 12.4661 1287 50.2059 1153.08 521.996
643 0 108.186 13.791 1492 49.132 1153.76 520.191
644 0 111.315 12.5859 1401 49.3933 1153.33 522.335
645 1 59.2413 10.7695 638 49.453 1153.06 546.312
646 0 63.2411 12.7132 804 47.2351 1153.35 545.04
647 0 66.3358 12.5875 835 47.7293 1153.97 540.34
648 0 66.144 12.2611 811 47.8409 1154.23 541.372
649 0 69.2289 12.3503 855 47.3404 1153.48 541.373
650 0 72.2624 14.6411 1058 45.9537 1153.55 536.735
651 0 70.2648 11.6559 819 48.3712 1153.23 538.824
652 0 76.2608 13.6899 1044 46.9243 1153.33 534.398
653 0 81.282 12.6842 1031 47.4306 1153.58 534.763
654 0 83.3185 13.2504 1104 47.462 1154.08 531.739
655 0 85.3485 12.736 1087 47.598 1154.37 532.717
656 0 84.1508 11.7052 985 49.1157 1153.78 530.552
657 0 90.1968 12.0514 1087 48.3238 1154.21 529.81
658 0 89.2776 11.8507 1058 49.0492 1154.04 527.711
659 1 50.2281 10.4125 523 48.4589 1152.56 547.686
660 0 52.2144 9.42268 492 48.3618 1152.53 551.419
661 0 53.2013 10.9584 583 47.5832 1152.22 547.787
662 0 55.2255 11.4621 633 46.6904 1152.34 544.373
663 0 55.1058 12.1221 668 46.3638 1152.36 544.036
664 0 60.1668 11.9335 718 45.8273 1152.73 545.38
665 0 60.0993 12.0966 727 47.2724 1152.84 543.04
666 0 65.0586 9.83728 640 48.5844 1153.5 542.738
667 0 65.0961 10.8455 706 47.7705 1153.16 541.113
668 0 65.0711 12.6477 823 47.2041 1153.44 540.061
669 0 67.091 13.3103 893 46.9306 1153.83 538.421
670 0 65.1704 11.7078 763 48.4325 1154.9 538.746
671 0 71.3398 12.2512 874 46.9771 1154.65 535.222
672 0 75.2569 14.0186 1055 45.4275 1155.08 534.906
673 0 78.0604 9.54389 745 48.3946 1153.96 538.797
674 0 77.052 11.1483 859 48.2002 1154.2 533.993
675 0 78.0649 11.9132 930 48.3796 1154.2 531.453
676 0 81.053 12.7324 1032 48.0204 1154.8 532.004
677 1 46.0635 11.7012 539 47.0074 1154.05 548.655
678 0 46.038 11.0778 510 47.2765 1153.63 549.288
679 0 49.0443 11.0105 540 47.0167 1153.94 548.017
680 0 48.1764 11.4786 553 47.1899 1155.09 548.754
681 0 50.1756 11.3003 567 47.4233 1155.68 548.661
682 0 50.1888 13.1703 661 47.2239 1156.01 546.929
683 0 56.2553 12.1233 682 46.8724 1155.71 547.258
684 0 54.202 12.2689 665 48.1128 1156.21 544.162
685 0 57.2886 11.381 652 49.0261 1156.33 544.502
686 0 60.1877 13.3084 801 48.226 1155.45 543.427
687 0 60.1877 13.3416 803 139.461 1154.45 543.468
688 0 63.2609 13.1361 831 48.8123 1155.19 541.18
689 0 65.1533 12.2941 801 50.0599 1155.59 539.101
690 0 67.1737 12.8324 862 49.8074 1155.31 537.208
691 0 67.2424 12.2839 826 50.6065 1155.18 536.858
692 0 72.1275 13.7396 991 48.5843 1156.76 529.704
693 0 71.3764 13.1556 939 49.6432 1156.99 528.327
694 0 75.282 13.8014 1039 49.1578 1156.6 528.588
695 0 79.206 14.8726 1178 48.23 1156.62 526.512
696 0 80.2258 13.3124 1068 50.1451 1156.46 523.651
697 1 43.2199 10.4813 453 51.574 1156.45 542.735
698 0 46.2703 11.5841 536 50.6922 1156.22 541.901
699 0 47.3259 13.2063 625 50.008 1156.6 540.133
700 0 49.0355 13.4392 659 49.8938 1154.4 543.939
701 0 49.2578 12.4244 612 52.0229 1153.8 547.096
702 0 51.1853 12.5427 642 52.0062 1154 546.382
703 0 52.2476 12.7279 665 52.3699 1153.88 546.914
704 0 54.2388 12.5556 681 52.9677 1154.25 545.373
705 0 57.1208 14.5831 833 50.7431 1154 542.497
706 0 54.1025 12.31 666 52.7553 1154.84 535.551
707 0 56.1049 13.8847 779 51.8318 1154.85 533.73
708 0 57.1869 12.7652 730 52.6 1153.8 539.219
709 0 62.3558 13.8399 863 50.9629 1154.16 536.775
710 0 65.1468 14.6745 956 50.2416 1154.29 533.948
711 0 65.1432 14.2455 928 51.3782 1153.99 533.209
712 0 66.2055 12.869 852 53.493 1154.12 527.107
713 1 37.0868 10.5428 391 52.6778 1154.04 545.187
714 0 37.0211 10.5886 392 54.4592 1153.29 543.393
715 0 38.1219 12.1452 463 53.5205 1153.34 541.739
716 0 40.1182 10.6186 426 54.7183 1153.12 538.188
717 0 40.075 11.0293 442 55.3077 1152.98 538.647
718 0 41.0683 12.3453 507 54.1617 1152.52 538.219
719 0 42.0578 12.6017 530 54.9189 1152.89 538.264
720 0 44.0698 12.3214 543 54.4236 1151.92 541.263
721 0 46.0904 14.081 649 53.2527 1151.63 545.957
722 0 47.0423 12.3506 581 55.1945 1151.46 548.771
723 0 47.1293 14.1738 668 54.1108 1151.28 546.742
724 0 50.0767 13.1598 659 54.2534 1151.28 546.313
725 0 52.0416 14.0657 732 54.3156 1151.65 546.366
726 0 55.1203 13.788 760 52.879 1151.36 544.81
727 0 54.1692 14.1039 764 53.5903 1151.9 542.673
728 0 54.0869 13.5707 734 54.9237 1151.38 543.027
729 0 56.0896 13.6567 766 54.4582 1151.28 543.164
730 0 60.0535 15.0533 904 52.6106 1151.31 541.487
731 0 60.0614 15.0346 903 52.9668 1151.56 542.991
732 0 59.1244 15.3236 906 53.4592 1151.04 540.622
733 0 63.1561 14.5354 918 53.5566 1151.28 541.765
734 0 65.089 16.101 1048 52.4151 1150.88 541.507
735 0 64.2124 15.7291 1010 52.9743 1149.96 541.76
736 0 63.1524 15.4389 975 54.0574 1150.02 540.734
737 0 71.1102 17.8877 1272 51.1863 1150.47 538.893
738 0 71.2191 15.5155 1105 53.5774 1150.07 538.503
739 0 71.1337 14.9999 1067 54.4817 1149.82 538.156
740 0 74.2652 15.2292 1131 53.6941 1149.9 539.999
741 0 79.2651 15.1138 1198 54.7187 1150.34 536.485
742 0 83.1409 16.9351 1408 53.0888 1150.03 534.587
743 0 87.2117 16.4427 1434 53.3647 1150.16 532.918
744 0 85.1241 14.9899 1276 55.2312 1150.07 533.244
745 0 89.1644 16.3294 1456 54.5659 1149.81 528.811
746 0 96.1205 15.5742 1497 54.9185 1149.92 527.995
747 0 97.344 15.286 1488 54.8454 1149.75 529.919
748 0 98.2932 15.3826 1512 54.963 1149.4 528.059
749 0 95.2221 12.8122 1220 57.8434 1149.2 530.05
750 0 108.186 15.6675 1695 54.4319 1149.33 524.103
751 0 108.109 15.4289 1668 55.2806 1149.18 522.565
752 0 113.209 15.8645 1796 55.1509 1148.77 518.837
753 1 65.1031 13.4249 874 56.3066 1148.29 545.646
754 0 63.211 14.3804 909 56.3377 1148.88 543.53
755 0 67.0844 15.2345 1022 55.5528 1148.65 543.258
756 0 69.17 15.6137 1080 55.237 1149.54 541.966
757 0 69.1135 14.903 1030 56.5981 1149.29 539.66
758 0 68.4574 14.2132 973 57.6423 1149.55 539.158
759 0 70.2404 12.7989 899 58.2247 1149.56 541.545
760 0 77.2216 16.0836 1242 56.149 1149.06 535.746
761 0 80.1496 14.4355 1157 57.1755 1148.91 536.207
762 0 83.2865 14.4441 1203 57.4181 1149 534.702
763 0 85.1576 13.9271 1186 58.3963 1148.62 533.77
764 0 90.2151 14.9532 1349 57.1631 1148.64 530.529
765 0 92.2012 15.0432 1387 57.2148 1148.67 528.427
766 0 96.1871 14.0663 1353 57.7125 1148.36 530.211
767 1 48.0204 12.8903 619 57.3247 1148.34 549.145
768 0 51.1625 12.1573 622 56.7556 1148.66 550.423
769 0 51.0901 11.9984 613 57.0212 1148.92 549.804
770 0 54.1115 13.4537 728 56.1923 1148.63 548.412
771 0 56.1122 12.8671 722 56.5748 1148.41 547.827
772 0 59.2006 13.5978 805 55.2174 1148.63 547.303
773 0 60.1157 13.7235 825 55.2861 1148.53 546.274
774 0 62.1963 13.8593 862 55.0731 1148.46 543.283
775 0 63.1579 14.2817 902 55.2217 1148.26 543.754
776 0 66.181 14.1128 934 55.0803 1149.04 543.084
777 0 68.3817 14.2728 976 55.3361 1148.65 541.255
778 0 70.1512 14.4117 1011 54.9782 1149.52 540.37
779 0 73.1544 14.1482 1035 55.3565 1149.18 539.314
780 0 73.2123 13.6726 1001 56.5295 1149.32 539.008
781 0 76.2639 14.2269 1085 55.8581 1149.22 537.062
782 0 79.1426 13.8358 1095 56.5918 1150.01 535.114
783 1 39.2228 9.53526 374 58.6979 1150.09 552.979
784 0 44.0892 10.1839 449 56.608 1149.75 552.539
785 0 44.3017 11.2637 499 57.6533 1149.6 551.533
786 0 48.1973 13.0505 629 54.9571 1150.18 550.405
787 0 47.191 11.8667 560 57.5571 1150.31 548.791
788 0 48.0511 12.3827 595 57.5479 1150.32 548.896
789 0 50.0209 13.6143 681 55.8649 1150.53 548.432
790 0 50.0589 12.2855 615 57.6878 1150.88 547.634
791 0 52.0194 12.726 662 57.3051 1150.91 545.941
792 0 53.055 13.5143 717 56.7252 1151.53 545.399
793 0 57.0586 14.0908 804 55.4428 1151.16 545.169
794 0 57.1213 13.2525 757 57.2232 1151.6 543.878
795 0 61.0789 13.5726 829 56.5018 1151.42 542.878
796 0 63.0389 14.1817 894 56.198 1151.31 540.836
797 0 62.08 11.9362 741 58.8677 1151.42 540.947
798 0 65.1013 13.0105 847 57.4038 1151.93 538.174
799 0 66.0433 12.7038 839 58.112 1152.47 538.132
800 0 72.184 13.7427 992 55.7056 1152.29 536.915
801 0 72.149 12.6682 914 57.2057 1152.05 535.953
802 0 76.2053 11.5871 883 57.0113 1152.21 535.341
803 0 79.1443 13.6207 1078 55.3219 1152.48 531.404
804 0 81.1386 11.9056 966 56.3292 1152.63 531.601
805 0 86.0569 12.7009 1093 55.3349 1152.73 530.356
806 0 88.0728 13.9657 1230 54.0171 1153.1 529.185
807 0 90.2649 12.2528 1106 54.8861 1153.03 527.78
808 0 91.1294 13.9253 1269 53.4933 1152.6 527.983
809 0 99.206 13.9911 1388 53.1715 1153.07 524.859
810 0 97.4031 12.6895 1236 54.6521 1152.79 521.986
811 1 52.1509 12.7323 664 52.7711 1152.78 545.989
812 0 55.1064 12.7027 700 52.3971 1152.88 545.836
813 0 56.0815 13.4447 754 52.3037 1153.18 542.495
814 0 55.1043 13.3928 738 53.2141 1152.96 540.951
815 0 58.0971 12.5824 731 52.8919 1153.37 544.434
816 0 57.0854 11.6842 667 53.4183 1153.11 543.181
817 0 64.0598 12.9879 832 52.2284 1153.06 540.356
818 0 65.0888 15.041 979 50.3565 1153.38 539.804
819 0 66.0923 13.1483 869 51.8308 1153.14 539.554
820 0 71.1182 13.1471 935 51.9529 1153.12 536.136
821 0 73.1986 15.2462 1116 50.7491 1152.81 532.322
822 0 74.1344 15.364 1139 50.7375 1152.63 534.218
823 0 74.2444 12.5127 929 53.127 1152.27 536.656
824 1 37.0373 10.2869 381 51.2415 1151.23 553.391
825 0 40.0585 10.8092 433 53.1409 1151.05 554.596
826 0 43.0534 12.6819 546 51.2546 1151.27 553.606
827 0 43.2333 13.0224 563 50.1421 1152.33 554.263
828 0 46.272 12.8371 594 50.2306 1152.94 551.944
829 0 46.2648 12.342 571 50.718 1152.69 551.888
830 0 46.1771 13.4482 621 50.9114 1152.53 549.8
831 0 47.1358 12.2837 579 52.1675 1152.36 550.748
832 0 48.2873 10.9345 528 53.4413 1152.22 552.119
833 0 49.1849 11.9549 588 53.182 1151.75 550.265
834 0 56.191 12.2795 690 52.3464 1151.85 547.825
835 0 53.1968 11.9744 637 53.1805 1151.35 547.476
836 0 56.1947 12.6346 710 52.5563 1151.19 545.437
837 0 57.1843 13.4652 770 52.0961 1151.16 544.652
838 0 58.2981 14.4773 844 51.8886 1151.14 544.87
839 0 58.1564 11.9505 695 53.9568 1150.98 545.734
840 0 60.1851 14.1729 853 52.2696 1151.1 543.522
841 0 64.2739 14.1737 911 51.5928 1151.7 541.514
842 0 66.2211 13.0321 863 52.46 1151.31 540.811
843 0 65.2786 12.6841 828 53.4106 1151.42 541.755
844 0 69.2298 12.928 895 53.0972 1151.05 541.619
845 0 71.2321 12.8313 914 53.7265 1151.34 539.98
846 0 71.2129 13.3262 949 53.6733 1151.29 538.374
847 0 74.1819 12.375 918 54.4205 1150.71 538.72
848 0 78.2462 14.8633 1163 52.4944 1150.84 534.911
849 0 81.1719 14.2783 1159 53.0095 1150.99 535.791
850 0 82.2561 12.8987 1061 54.296 1150.75 535.235
851 0 83.2625 13.9919 1165 53.8094 1150.99 533.824
852 0 87.2837 13.0379 1138 54.4236 1150.88 531.129
853 0 92.2152 14.2384 1313 52.6771 1151.09 531.8
854 0 95.2833 15.6376 1490 52.0557 1151.34 526.807
855 0 97.1626 14.2442 1384 53.4408 1151.46 526.148
856 0 101.297 13.8504 1403 53.4989 1150.37 525.656
857 1 54.1114 12.4558 674 53.5697 1150.18 547.617
858 0 53.1614 12.3962 659 54.0531 1149.92 549.97
859 0 56.4007 13.8828 783 52.1839 1149.98 546.409
860 0 57.2696 13.288 761 52.908 1149.86 544.389
861 0 59.2316 13.2531 785 52.344 1150.14 545.493
862 0 58.2769 12.9897 757 53.72 1150.15 544.1
863 0 58.3242 12.8763 751 54.3156 1150.93 543.667
864 0 63.3402 13.8143 875 53.2263 1150.66 541.19
865 0 66.2046 13.9718 925 52.5232 1150.49 540.83
866 0 69.267 12.2425 848 54.7099 1150.24 539.7
867 0 68.2529 13.6991 935 53.5358 1149.7 537.252
868 0 70.3767 13.5983 957 52.9143 1150.13 535.96
869 0 74.1777 13.6294 1011 53.9693 1150.16 533.005
870 0 73.2919 12.7163 932 55.0311 1149.45 534.278
871 0 79.4204 13.6993 1088 53.7132 1148.78 531.546
872 0 81.4407 13.8014 1124 53.7144 1149.55 531.294
873 1 162.83 13.8918 2262 55.3864 1149.94 489.919
874 1 177.754 9.40063 1671 57.4608 1149.5 502.443
875 0 177.648 12.84 2281 55.8159 1149.44 488.211
876 0 179.658 13.6982 2461 55.4701 1149.93 486.149
877 1 53.1811 11.2634 599 54.8531 1149.31 548.244
878 0 52.1144 11.8969 620 55.6645 1149.47 547.14
879 0 52.1265 13.333 695 55.1065 1149.07 544.833
880 0 54.1209 12.7492 690 55.5739 1148.67 545.338
881 0 56.1251 13.5234 759 54.921 1148.69 545.92
882 0 60.1097 13.1094 788 53.9937 1148.64 545.358
883 0 61.1574 13.6697 836 54.3684 1148.96 543.835
884 0 61.0552 13.6434 833 55.0492 1148.8 543.382
885 0 64.1215 15.3303 983 53.7355 1148.8 540.593
886 0 66.1616 14.2379 942 55.6178 1149.48 539.818
887 0 70.1367 14.429 1012 57.4338 1149.48 538.663
888 0 74.32 14.2761 1061 59.0415 1150.27 539.709
889 0 76.2364 16.7374 1276 59.7249 1149.74 536.538
890 0 79.2973 14.3889 1141 77.7642 1150.31 533.916
891 0 77.2942 14.0243 1084 77.0221 1149.83 531.394
892 0 82.435 13.174 1086 54.8076 1149.72 532.32
893 0 86.2716 14.3732 1240 53.1024 1149.96 531.781
894 0 89.4095 13.701 1225 54.071 1150.67 530.86
895 1 50.0946 11.3585 569 56.29 1150.38 550.29
896 0 50.1767 13.014 653 55.4426 1150.48 547.384
897 0 55.2996 13.6891 757 54.2774 1151.02 544.842
898 0 53.058 14.2297 755 55.3589 1151.13 542.657
899 0 58.152 13.5851 790 54.3354 1150.62 546.882
900 0 59.2529 13.974 828 55.1377 1150.77 544.766
901 0 60.1821 13.7416 827 55.5599 1150.96 543.638
902 0 62.2126 12.1037 753 56.0757 1151.7 541.987
903 0 64.1477 13.656 876 54.3242 1151.69 541.707
904 0 64.141 13.3456 856 55.2874 1151.2 539.002
905 0 68.0929 12.997 885 55.3198 1152.08 538.233
906 0 72.1094 14.7554 1064 53.7716 1152.56 536.661
907 0 74.3518 14.8349 1103 54.5548 1152.8 535.717
908 0 78.3949 15.575 1221 53.4275 1152.62 533.344
909 0 78.1878 15.3093 1197 53.878 1152.3 534.38
910 0 77.2735 12.8634 994 56.7264 1152.75 535.382
911 0 86.2246 14.7638 1273 53.2129 1153.18 533.42
912 0 87.1655 13.9275 1214 55.3418 1153.41 530.117
913 0 91.3002 15.0274 1372 54.3477 1153.23 527.01
914 1 47.3893 11.9647 567 56.284 1153.1 549.288
915 0 48.0947 14.1388 680 54.4985 1154 547.406
916 0 50.2108 12.0293 604 56.2318 1153.9 549.108
917 0 52.2103 13.3307 696 55.5216 1153.76 545.41
918 0 54.1852 14.1182 765 54.2863 1154.07 546.503
919 0 56.2622 12.5128 704 55.9758 1153.93 546.781
920 0 58.3184 13.1519 767 55.8253 1154.03 539.322
921 0 59.2177 14.928 884 55.1719 1154.33 542.664
922 0 63.1102 13.0407 823 56.2138 1154.33 541.54
923 0 65.1375 13.7095 893 55.7861 1154.38 540.09
924 0 67.4183 13.8835 936 54.6442 1154.73 541.418
925 0 67.4195 13.6311 919 55.3449 1154.6 538.49
926 0 72.3058 14.3004 1034 54.5793 1153.9 538.648
927 0 74.3288 13.1308 976 56.1906 1154.85 534.98
928 0 78.5481 15.2136 1195 53.6126 1154.86 533.847
929 0 77.1568 13.9586 1077 55.5738 1154.67 533.819
930 0 79.3518 13.9001 1103 56.1523 1155.07 532.58
931 0 80.3484 13.5535 1089 56.9522 1154.5 528.306
932 0 84.3904 14.3855 1214 57.1598 1154.84 527.852
933 0 85.4126 13.4992 1153 58.3964 1154.64 526.453
934 0 92.5887 16.0171 1483 55.0823 1154.62 519.937
935 0 91.5682 14.7868 1354 57.5812 1154.03 520.579
936 0 91.5682 13.8148 1265 158.485 1153.04 521.914
937 1 46.3469 12.0181 557 60.1203 1153.52 545.65
938 0 48.185 13.0746 630 58.6381 1153.18 543.351
939 0 52.0928 12.5161 652 60.9555 1152.8 544.791
940 0 54.3188 14.3228 778 58.6157 1153.37 545.114
941 0 56.5221 13.5699 767 59.6271 1153.32 545.134
942 0 57.2457 13.6255 780 59.6615 1152.77 543.112
943 0 59.3448 13.3289 791 60.7585 1152.78 542.2
944 0 60.2489 13.6932 825 60.7079 1152.59 542.899
945 0 64.3903 14.4121 928 59.2511 1152.51 541.361
946 0 64.3123 12.8591 827 61.5998 1152.26 541.482
947 0 68.4127 14.3687 983 59.8362 1152.12 539.038
948 0 68.3601 14.5406 994 60.0825 1152.27 537.18
949 0 69.3297 13.1257 910 62.311 1152.09 535.958
950 0 74.4329 13.2737 988 61.3158 1151.42 534.066
951 0 75.3572 13.0843 986 61.9919 1151.41 533.981
952 0 75.2843 13.7745 1037 62.4253 1151.25 534.304
953 0 80.2239 13.9983 1123 62.024 1151.38 531.571
954 0 85.2751 14.2246 1213 61.3974 1151.39 528.381
955 0 86.3813 14.4939 1252 61.1837 1151.31 529.146
956 0 88.4637 14.4127 1275 62.2047 1151.39 528.027
957 0 94.3847 14.1866 1339 61.9268 1151.41 527.745
958 0 92.3327 14.4478 1334 61.6529 1151.61 527.314
959 0 96.4136 15.029 1449 61.4776 1151.33 524.33
960 0 102.511 16.5056 1692 58.4119 1151.77 523.214
961 0 104.298 15.705 1638 59.8706 1151.66 522.263
962 0 109.182 15.6803 1712 59.0047 1151.7 521.373
963 1 58.12 11.373 661 63.5885 1151.95 543.691
964 0 59.0739 11.6972 691 62.2735 1151.75 542.508
965 0 60.1249 13.4054 806 60.6936 1151.7 538.238
966 0 63.0791 12.952 817 60.7699 1151.96 532.969
967 0 67.0448 13.7669 923 59.2979 1151.98 529.638
968 0 69.361 14.0857 977 59.5343 1152.5 531.102
969 0 71.12 14.4826 1030 59.1893 1152.17 532.928
970 0 71.2506 12.5052 891 62.4927 1152.39 534.372
971 0 74.3781 12.9474 963 62.3167 1152.41 531.316
972 0 77.2693 13.2782 1026 61.5244 1152.31 530.641
973 0 79.358 14.1259 1121 61.1427 1152.43 527.018
974 0 81.1948 14.9148 1211 60.1412 1152.46 526.594
975 0 83.3043 13.8168 1151 61.7255 1151.88 527.093
976 0 85.3265 13.4659 1149 62.6675 1151.8 525.596
977 0 89.2396 14.4779 1292 61.5194 1151.27 523.928
978 0 92.3702 14.247 1316 61.5167 1151.22 523.635
979 0 95.3738 16.0421 1530 60.5608 1151.07 519.831
980 0 94.1635 13.158 1239 63.0339 1151 523.726
981 0 102.13 14.0996 1440 61.4611 1150.82 522.229
982 0 104.271 14.0883 1469 61.1838 1150.87 519.547
983 0 105.119 14.1839 1491 62.2461 1150.76 516.99
984 0 108.206 14.6573 1586 61.2497 1150.78 518.233
985 0 112.152 14.1237 1584 61.8851 1150.9 516.669
986 0 116.199 14.7591 1715 61.2822 1150.67 512.995
987 0 118.261 14.7555 1745 61.8991 1150.78 510.892
988 0 120.327 14.9011 1793 61.4919 1150.46 507.549
989 0 128.275 14.4767 1857 61.1222 1150.35 507.677
990 0 133.152 14.8252 1974 60.2508 1150.13 506.019
991 0 138.224 15.6051 2157 58.9527 1150.6 502.719
992 1 70.0802 12.1718 853 59.9379 1150.71 534.076
993 0 73.0683 12.7826 934 60.7077 1149.63 533.671
994 0 77.1049 13.099 1010 60.005 1149.88 533.375
995 0 80.162 13.9218 1116 59.0439 1149.98 532.446
996 0 81.1605 13.2207 1073 59.2414 1150.13 532.127
997 0 86.1897 13.9808 1205 58.79 1150.11 529.158
998 0 88.2039 13.5935 1199 59.1151 1150.28 526.523
999 0 91.2262 12.8253 1170 59.7513 1149.76 527.161
1000 0 93.2034 12.403 1156 60.1099 1150.54 523.615
1001 0 98.1573 12.918 1268 59.056 1150.2 521.744
1002 0 101.207 13.6255 1379 57.2951 1149.9 519.885
1003 1 56.1103 10.9784 616 57.1802 1149.29 541.753
1004 0 57.1484 10.7615 615 56.5675 1149.63 543.467
1005 0 58.0604 11.4192 663 56.282 1149.42 542.131
1006 0 61.1073 12.6826 775 54.8064 1150.07 540.133
1007 0 63.2507 12.2212 773 55.9263 1149.71 541.999
1008 0 65.1987 12.5769 820 55.0927 1149.76 540.955
1009 0 67.1275 12.4688 837 54.963 1149.93 539.513
1010 0 69.2002 12.1242 839 54.7533 1149.93 537.391
1011 0 70.1476 10.9911 771 56.3696 1150.42 537.477
1012 0 74.1327 13.0037 964 54.4927 1150.1 533.217
1013 0 77.2197 13.0148 1005 54.7672 1150.1 530.589
1014 0 79.1812 13.1218 1039 54.5024 1150.22 531.064
1015 0 83.3256 12.5172 1043 54.5686 1150.39 529.794
1016 1 42.0567 10.8425 456 53.204 1151.09 548.498
1017 0 45.0417 10.4792 472 52.589 1150.41 551.42
1018 0 47.1243 11.5439 544 53.8934 1150.33 547.647
1019 0 49.2364 10.6222 523 55.0344 1149.98 549.042
1020 0 50.2242 11.2296 564 55.1223 1150.19 546.353
1021 0 49.2839 10.9975 542 54.441 1150.16 548.563
1022 0 53.3826 12.7382 680 52.3338 1150.19 546.06
1023 0 51.3598 11.0008 565 55.2177 1149.83 546.147
1024 0 55.2976 12.5684 695 53.1914 1150.06 544.669
1025 0 57.317 11.3753 652 54.4202 1150.05 542.946
1026 0 59.3559 12.5514 745 52.8993 1150.17 542.588
1027 0 59.181 12.1492 719 53.6829 1150.12 540.654
1028 0 60.0209 12.0625 724 53.5539 1149.77 541.188
1029 0 60.0209 12.0625 724 141.215 1150.77 541.188
1030 0 66.1972 13.5957 900 52.6878 1150.42 534.772
1031 0 66.124 11.2062 741 54.556 1150.47 536.632
1032 0 68.0637 11.3276 771 54.6018 1150.41 533.652
1033 1 40.06 10.5592 423 53.8723 1150.25 549.52
1034 0 39.034 11.3235 442 53.2602 1150.25 548.004
1035 0 37.0104 8.72728 323 55.4923 1150.22 549.774
1036 0 40.0872 10.3524 415 54.0361 1150.59 549.265
1037 0 43.1206 12.3839 534 52.2491 1151.4 545.524
1038 0 44.1619 11.639 514 52.8969 1152.19 542.228
1039 0 46.2229 10.4494 483 53.9565 1152.02 541.89
1040 0 48.418 11.504 557 53.2029 1152.36 540.686
1041 0 48.1923 12.3671 596 52.6091 1152.49 541.584
1042 0 49.2048 12.9052 635 50.6724 1153.62 537.994
1043 0 50.0959 12.2365 613 51.4878 1153.71 535.726
1044 0 52.2641 12.169 636 51.9072 1153.63 535.778
1045 0 54.1714 15.9494 864 48.6065 1153.48 535.362
1046 0 55.2636 13.7523 760 50.1526 1154.07 539.854
1047 0 58.2227 11.9541 696 51.9124 1153.63 538.007
1048 0 59.188 13.0601 773 51.4256 1153.5 536.651
1049 0 62.3302 13.4445 838 50.8616 1154.31 535.449
1050 0 61.584 12.0648 743 52.8196 1153.84 534.754
1051 0 63.1318 12.9253 816 52.3824 1154.16 533.672
1052 0 62.2594 12.2712 764 54.0236 1154.69 532.38
1053 0 67.3731 14.7982 997 51.0822 1154.83 532.663
1054 0 66.3196 14.1135 936 52.5267 1154.6 529.641
1055 0 71.2364 12.5638 895 53.8268 1154.97 526.118
1056 1 149.447 13.0214 1946 54.3299 1155.07 494.91
1057 1 76.2517 12.4325 948 54.1181 1154.28 526.71
1058 0 79.2705 13.8639 1099 52.6515 1154.38 525.641
1059 0 79.2705 13.9522 1106 153.225 1154.37 525.643
1060 0 83.2144 12.3777 1030 54.5126 1154.08 524.015
1061 0 87.1741 13.3067 1160 53.8379 1154.47 521.228
1062 1 50.296 9.38444 472 53.9534 1153.67 543.059
1063 0 50.1811 10.6813 536 53.5578 1154.18 539.798
1064 0 49.1637 10.6786 525 55.1981 1154.57 536.973
1065 0 52.1336 11.3555 592 54.0507 1154.39 537.99
1066 0 56.2397 11.6821 657 55.6225 1155.16 536.91
1067 0 59.3318 12.3206 731 55.5212 1155.44 535.847
1068 0 61.5309 13.3591 822 54.3771 1154.9 533.299
1069 0 63.2289 13.7279 868 54.1889 1154.94 532.708
1070 0 63.3947 12.8244 813 54.9729 1154.61 533.736
1071 0 65.4843 13.3314 873 54.583 1154.11 532.524
1072 0 68.324 13.7726 941 54.1955 1154.53 530.022
1073 0 69.4159 13.0662 907 55.1996 1154.4 529.235
1074 0 74.306 13.8481 1029 53.7114 1154.41 527.636
1075 0 75.1926 13.4322 1010 54.1703 1153.85 529.339
1076 0 75.2861 13.3491 1005 55.0318 1153.62 526.953
1077 0 80.3364 13.8293 1111 54.5094 1154.19 525.588
1078 0 80.262 12.97 1041 56.2277 1153.9 523.98
1079 0 82.1798 14.2979 1175 54.7974 1153.36 521.163
1080 0 87.3016 13.2414 1156 55.5173 1153.32 521.973
1081 0 91.2502 13.9287 1271 54.7758 1153.1 519.721
1082 0 93.146 13.8922 1294 55.1105 1152.61 521.396
1083 0 96.2348 13.7165 1320 55.778 1152.4 520.435
1084 0 97.1572 14.0803 1368 56.0124 1152.77 519.599
1085 0 101.308 15.2406 1544 54.921 1152.63 516.684
1086 1 57.0314 10.5556 602 57.6694 1152.49 541.106
1087 0 57.0919 10.8947 622 58.344 1152.35 540.399
1088 0 60.0421 11.1588 670 57.0761 1152.82 540.761
1089 0 59.0731 11.2742 666 57.503 1152.68 541.497
1090 0 64.2583 11.8117 759 56.975 1151.01 539.249
1091 0 64.1975 12.7575 819 56.5592 1150.98 538.785
1092 0 64.1297 11.1805 717 59.2789 1151.13 540.162
1093 0 68.2655 12.8469 877 57.3307 1150.77 536.779
1094 0 68.2359 12.2076 833 58.4334 1150 537.078
1095 0 72.1928 12.9376 934 56.969 1150.38 536.966
1096 0 75.2286 12.9339 973 57.4491 1150.2 534.197
1097 0 76.2159 13.3699 1019 56.9843 1150.75 532.936
1098 0 77.1313 12.8871 994 57.3883 1150.73 532.92
1099 1 151.312 14.6254 2213 56.6936 1151.88 496.136
1100 1 80.1978 13.0427 1046 57.0966 1151.12 529.195
1101 0 85.2093 13.0972 1116 56.4185 1151.38 528.68
1102 0 87.1723 12.676 1105 57.0516 1150.86 524.533
1103 1 44.0809 7.78115 343 59.0146 1149.76 548.195
1104 0 50.0165 9.39691 470 57.366 1150.13 547.351
1105 0 50.0345 10.133 507 57.0809 1150.25 547.333
1106 0 52.0531 10.1819 530 55.0566 1150.17 545.168
1107 0 55.1499 11.224 619 55.7221 1149.56 546.084
1108 0 56.2166 12.7365 716 54.6522 1149.86 546.324
1109 0 56.1829 11.4626 644 56.6025 1149.95 546.658
1110 0 59.2717 11.8944 705 55.5716 1149.8 545.929
1111 0 61.202 12.9734 794 54.4307 1150.19 544.011
1112 0 61.2804 12.3367 756 55.09 1150.9 545.224
1113 0 64.25 12.2335 786 54.8982 1150.3 542.751
1114 0 67.2689 12.5021 841 54.1998 1150.62 543.3
1115 0 67.2745 13.0807 880 53.7625 1150.54 541.423
1116 0 69.2389 11.8575 821 54.3069 1149.6 542.224
1117 0 72.2075 12.7826 923 53.7151 1149.9 539.188
1118 0 75.2999 12.6826 955 53.9832 1149.85 539.296
1119 0 78.2445 11.5408 903 54.7464 1149.78 538.822
1120 1 40.1144 9.17376 368 54.7283 1148.24 557.136
1121 0 41.0443 9.20955 378 55.9392 1148.85 556.198
1122 0 44.0896 11.7034 516 52.7035 1149.16 554.783
1123 0 47.0636 10.9639 516 53.436 1148.36 553.252
1124 0 47.0568 11.2842 531 54.162 1149.07 551.921
1125 0 47.0651 10.7723 507 54.8264 1149.28 552.822
1126 0 48.2694 11.3944 550 52.7964 1150.43 553.669
1127 0 51.2756 10.6288 545 53.2844 1149.84 553.338
1128 0 50.2157 12.3866 622 52.7749 1150.26 550.476
1129 0 51.1633 10.8085 553 54.3309 1149.89 552.181
1130 0 54.1896 10.4633 567 54.4198 1149.9 549.808
1131 0 54.1909 11.5702 627 54.2344 1149.58 548.957
1132 0 57.239 12.2469 701 53.1726 1150.06 547.932
1133 0 57.1716 11.9465 683 54.1391 1149.84 547.627
1134 0 60.0927 12.5806 756 53.2275 1149.84 547.265
1135 0 61.2004 12.3365 755 53.453 1149.66 547.033
1136 0 63.1401 12.2109 771 53.8573 1149.74 545.093
1137 0 63.3301 12.6006 798 53.6992 1150.09 544.699
1138 0 66.1891 12.5247 829 54.3172 1150.89 542.607
1139 0 66.1614 11.5626 765 55.4196 1150.93 543.162
1140 0 68.182 12.98 885 54.7887 1151.41 539.299
1141 0 72.1701 12.9417 934 55.8587 1151.19 539.42
1142 0 74.2767 12.8573 955 56.5204 1151.41 537.764
1143 0 76.1813 13.1528 1002 56.0709 1151.29 538.801
1144 0 74.2446 12.7147 944 57.1674 1151.29 537.228
1145 1 39.1156 9.86819 386 57.5803 1150.17 555.526
1146 0 41.113 10.1185 416 57.625 1149.75 555.44
1147 0 41.113 10.1428 417 147.446 1148.76 555.396
1148 0 43.0416 12.0116 517 55.942 1150.26 552.081
1149 0 44.029 12.0148 529 56.7429 1150.29 551.754
1150 0 45.0323 10.9033 491 57.6273 1150.67 553.071
1151 0 46.1253 12.6612 584 56.2568 1151.29 551.267
1152 0 50.0459 13.3278 667 54.4423 1151.55 551.502
1153 0 49.1346 13.4935 663 55.3318 1152.08 549.517
1154 0 52.0896 12.8433 669 55.719 1152.15 549.152
1155 0 51.113 12.3061 629 56.8044 1152.61 547.612
1156 0 56.1772 13.4574 756 54.6177 1152.33 547.955
1157 0 54.164 13.2191 716 56.271 1153.32 545.286
1158 0 55.1258 12.8615 709 56.9351 1153.42 545.1
1159 0 59.2422 12.4742 739 56.4005 1154.03 545.482
1160 0 61.2086 13.1027 802 56.6958 1154.32 541.908
1161 0 64.2415 12.9823 834 56.7698 1154.52 542.857
1162 0 65.2321 14.3334 935 55.6909 1154.83 540.329
1163 0 66.1407 13.0026 860 57.7105 1155.19 539.131
1164 0 67.1882 13.4994 907 57.2668 1155.02 538.331
1165 0 71.298 14.3342 1022 55.908 1155.18 537.846
1166 0 72.1426 14.2911 1031 56.5635 1152.26 537.881
1167 0 76.2919 14.6936 1121 55.4023 1153.63 537.277
1168 0 76.1689 12.6955 967 58.5605 1154.4 535.296
1169 1 42.0536 11.2713 474 57.7869 1153.81 551.918
1170 0 44.057 10.8723 479 58.1858 1153.88 552.835
1171 0 42.0266 10.7789 453 58.3311 1154.43 552.779
1172 0 46.1226 11.1008 512 58.4922 1154.71 550.209
1173 0 48.0751 14.3109 688 55.3125 1155 547.619
1174 0 49.1069 12.8292 630 57.0175 1155.68 549.992
1175 0 48.1065 12.9089 621 57.19 1155.51 548.572
1176 0 52.1257 13.3715 697 56.6184 1155.73 546.818
1177 0 51.1426 13.1984 675 57.4756 1155.75 546.438
1178 0 54.0733 14.166 766 56.329 1155.71 546.589
1179 0 54.1289 13.0799 708 58.3955 1155.81 545.292
1180 0 55.2199 12.5317 692 58.9277 1155.5 544.392
1181 0 56.1404 13.6444 766 57.846 1154.51 543.744
1182 0 58.1743 12.9095 751 58.2716 1154.9 545.144
1183 0 60.088 12.9477 778 58.1941 1154.66 543.774
1184 0 64.0819 13.4203 860 57.4767 1154.81 541.341
1185 0 64.1792 12.8702 826 58.8632 1154.61 540.286
1186 0 66.2048 14.4098 954 57.2914 1155.22 538.398
1187 0 67.1527 13.7597 924 57.9827 1154.59 539.532
1188 0 69.2134 12.9744 898 58.7316 1155.21 539.399
1189 0 72.1875 14.2546 1029 57.4587 1155.37 537.831
1190 0 75.1183 13.4987 1014 58.5651 1155.43 535.1
1191 0 78.1383 13.5785 1061 58.9491 1155.26 531.746
1192 0 81.3563 13.1889 1073 58.2488 1155.34 531.258
1193 0 82.1266 12.8582 1056 58.089 1155.28 530.976
1194 1 41.0523 10.109 415 58.7253 1155.53 551.345
1195 0 43.2351 10.7552 465 58.9699 1155.48 549.583
1196 0 45.1447 11.9615 540 57.6278 1152.82 549.437
1197 0 44.1606 11.345 501 58.1736 1153.48 550.128
1198 0 46.2689 11.1306 515 58.9864 1153.56 548.353
1199 0 48.2688 11.8917 574 57.7735 1154.29 548.817
1200 0 50.1456 12.5235 628 57.6672 1154.15 546.694
1201 0 54.1755 13.0133 705 56.356 1153.89 546.614
1202 0 54.1874 12.0508 653 58.2802 1154.15 546.997
1203 0 56.203 12.01 675 57.5274 1153.53 547.042
1204 0 58.1548 13.7048 797 55.9122 1153.37 544.583
1205 0 58.1408 12.2633 713 58.2328 1153.03 544.565
1206 0 60.1844 12.4118 747 57.6841 1153.52 544.296
1207 0 63.1266 13.1323 829 56.9083 1153.45 541.35
1208 0 64.3026 12.5967 810 56.9753 1153.37 540.76
1209 0 67.2149 12.0955 813 57.0172 1153.24 541.062
1210 0 70.2258 12.6734 890 55.8933 1151.77 539.639
1211 0 73.1552 11.4414 837 56.9379 1152.28 538.6
1212 0 76.1773 11.7095 892 56.3117 1151.62 538.15
1213 0 79.1841 13.4497 1065 54.7681 1151.97 534.563
1214 0 83.2331 12.6392 1052 55.0998 1152.25 534.994
1215 0 84.2161 13.6553 1150 54.4765 1151.93 533.058
1216 0 87.2111 12.6245 1101 55.6058 1151.46 533.525
1217 1 46.0446 10.6201 489 55.8405 1151.19 551.781
1218 0 50.1889 10.4804 526 55.8479 1150.72 551.871
1219 0 50.0862 12.0991 606 54.9488 1150.7 548.148
1220 0 53.2339 11.3274 603 55.3018 1151.72 550.567
1221 0 55.2272 11.9687 661 54.649 1151.87 549.387
1222 0 56.1334 12.2031 685 54.7693 1151.7 546.981
1223 0 57.2144 12.3221 705 54.6355 1150.06 546.348
1224 0 60.1951 12.9412 779 53.7895 1151.05 546.57
1225 0 61.1007 13.6332 833 53.6146 1149.34 545.782
1226 0 61.0897 12.6371 772 55.2111 1149.9 545.021
1227 0 66.2316 13.4528 891 53.7946 1151.3 542.06
1228 0 67.1463 12.9568 870 55.1023 1151.52 540.455
1229 0 67.197 13.7953 927 54.5566 1150.58 539.666
1230 0 69.3134 13.8934 963 54.08 1150.9 538.932
1231 0 72.245 14.1878 1025 54.0868 1150.85 538.156
1232 0 75.1864 12.7417 958 54.548 1150.36 536.829
1233 0 76.185 15.318 1167 52.9297 1150.66 535.076
1234 0 80.2703 13.9279 1118 53.8569 1148.11 536.667
1235 0 81.1833 13.5126 1097 55.2115 1148.46 535.917
1236 0 82.3201 13.3503 1099 56.2129 1149.84 533.988
1237 1 43.11 10.4616 451 54.7162 1149.45 556.118
1238 0 44.2317 10.1963 451 53.5721 1150.58 553.253
1239 0 46.2377 10.9867 508 55.0039 1149.69 553.898
1240 0 46.4357 12.1243 563 55.0231 1150.02 553.202
1241 0 49.4319 12.0368 595 55.2151 1149.28 550.504
1242 0 48.4024 12.7266 616 54.6851 1149.67 549.239
1243 0 50.5779 12.2583 620 55.0597 1150.83 549.484
1244 0 53.4504 12.2543 655 55.1817 1150.55 548.766
1245 0 55.2638 12.2142 675 55.6696 1150.36 551.65
1246 0 56.2951 13.0917 737 55.4383 1149.69 548.943
1247 0 58.3584 13.2971 776 55.5322 1150.35 547.048
1248 0 58.2656 11.4304 666 58.8934 1149.81 547.785
1249 0 61.2656 12.7478 781 57.7119 1150.2 546.37
1250 0 62.339 12.9614 808 57.7748 1150.05 544.52
1251 0 64.17 13.5421 869 56.7664 1149.04 544.07
1252 0 65.226 13.3842 873 57.0504 1149.94 543.945
1253 0 67.262 13.44 904 57.1361 1148.4 543.088
1254 0 68.3433 13.1981 902 57.9712 1149.31 542.319
1255 0 70.3806 13.7822 970 58.4021 1149.82 540.297
1256 0 73.245 14.0487 1029 57.6239 1150.26 538.939
1257 0 75.2078 13.4959 1015 58.199 1150.93 539.941
1258 0 74.1775 12.7128 943 60.1707 1151.65 537.844
1259 0 79.196 14.5841 1155 57.7723 1150.61 535.618
1260 0 82.2103 13.9155 1144 58.3934 1151.1 534.974
1261 0 82.2689 13.9542 1148 58.8502 1151.2 533.013
1262 0 84.4483 13.2862 1122 59.8717 1150.8 534.121
1263 0 87.4692 13.6848 1197 59.5013 1151.29 532.046
1264 0 89.3235 13.9493 1246 59.6164 1151.81 530.796
1265 0 94.3953 14.3227 1352 58.5577 1152.03 528.528
1266 0 95.3369 14.1183 1346 59.0795 1151.98 527.554
1267 0 97.3276 13.2337 1288 59.7725 1152.28 526.096
1268 0 101.441 13.6829 1388 58.9892 1152.3 524.827
1269 0 106.489 13.8042 1470 58.5313 1152.61 522.594
1270 0 109.239 13.887 1517 58.6177 1152.84 520.665
1271 0 114.195 13.6696 1561 58.7514 1153.38 516.857
1272 1 62.0366 12.6538 785 57.0624 1153.4 544.423
1273 0 61.0473 13.5305 826 57.3475 1153.83 543.644
1274 0 64.1509 13.3124 854 56.7646 1153.74 542.582
1275 0 64.2298 13.3116 855 57.3263 1153.83 541.712
1276 0 68.1892 13.0226 888 57.3671 1153.71 541.652
1277 0 71.3058 13.1546 938 57.1023 1154.35 538.932
1278 0 72.2257 12.7517 921 57.544 1154.5 537.687
1279 0 74.1658 13.5507 1005 56.8975 1155.13 537.253
1280 0 76.2848 12.4664 951 58.2334 1155.32 537.228
1281 0 80.3883 13.2606 1066 57.1782 1155.56 536.404
1282 0 81.3659 13.9002 1131 57.4129 1155.61 532.326
1283 0 84.2374 13.4501 1133 57.7255 1155.98 530.846
1284 0 88.3655 13.4894 1192 57.1669 1156.37 530.574
1285 0 91.2579 13.018 1188 57.0345 1156.56 530.471
1286 0 91.2192 13.5169 1233 57.5272 1154.42 527.586
1287 0 94.3553 13.481 1272 57.2909 1155.02 525.107
1288 0 97.339 13.3657 1301 57.1706 1155.2 526.124
1289 0 100.328 14.1437 1419 57.0726 1155.72 521.564
1290 0 105.443 13.5144 1425 56.9761 1155.64 522.438
1291 0 108.474 14.4458 1567 56.2687 1155.65 520.131
1292 0 111.412 13.3199 1484 57.4009 1155.45 520.586
1293 0 117.544 14.5478 1710 55.8924 1155.79 513.963
1294 0 119.402 13.6011 1624 56.7044 1155.47 514.621
1295 1 64.2749 11.5286 741 58.1336 1154.67 539.852
1296 0 66.2207 11.1446 738 58.2344 1155 541.295
1297 0 70.1527 12.6866 890 57.2607 1155.2 538.746
1298 0 70.1227 13.1769 924 57.3972 1155.71 537.159
1299 0 72.2383 12.0988 874 58.5824 1155.78 536.309
1300 0 76.0819 12.9991 989 57.4439 1155.81 533.975
1301 0 76.3744 13.1589 1005 58.0488 1156.49 535.071
1302 0 78.2134 13.1307 1027 57.9932 1156.09 535.403
1303 0 82.3358 12.7284 1048 58.9819 1156.43 533.04
1304 0 84.2378 14.186 1195 57.1398 1156.55 532.728
1305 0 86.3585 14.2777 1233 57.7056 1156.34 528.122
1306 0 91.3497 13.3443 1219 58.5078 1155.77 529.066
1307 0 92.2846 14.1952 1310 58.0725 1155.76 527.585
1308 0 94.2641 13.4834 1271 59.284 1155.23 525.448
1309 0 97.2709 13.5498 1318 59.3414 1155.23 523.716
1310 0 99.3032 12.8898 1280 59.8633 1155.36 524.702
1311 1 49.1603 11.6964 575 59.9044 1154.33 546.605
1312 0 51.1279 10.5422 539 60.5213 1153.94 546.729
1313 0 54.1305 11.1582 604 60.7152 1153.96 545.199
1314 0 56.1474 11.2383 631 60.3011 1153.53 546.262
1315 0 56.1091 12.3509 693 59.531 1153.58 543.18
1316 0 59.1666 11.7465 695 60.164 1153.23 546.045
1317 0 63.1058 13.3585 843 57.8707 1153.21 543.42
1318 0 65.1198 13.2678 864 57.9491 1153.02 542.199
1319 0 66.128 11.8256 782 59.0716 1153.41 541.202
1320 0 68.1002 12.3641 842 58.4691 1152.59 539.609
1321 0 69.2126 12.4544 862 57.7599 1152.29 539.258
1322 0 73.1243 14.154 1035 56.2628 1152.57 534.095
1323 0 75.1821 12.5562 944 57.4544 1152.26 535.485
1324 0 76.1881 12.7054 968 57.031 1152.51 533.84
1325 0 81.1023 13.8714 1125 55.408 1152.54 532.672
1326 0 83.2604 12.515 1042 56.4789 1152.19 530.984
1327 0 85.2335 14.5013 1236 54.7775 1152.01 530.774
1328 0 89.124 13.2063 1177 55.6483 1152.29 530.23
1329 0 89.2044 13.4186 1197 56.3283 1152.37 526.408
1330 0 93.2363 13.4497 1254 55.7265 1152.73 526.001
1331 0 94.3221 12.8708 1214 56.2652 1152.5 524.437
1332 0 97.1831 12.7697 1241 55.2877 1152.48 523.537
1333 0 100.248 12.7483 1278 56.5344 1152.13 523.268
1334 1 50.3309 8.76201 441 56.9229 1153.07 547.107
1335 0 50.1116 8.76044 439 57.8861 1152.52 546.859
1336 0 56.0744 12.0019 673 54.1471 1152.36 545.467
1337 0 58.0652 11.3838 661 54.643 1151.76 544.287
1338 0 57.141 11.0954 634 55.0347 1152.26 543.748
1339 0 60.1376 11.7896 709 54.1241 1152.03 541.425
1340 0 64.1548 10.4591 671 54.7154 1151.97 542.317
1341 0 67.0425 11.6493 781 53.1959 1152.08 541.689
1342 0 66.073 11.9111 787 53.7078 1152.9 539.468
1343 0 71.1122 12.2483 871 53.1206 1152.8 539.437
1344 0 72.0678 11.7389 846 53.3322 1152.44 539.807
1345 0 73.1385 13.5086 988 54.3107 1152.15 537.653
1346 0 75.1006 12.2369 919 55.2971 1151.83 541.476
1347 0 78.1487 13.1288 1026 54.77 1152.33 539.039
1348 0 80.1021 12.9709 1039 55.5505 1152.4 537.585
1349 0 81.0767 12.6424 1025 56.4771 1152.72 534.764
1350 0 83.1672 12.9618 1078 55.962 1151.42 533.531
1351 0 87.1775 12.595 1098 55.8078 1151.25 532.76
1352 0 91.2966 12.9359 1181 55.8196 1151.52 532.213
1353 0 92.1916 12.973 1196 56.3436 1151.94 529.263
1354 0 95.1055 13.3536 1270 55.4394 1151.04 530.798
1355 1 51.1571 11.4745 587 55.7223 1151.26 552.279
1356 0 52.1983 10.9199 570 56.3965 1151.23 553.068
1357 0 54.2617 11.7763 639 56.2128 1150.28 549.192
1358 0 54.2688 12.5486 681 55.3568 1150.29 548.264
1359 0 57.2058 11.38 651 56.5991 1150.26 549.992
1360 0 58.1427 11.9705 696 56.342 1150.38 549.961
1361 0 61.1435 11.9555 731 56.7921 1150.2 548.668
1362 0 60.1222 11.7261 705 57.9901 1150.59 548.082
1363 0 61.0728 11.953 730 57.9603 1150.08 546.818
1364 0 65.1286 12.9129 841 56.761 1150.52 545.301
1365 0 65.0969 12.4891 813 57.952 1150.13 545.829
1366 0 68.2156 13.3107 908 56.478 1150.09 543.504
1367 0 71.0431 13.161 935 56.5519 1149.83 544.624
1368 0 72.1383 12.7117 917 57.843 1149.54 542.612
1369 0 73.0709 13.6716 999 57.1291 1149.12 541.919
1370 0 78.1467 12.5149 978 57.7403 1149.31 541.543
1371 0 79.2555 13.5637 1075 56.5907 1149.32 540.186
1372 0 82.1843 13.129 1079 57.228 1148.97 540.031
1373 0 83.1258 12.8721 1070 57.2645 1149.41 538.81
1374 0 84.2824 12.5174 1055 57.6692 1150.38 535.075
1375 1 44.1294 9.90269 437 58.3158 1149.71 557.009
1376 0 45.1261 12.1216 547 56.9324 1149.39 555.519
1377 0 46.0928 11.2816 520 57.8385 1149.73 555.223
1378 0 47.1876 11.4013 538 57.9498 1150.86 555.44
1379 0 49.2343 12.9178 636 55.6101 1150.21 555.044
1380 0 48.0627 12.6918 610 56.5213 1149.56 554.539
1381 0 51.0639 13.4146 685 55.2978 1149.68 553.02
1382 0 51.0639 13.4341 686 139.366 1149.69 553.015
1383 0 54.2372 11.9291 647 53.9243 1149.73 552.964
1384 0 54.1104 12.6224 683 57.5198 1149.61 551.671
1385 0 56.136 13.7523 772 55.8666 1149.91 549.308
1386 0 59.2403 12.981 769 56.8023 1150.06 549.376
1387 0 59.0875 13.8777 820 56.5866 1150.24 547.048
1388 0 60.1111 13.0924 787 57.6468 1150.56 545.85
1389 0 60.1111 13.0924 787 154.203 1151.56 545.85
1390 0 66.3344 14.1405 938 56.5362 1151.89 545.629
1391 0 67.3856 13.5341 912 57.4375 1152 544.002
1392 0 68.2563 14.2111 970 57.1289 1152.21 541.113
1393 0 70.4327 14.1979 1000 56.849 1151.88 539.218
1394 0 75.5638 15.8145 1195 54.3674 1152.02 536.408
1395 0 75.366 13.8789 1046 57.5985 1152.16 536.816
1396 0 78.4959 14.1664 1112 56.732 1152.23 536.281
1397 1 43.4912 11.3816 495 58.0626 1151.85 553.135
1398 0 43.2842 10.4426 452 59.4823 1152.15 553.688
1399 0 46.3318 11.4176 529 57.4972 1152.56 550.089
1400 0 47.3673 13.0048 616 55.1299 1152.86 549.526
1401 0 45.0296 12.5695 566 55.8869 1153.09 545.965
1402 0 47.427 12.883 611 55.4321 1153.04 548.953
1403 0 48.1229 13.0707 629 55.744 1153.41 547.917
1404 0 49.1741 14.0521 691 54.5615 1153.51 546.702
1405 0 54.1615 13.1089 710 54.4042 1153.7 546.327
1406 0 54.0482 13.451 727 54.6768 1154.47 545.739
1407 0 54.0693 13.3162 720 54.2597 1154.6 544.906
1408 0 55.0868 13.8146 761 54.4823 1155.47 542.087
1409 0 57.0572 13.3901 764 54.7408 1155.71 543.607
1410 0 61.0918 14.0281 857 53.9603 1155.29 542.322
1411 0 61.1343 13.9202 851 53.9036 1155.9 541.296
1412 0 62.0454 14.2315 883 54.1608 1156 538.865
1413 0 65.0481 14.8967 969 53.0918 1155.71 538.666
1414 0 66.1496 14.0439 929 53.6695 1155.63 540.33
1415 0 68.1616 14.495 988 53.2045 1156.46 538.419
1416 0 69.1131 14.2231 983 53.824 1156.36 534.496
1417 0 71.079 13.8578 985 53.9675 1156.95 534.419
1418 0 76.0856 14.6808 1117 52.2346 1156.32 536.586
1419 0 77.1284 14.7676 1139 52.1589 1157.18 534.378
1420 0 79.1286 14.0531 1112 52.7221 1156.35 530.861
1421 0 83.1145 14.089 1171 52.6584 1156.81 530.691
1422 0 86.0638 13.6759 1177 53.3212 1156.47 526.59
1423 1 43.0362 12.1293 522 51.6169 1155.69 549.904
1424 0 43.0345 11.8045 508 51.7717 1155.46 550.455
1425 0 44.1717 12.3156 544 52.2702 1155.55 546.518
1426 0 46.0568 11.7681 542 52.297 1155.49 547.244
1427 0 49.0679 13.1043 643 50.5163 1155.67 546.844
1428 0 50.0364 12.4509 623 50.9181 1156.02 546.785
1429 0 54.1004 12.7726 691 49.9566 1156.23 545.004
1430 0 54.0422 12.5828 680 49.9838 1155.71 544.915
1431 0 57.071 13.2642 757 48.9828 1155.92 543.374
1432 0 58.1751 12.7374 741 49.2254 1155.22 543.557
1433 0 59.0348 14.6862 867 47.8351 1155.46 544.306
1434 0 58.0728 13.397 778 50.5141 1155.54 541.545
1435 0 62.1027 14.5887 906 49.2241 1155.42 540.621
1436 0 64.0805 13.0617 837 51.0299 1155.23 538.808
1437 0 67.031 13.5609 909 50.7767 1155.62 538.461
1438 0 67.1593 12.9989 873 51.7732 1155.04 537.158
1439 0 70.1057 13.8648 972 50.7047 1154.41 535.998
1440 0 70.0991 13.3097 933 51.1179 1154.28 534.421
1441 0 75.1508 13.8255 1039 50.2724 1154.35 535.358
1442 0 80.0924 11.724 939 51.295 1154.14 532.54
1443 0 79.0594 13.0282 1030 50.4864 1153.94 533.146
1444 0 82.1121 13.0797 1074 50.3892 1154.18 530.62
1445 0 85.1442 13.4243 1143 50.2826 1154.04 527.75
1446 0 91.0904 14.7655 1345 48.5071 1154.46 529.268
1447 0 92.109 14.4177 1328 49.9149 1154.11 526.869
1448 1 50.0266 11.354 568 50.7342 1154.15 548.012
1449 0 51.3163 11.6532 598 50.5251 1152.99 547.395
1450 0 53.2094 11.3138 602 50.6262 1153.07 547.151
1451 0 55.1266 12.2264 674 50.5712 1152.89 545.96
1452 0 57.2062 12.7608 730 49.4945 1152.77 546.089
1453 0 59.2073 14.559 862 48.1833 1152.45 545.961
1454 0 60.0764 11.5853 696 51.2284 1152.63 545.797
1455 0 61.0822 12.0657 737 51.4952 1152.3 544.213
1456 0 63.3099 12.6994 804 51.9117 1152.21 541.771
1457 0 64.1553 14.0752 903 51.443 1152.96 541.578
1458 0 66.2315 14.5701 965 51.1181 1152.44 542.505
1459 0 70.1163 12.8358 900 52.5589 1152.39 542.48
1460 0 71.1326 12.9476 921 53.4864 1152.68 539.365
1461 0 72.2161 13.5704 980 53.0408 1152.58 538.712
1462 0 72.2161 13.5565 979 162.039 1151.57 538.69
1463 0 79.1218 13.6625 1081 52.7243 1152.3 537.732
1464 0 80.116 14.3292 1148 52.865 1151.74 534.955
1465 0 82.1723 13.6664 1123 53.4417 1151.67 536.246
1466 0 84.1758 13.852 1166 53.8165 1151.61 533.617
1467 0 89.1142 14.4421 1287 52.972 1151.56 533.461
1468 0 92.1178 14.8614 1369 52.2505 1151.65 532.025
1469 0 96.2744 14.2198 1369 52.8576 1151.65 530.909
1470 0 98.2995 14.934 1468 52.6076 1151.32 527.657
1471 0 100.109 12.7561 1277 54.6288 1151.09 528.111
1472 0 105.294 14.3028 1506 52.7995 1151.07 526.192
1473 1 41.0721 9.98243 410 52.6195 1150.88 557.676
1474 0 41.1592 12.0994 498 50.7249 1151.35 557.271
1475 0 44.1785 12.1326 536 51.2164 1151.05 555.004
1476 0 44.1025 12.1082 534 51.3408 1150.98 555.594
1477 0 46.2691 13.4863 624 50.0208 1151.02 553.46
1478 0 50.2218 12.1262 609 50.4663 1150.67 553.746
1479 0 49.108 12.9511 636 50.9575 1150.16 551.096
1480 0 52.2345 14.052 734 50.0327 1150.69 550.522
1481 0 48.264 13.7577 664 51.3524 1149.69 548.886
1482 0 48.2192 13.3349 643 53.9969 1149.98 549.84
1483 0 50.162 13.6358 684 53.6038 1150.71 551.905
1484 0 52.0399 12.183 634 54.8044 1150.23 553.808
1485 0 54.1669 14.0676 762 53.2362 1149.94 550.955
1486 0 53.1575 13.6763 727 55.1403 1149.76 551.305
1487 0 58.0956 16.0253 931 51.6896 1150.75 547.539
1488 0 60.2578 14.9856 903 52.4208 1149.85 547.574
1489 0 65.219 18.4609 1204 48.1046 1150.12 544.313
1490 0 70.3759 17.1508 1207 48.3355 1150.35 544.263
1491 0 70.2375 15.6896 1102 50.726 1150.53 544.56
1492 0 65.3237 15.5686 1017 52.9056 1150.08 545.432
1493 1 157.628 11.9839 1889 50.1556 1150.82 503.521
1494 0 159.445 11.9665 1908 49.6808 1150.42 506.763
1495 0 155.605 11.06 1721 49.5938 1150.39 510.948
1496 0 146.38 9.8989 1449 49.3699 1151.62 527.739
1497 0 150.405 9.82682 1478 48.2815 1151.78 521.189
1498 0 152.3 8.05645 1227 51.8215 1151.62 538.676
1499 0 143.457 9.43838 1354 51.7437 1152.01 534.792
1500 0 141.376 11.0769 1566 49.4036 1152.12 522.823
1501 0 141.356 10.7035 1513 51.1963 1152.08 528.67
1502 0 140.449 9.95382 1398 53.6052 1152.19 534.593
1503 0 144.592 11.4944 1662 50.556 1153.02 531.635
1504 0 143.718 13.6378 1960 48.4413 1153.2 523.577
1505 0 137.64 12.4237 1710 51.8298 1153.39 527.284
1506 0 136.28 11.7772 1605 53.7819 1153.15 524.567
1507 0 138.684 13.693 1899 51.2033 1153.67 521.023
1508 0 138.731 17.1122 2374 47.3046 1153.43 512.482
1509 1 52.1228 12.7967 667 58.4918 1152.58 547.937
1510 0 54.4612 13.3122 725 57.7545 1153.07 548.846
1511 0 57.1728 13.7828 788 57.632 1152.98 546.797
1512 0 56.0827 13.1948 740 58.9635 1153.64 545.119
1513 0 59.1052 14.6857 868 57.4793 1153.83 544.483
1514 0 61.1618 13.5052 826 58.4237 1153.89 544.381
1515 0 64.1746 14.3047 918 57.2353 1154.12 542.632
1516 0 65.0943 15.0704 981 56.682 1154.24 540.721
1517 0 68.156 14.1587 965 57.2383 1154.45 540.076
1518 0 69.1486 14.2013 982 57.2118 1154.41 537.985
1519 0 73.2071 13.0452 955 57.667 1154.5 537.572
1520 0 73.134 13.8513 1013 57.23 1154.51 533.832
1521 0 75.1305 13.4699 1012 57.4743 1155.01 532.992
1522 0 80.2684 13.6293 1094 56.8601 1155.17 532.954
1523 0 81.1553 13.7884 1119 56.3655 1155.34 531.485
1524 0 86.1701 14.3437 1236 55.7468 1155.92 528.088
1525 0 88.2284 14.2244 1255 55.5538 1156 527.428
1526 0 93.1512 13.3654 1245 55.5783 1156.46 526.448
1527 1 47.015 11.1241 523 55.5296 1155.71 545.468
1528 0 49.1829 11.7927 580 54.3207 1156.85 547.867
1529 0 52.0335 13.107 682 53.022 1156.88 545.078
1530 0 52.0388 12.7597 664 53.8012 1156.84 544.767
1531 0 51.2219 11.9675 613 55.4829 1156.97 541.258
1532 0 54.0297 12.8263 693 55.2136 1156.8 539.574
1533 0 57.0709 13.8249 789 54.185 1156.75 538.692
1534 0 60.0379 12.4754 749 54.7356 1156.83 538.896
1535 0 62.0828 12.7894 794 54.6335 1156.56 537.436
1536 0 62.1089 12.6552 786 55.0394 1156.39 534.73
1537 0 66.1076 12.3889 819 54.7631 1156.48 534.254
1538 0 68.0816 13.0726 890 54.0011 1156.1 532.209
1539 0 72.1048 14.257 1028 53.1488 1156.43 531.147
1540 0 74.1644 12.324 914 54.5481 1156 529.985
1541 0 74.0552 12.3557 915 54.5377 1156.11 526.62
1542 0 79.1069 13.5007 1068 53.2051 1155.42 526.161
1543 0 84.0909 13.7232 1154 52.4913 1156.1 523.104
1544 0 88.1661 13.5993 1199 51.9992 1155.9 524.661
1545 0 90.0922 13.3086 1199 52.4879 1155.96 523.319
1546 0 93.0471 12.3056 1145 53.3432 1155.84 520.173
1547 0 96.1896 13.0887 1259 52.6021 1155.59 517.727
1548 0 99.0981 13.4412 1332 52.4287 1155.44 516.321
1549 0 102.11 12.8293 1310 52.4565 1155.32 516.009
1550 0 108.269 12.3859 1341 53.2401 1155.5 516.641
1551 0 111.249 12.7103 1414 53.0219 1155.61 515.098
1552 1 57.1421 12.7752 730 50.3055 1155.09 539.481
1553 0 59.2754 11.0164 653 51.366 1154.75 540.691
1554 0 61.1402 12.3814 757 50.4941 1155.3 539.252
1555 0 63.1674 12.364 781 50.9706 1155.19 538.773
1556 0 68.3058 12.2976 840 51.6619 1154.81 538.57
1557 0 69.2133 11.2551 779 52.6367 1154.63 538.436
1558 0 72.1958 13.4357 970 51.2804 1154.61 536.347
1559 0 76.1193 12.441 947 51.886 1154.51 536.347
1560 0 75.1036 11.9435 897 53.5674 1154.69 534.008
1561 0 78.1936 12.8143 1002 53.0369 1154.66 533.92
1562 0 82.148 12.9157 1061 52.3412 1154.19 534.662
1563 0 83.2206 12.6531 1053 53.0798 1153.57 532.232
1564 0 86.1923 12.7622 1100 52.9309 1153.14 530.54
1565 1 45.1879 11.2419 508 51.4646 1152.7 550.569
1566 0 45.2466 10.6306 481 52.2266 1153.12 551.164
1567 0 48.2871 12.7777 617 50.0211 1152.68 550.998
1568 0 51.1763 11.2748 577 51.3761 1152.64 550.066
1569 0 52.3471 11.3473 594 51.867 1152.55 548.512
1570 0 54.2508 10.1565 551 53.2014 1152.47 549.461
1571 0 55.3103 12.5655 695 51.5482 1152.78 545.964
1572 0 57.37 12.5676 721 51.484 1152.79 545.327
1573 0 58.2375 11.3157 659 52.6677 1152.62 543.979
1574 0 59.1982 11.6051 687 52.9913 1152.24 543.4
1575 0 63.3962 13.0765 829 51.2509 1152.06 541.208
1576 0 64.3753 12.365 796 52.0188 1152.83 542.379
1577 0 65.1822 13.0864 853 51.7268 1152.62 540.945
1578 0 67.4964 11.5414 779 53.113 1152.54 540.243
1579 0 70.2292 12.0035 843 52.6429 1151.51 539.573
1580 0 73.2863 12.1442 890 52.8719 1151.54 539.592
1581 0 74.2688 13.2626 985 52.2406 1151.59 536.122
1582 0 78.3215 12.3466 967 53.182 1151.31 536.013
1583 0 80.2859 12.4929 1003 52.984 1151.66 535.489
1584 1 40.1446 10.1882 409 53.1736 1150.2 555.883
1585 0 44.3204 10.3564 459 52.5556 1151.33 555.601
1586 0 44.1396 11.1011 490 53.1735 1152.21 552.641
1587 0 45.1715 12.043 544 52.3713 1152.08 552.73
1588 0 48.422 13.7334 665 50.8271 1151.42 550.687
1589 0 47.2526 9.90422 468 53.562 1150.33 554.212
1590 0 49.1888 11.0391 543 52.5488 1150.56 551.744
1591 0 51.1813 12.5241 641 50.9267 1150.7 551.835
1592 0 52.1616 11.5411 602 52.387 1150.77 549.895
1593 0 52.2471 12.1155 633 52.0916 1150.98 547.515
1594 0 54.0741 11.7986 638 52.4765 1150.9 548.124
1595 0 55.3761 11.5032 637 52.6326 1151.35 548.242
1596 0 58.2272 12.8978 751 50.8242 1151.5 545.836
1597 0 58.1848 11.8416 689 51.5428 1151.64 546.538
1598 0 61.2324 12.0525 738 51.2561 1151.47 542.854
1599 0 63.1598 12.1438 767 51.2008 1151.87 542.699
1600 0 65.1675 11.4781 748 51.119 1152.01 542.283
1601 0 67.2533 12.2076 821 51.1973 1151.9 540.051
1602 0 68.1198 11.6119 791 52.2035 1152.12 538.167
1603 0 69.1878 12.2131 845 51.9586 1151.82 537.838
1604 0 73.2375 12.6848 929 51.7944 1152.28 536.548
1605 0 75.2612 12.1311 913 52.3231 1152.57 535.68
1606 0 80.2144 14.1621 1136 50.2834 1152.6 532.188
1607 0 81.1814 13.3282 1082 51.4584 1153.21 531.318
1608 0 84.1872 13.9451 1174 50.6269 1153.22 531.37
1609 1 46.0702 11.5693 533 52.5291 1153.56 548.645
1610 0 45.1117 9.50972 429 53.704 1152.3 551.657
1611 0 48.144 12.2134 588 51.6735 1152.53 547.57
1612 0 48.2063 11.8242 570 52.1561 1152.58 548.467
1613 0 50.3454 9.73276 490 53.0592 1153.12 549.416
1614 0 51.2631 11.3142 580 52.3931 1153.91 547.152
1615 0 53.1931 11.0729 589 53.18 1153.72 546.146
1616 0 56.0448 12.5614 704 51.4418 1154.05 545.31
1617 0 55.0289 11.6848 643 53.1773 1154.5 546.212
1618 0 58.0858 12.8086 744 52.8401 1154.4 542.034
1619 0 60.0451 12.4073 745 52.953 1154.8 540.815
1620 0 64.0456 12.7409 816 51.9547 1155.04 539.935
1621 0 66.0557 13.4583 889 51.1912 1155.04 538.282
1622 0 65.0769 12.6927 826 52.3935 1154.94 538.8
1623 0 69.0459 13.9328 962 50.92 1155.18 537.532
1624 0 73.0804 12.9583 947 51.9599 1155.61 534.731
1625 0 74.2016 13.2477 983 51.9522 1155.58 532.509
1626 0 77.0976 12.3609 953 52.1112 1155.63 535.312
1627 0 79.0982 13.0977 1036 52.2606 1155.84 532.338
1628 0 83.1147 13.1264 1091 51.7745 1156.38 529.971
1629 0 85.208 12.804 1091 52.1861 1156.55 531.655
1630 0 91.2374 14.1718 1293 50.652 1156.4 530.005
1631 1 45.168 10.8262 489 52.591 1155.86 549.491
1632 0 48.1818 12.5359 604 51.0679 1155.88 548.166
1633 0 50.4144 12.4766 629 51.539 1155.58 543.968
1634 0 50.0756 11.7822 590 52.5881 1155.87 546.922
1635 0 52.0245 13.1092 682 51.0924 1155.82 544.255
1636 0 52.2247 11.9484 624 52.8093 1156.28 546.335
1637 0 52.2247 11.9675 625 166.886 1157.29 546.331
1638 0 57.1876 14.094 806 50.6886 1156.49 542.748
1639 0 58.2116 13.7601 801 51.3933 1156.65 542.441
1640 0 59.1332 13.5119 799 51.6808 1156.18 541.775
1641 0 61.141 14.1476 865 50.7341 1156.39 540.072
1642 0 62.1184 13.3616 830 51.7446 1156.76 540.457
1643 0 65.0505 12.7901 832 52.3978 1156.19 540.204
1644 0 66.1076 12.6158 834 52.9964 1156.76 539.089
1645 0 67.2212 14.0878 947 51.8807 1157.12 536.892
1646 0 71.167 14.3325 1020 51.5431 1156.64 537.644
1647 0 74.1262 15.1768 1125 50.7867 1156.64 537.339
1648 0 73.1401 13.2075 966 53.9224 1156.36 535.09
1649 0 75.1208 12.7927 961 54.6774 1155.83 534.916
1650 0 79.2386 13.3016 1054 54.018 1155.73 533.856
1651 0 82.2215 13.5609 1115 53.8771 1155.72 533.892
1652 0 81.2493 13.5263 1099 54.8062 1155.93 531.461
1653 0 88.1496 14.6796 1294 53.0649 1155.32 527.855
1654 1 46.0926 10.0667 464 55.2953 1154.91 549.192
1655 0 46.0514 10.7054 493 54.9574 1154.03 549.525
1656 0 47.0926 11.7216 552 54.1703 1153.61 548.458
1657 0 50.0761 10.6039 531 54.8945 1153.7 549.46
1658 0 52.0639 11.9853 624 54.5657 1154.05 546.33
1659 0 54.0844 11.519 623 55.0177 1154.28 544.748
1660 0 56.0137 12.9611 726 53.7824 1154.18 545.2
1661 0 57.0591 12.4257 709 54.4796 1154.09 544.027
1662 0 59.0221 13.5881 802 53.3865 1154.03 541.39
1663 0 60.0334 12.9261 776 54.1095 1153.9 542.691
1664 0 61.0657 11.9543 730 55.5808 1153.86 543.415
1665 0 62.0792 12.8062 795 55.4352 1153.97 541.516
1666 0 67.1421 13.6874 919 53.8281 1154.57 539.062
1667 0 67.1857 13.4999 907 53.828 1153.99 540.015
1668 0 70.2472 13.0966 920 54.2163 1154.31 537.036
1669 0 73.1762 12.4631 912 54.3662 1154.1 537.112
1670 0 74.2134 12.8952 957 54.3375 1153.89 533.725
1671 0 76.1245 12.0986 921 54.9001 1153.98 533.476
1672 1 44.0832 10.5709 466 54.4807 1152.79 551.8
1673 0 44.0255 9.01751 397 55.3728 1153.3 552.234
1674 0 46.0655 10.4199 480 54.4167 1153.7 552.165
1675 0 48.1165 11.4306 550 52.9709 1153.75 550.96
1676 0 47.1475 12.5988 594 53.4411 1153.91 549.315
1677 0 51.1017 11.2716 576 53.1944 1152.78 550.986
1678 0 52.0407 13.0283 678 52.6578 1152.39 547.248
1679 0 54.047 12.6186 682 52.7757 1152.05 547.179
1680 0 54.1324 11.361 615 54.5724 1152.54 546.828
1681 0 56.0326 12.8497 720 53.0097 1152.99 546.585
1682 0 58.1142 12.2862 714 53.6541 1152.34 545.825
1683 0 60.0525 12.1727 731 54.2709 1152.2 544.254
1684 0 62.0296 12.9938 806 52.2618 1152.75 544.015
1685 0 64.0869 12.9824 832 52.2212 1152.31 543.049
1686 0 65.0419 13.13 854 52.0796 1152.15 544.472
1687 0 67.164 13.3852 899 51.8087 1152.4 543.575
1688 0 68.1928 12.7433 869 52.5489 1152.1 541.663
1689 0 71.172 12.3504 879 53.1195 1151.69 540.168
1690 0 72.132 12.8653 928 53.1369 1151.36 539.88
1691 0 74.1694 12.6198 936 53.4252 1150.83 540.501
1692 0 77.1464 12.9753 1001 53.2288 1150.79 537.397
1693 0 78.0825 12.7814 998 53.7094 1151.23 536.395
1694 0 81.1654 12.7271 1033 54.7851 1151.09 535.5
1695 0 83.0941 13.3584 1110 53.5496 1151.49 536.671
1696 0 88.0938 14.0759 1240 53.0564 1151.6 533.794
1697 0 89.1621 13.6942 1221 54.0385 1151.43 534.096
1698 0 91.2319 12.6272 1152 55.0304 1151.45 532.957
1699 0 95.1867 14.2247 1354 53.7304 1151.54 528.452
1700 0 96.0966 13.3928 1287 54.9689 1151.1 528.991
1701 0 100.309 14.6747 1472 53.9246 1151.32 525.913
1702 0 101.409 13.559 1375 55.4385 1151.12 525.473
1703 0 105.162 13.7122 1442 55.638 1151.22 525.332
1704 0 110.214 14.6987 1620 54.3759 1150.88 523.423
1705 1 60.2239 11.5735 697 56.7102 1151.03 548.74
1706 0 61.1096 11.013 673 57.0609 1151.44 549.019
1707 0 61.1152 10.9302 668 165.573 1151.43 549.208
1708 0 65.089 13.1973 859 56.0361 1151.04 544.859
1709 0 66.3632 13.3658 887 56.0846 1151.75 543.605
1710 0 67.299 13.1948 888 56.3176 1151.62 543.738
1711 0 70.1446 13.8428 971 55.6323 1151.35 541.236
1712 0 71.121 14.2996 1017 55.9253 1151.69 539.674
1713 0 76.2809 13.8698 1058 55.1834 1151.83 539.093
1714 0 77.2704 13.3039 1028 56.4689 1151.86 538.067
1715 0 81.1814 14.3136 1162 54.3984 1151.85 537.137
1716 0 83.2908 15.5119 1292 53.7051 1152.52 534.397
1717 0 83.4203 14.2771 1191 55.4694 1152.74 532.234
1718 0 85.2477 14.1587 1207 55.6148 1152.79 529.35
1719 0 89.3213 14.8565 1327 54.3542 1152.83 530.05
1720 0 90.5973 14.3713 1302 55.4017 1153.55 529.242
1721 0 96.3093 14.7961 1425 54.7614 1153.3 525.573
1722 0 98.323 14.4219 1418 55.6453 1153.44 524.327
1723 0 101.336 14.4371 1463 55.6145 1153.58 522.769
1724 1 54.3915 11.5275 627 57.3525 1153.15 543.432
1725 0 55.5109 11.6914 649 57.5886 1153.32 543.183
1726 0 55.5109 11.6193 645 169.509 1154.32 543.194
1727 0 58.305 12.932 754 54.5053 1153.66 540.46
1728 0 59.643 13.0778 780 53.1782 1153.54 540.72
1729 0 62.3455 12.6713 790 52.762 1153.61 539.153
1730 0 63.307 13.8847 879 51.6303 1153.78 537.706
1731 0 64.1804 13.3374 856 51.6554 1153.95 535.815
1732 0 67.567 12.3137 832 51.0192 1154.1 537.996
1733 0 71.4377 14.8941 1064 49.3374 1154.47 533.187
1734 0 74.3538 13.0592 971 51.4634 1154.84 534.323
1735 0 74.3538 13.0995 974 154.51 1155.86 534.313
1736 0 78.4611 13.306 1044 54.1944 1155.57 530.931
1737 0 80.2728 13.1676 1057 55.6916 1155.71 529.235
1738 0 84.3557 13.8106 1165 55.0764 1156.01 527.274
1739 0 85.5049 12.97 1109 55.605 1156.34 526.165
1740 0 89.3505 13.2848 1187 55.2603 1156.27 524.142
1741 0 93.6155 13.5234 1266 53.9597 1156.28 523.431
1742 0 95.3223 13.2078 1259 56.1215 1156.6 523.053
1743 1 52.2887 10.0213 524 56.5172 1156.75 544.784
1744 0 56.2974 12.2208 688 53.2558 1156.95 543.417
1745 0 57.1904 11.2431 643 53.8942 1157.06 541.952
1746 0 60.23 13.4484 810 52.4852 1157.41 544.827
1747 0 62.0615 12.826 796 53.4322 1156.73 542.847
1748 0 63.1568 12.8094 809 53.7318 1156.79 541.472
1749 0 66.1849 12.4953 827 53.9335 1157.15 539.664
1750 0 69.1631 13.4465 930 52.6064 1157.53 539.073
1751 0 70.104 12.6669 888 54.3198 1157.6 537.184
1752 0 74.2744 14.0964 1047 52.8271 1157.7 535.481
1753 0 75.1425 13.3214 1001 53.9161 1157.92 535.156
1754 0 76.1337 12.0577 918 55.1296 1157.5 533.468
1755 0 80.1494 13.5746 1088 53.6232 1157.9 530.205
1756 0 84.1452 13.5361 1139 53.5154 1157.63 530.464
1757 0 86.1063 12.3801 1066 54.6154 1157.49 529.153
1758 1 43.1113 8.11851 350 55.5343 1157.56 550.174
1759 0 46.0602 10.4429 481 53.5405 1157.68 547.092
1760 0 49.3171 11.5984 572 51.9668 1157.87 546.573
1761 0 54.2632 9.93308 539 52.9833 1158.39 545.95
1762 0 53.1407 10.858 577 53.1542 1158.15 544.882
1763 0 53.0568 12.251 650 52.2985 1158.39 543.245
1764 0 52.0884 10.9045 568 54.8239 1157.82 542.699
1765 0 56.0715 12.6981 712 53.1798 1157.78 542.909
1766 0 59.1826 13.0613 773 52.3467 1157.98 542.793
1767 0 58.1118 13.2503 770 52.7935 1158.03 541.678
1768 0 59.1487 12.7475 754 52.7188 1157.96 541.31
1769 0 62.138 12.6332 785 51.9822 1158.04 540.855
1770 0 64.1087 13.0716 838 52.031 1157.85 539.605
1771 0 65.327 12.0165 785 52.8777 1157.88 538.311
1772 0 66.189 13.1744 872 53.3865 1157.33 538.921
1773 0 68.1566 13.1022 893 54.0862 1157.01 537.06
1774 0 71.2065 13.3274 949 54.1718 1157.23 538.259
1775 0 72.1906 11.8159 853 57.7515 1157.14 536.588
1776 0 73.1996 13.4564 985 55.5005 1156.64 533.923
1777 0 76.3093 13.4191 1024 55.4932 1156.74 532.811
1778 0 78.119 13.121 1025 56.6429 1156.39 531.023
1779 0 82.2188 13.9627 1148 55.6429 1156.63 531.304
1780 0 85.2703 12.5483 1070 56.972 1156.64 531.022
1781 0 86.2538 13.4603 1161 56.2059 1156.46 528.858
1782 0 88.1861 13.5736 1197 55.9666 1156.31 527.836
1783 1 49.2649 10.6973 527 56.685 1156.03 546.679
1784 0 53.1468 10.8567 577 55.9064 1155.16 546.761
1785 0 54.2646 11.7388 637 55.3736 1155.05 545.779
1786 0 54.3449 12.2735 667 55.3913 1155.08 544.631
1787 0 57.2153 12.1296 694 55.5346 1154.79 544.2
1788 0 57.1989 13.0947 749 55.1375 1154.62 543.78
1789 0 60.2702 12.6763 764 55.216 1154.31 541.838
1790 0 63.202 13.3224 842 54.3028 1154.32 541.276
1791 0 64.2068 12.6311 811 55.3625 1153.94 541.16
1792 0 66.1966 12.3118 815 55.5117 1154.28 539.84
1793 0 67.2658 12.6216 849 55.3522 1154.35 540.755
1794 0 71.1315 13.7914 981 53.6188 1154.43 538.043
1795 0 72.1268 11.6046 837 55.9892 1154.27 537.031
1796 0 74.0742 12.447 922 55.2419 1154.27 536.731
1797 0 76.1063 13.2709 1010 54.9436 1153.84 535.613
1798 0 78.0755 13.2564 1035 54.7082 1153.99 534.596
1799 0 79.1472 12.9632 1026 55.7524 1153.34 532.406
1800 0 82.1904 12.7995 1052 55.5285 1153.54 533.568
1801 0 87.1201 13.556 1181 54.4217 1153.55 532.732
1802 0 87.1677 12.562 1095 55.5434 1153.23 532.469
1803 0 90.1312 13.2695 1196 54.6614 1153.07 530.087
1804 0 94.1832 13.4419 1266 54.7014 1153.21 526.392
1805 1 52.027 10.1486 528 54.9792 1152.35 548.525
1806 0 54.0799 11.2796 610 54.0836 1152.22 548.703
1807 0 55.045 10.9002 600 54.5717 1152.51 547.127
1808 0 58.0504 10.9905 638 53.8668 1152.8 546.271
1809 0 59.0492 11.4989 679 53.7938 1152.5 545.426
1810 0 60.218 11.3753 685 53.908 1152.54 544.844
1811 0 63.1261 12.2453 773 52.7529 1152.29 543.332
1812 0 65.0887 12.3677 805 52.5404 1152.46 542.696
1813 0 68.1027 12.1581 828 52.4734 1152.56 540.447
1814 0 70.1229 11.9077 835 53.1784 1152.16 538.742
1815 0 72.1305 11.8812 857 52.9195 1151.95 539.56
1816 0 75.1219 12.3266 926 52.6015 1152.15 537.244
1817 0 79.1281 12.9537 1025 51.8829 1151.97 535.62
1818 0 80.1146 12.557 1006 52.3151 1151.97 533.949
1819 0 83.1286 12.5228 1041 51.8607 1152.02 532.609
1820 0 88.0956 12.7816 1126 51.4867 1152.37 530.568
1821 1 45.0184 9.37394 422 51.8791 1152.25 550.424
1822 0 45.0184 9.37394 422 141.145 1152.27 550.417
1823 0 48.1872 10.646 513 51.1209 1152.94 549.485
1824 0 50.1111 10.0177 502 51.6574 1152.75 547.58
1825 0 52.1334 11.5857 604 50.7003 1152.64 546.272
1826 0 53.139 10.4819 557 51.5404 1152.83 545.907
1827 0 56.0521 11.9888 672 50.1741 1152.25 544.254
1828 0 58.0604 11.5742 672 50.2679 1152.62 546.112
1829 0 60.0464 12.7901 768 49.2396 1152.72 543.521
1830 0 62.047 12.1037 751 50.0373 1153.11 543.091
1831 0 64.0884 12.0771 774 49.9315 1152.92 542.895
1832 0 66.0765 12.2737 811 50.4081 1153.84 539.774
1833 0 66.1051 14.0231 927 49.4239 1153.87 539.287
1834 0 67.079 12.4331 834 51.3957 1153.88 540.597
1835 0 69.1312 12.6716 876 51.7237 1154.48 539.26
1836 0 72.2221 13.5969 982 50.4623 1154.66 535.474
1837 0 73.2029 11.6525 853 52.7198 1154.41 535.25
1838 0 76.2126 12.9375 986 51.5203 1154.84 532.79
1839 0 79.1836 13.0583 1034 51.558 1155.14 530.909
1840 1 42.1332 10.989 463 51.5335 1155.5 551.225
1841 0 42.1634 9.96124 420 51.3881 1155.86 553.319
1842 0 45.2643 10.759 487 52.2546 1155.88 549.534
1843 0 47.206 9.82925 464 52.8793 1156.82 549.224
1844 0 48.2431 10.5093 507 51.927 1157.76 548.446
1845 0 48.2322 11.1544 538 51.7807 1157.76 546.859
1846 0 50.2181 11.4102 573 51.3543 1157.22 545.92
1847 0 53.0549 12.7227 675 49.5585 1156.72 546.206
1848 0 51.1343 12.4574 637 50.9356 1156.24 546.016
1849 0 54.2007 11.3098 613 51.4682 1156.41 546.853
1850 0 54.1883 11.6815 633 51.6667 1156.26 545.382
1851 0 58.1385 12.4702 725 50.4538 1156.46 542.183
1852 0 60.1066 13.8088 830 49.3964 1156.73 540.558
1853 0 61.1086 12.3878 757 49.9115 1157.44 541.008
1854 0 61.1633 12.5566 768 49.7487 1157.46 542.734
1855 0 64.22 12.7375 818 49.4951 1157.29 538.62
1856 0 64.1179 12.4614 799 50.1202 1157.18 539.9
1857 0 66.1365 12.7615 844 49.9135 1157.29 538.687
1858 0 68.0934 12.6885 864 49.9572 1157.68 537.38
1859 0 70.1711 13.3816 939 49.0106 1156.96 535.916
1860 0 70.0631 12.8598 901 50.2453 1156.95 533.467
1861 0 76.3896 12.7373 973 49.4049 1156.82 536.087
1862 0 76.4392 12.8206 980 50.3245 1156.52 533.715
1863 0 76.2837 13.1614 1004 50.1653 1156.57 531.549
1864 0 80.2964 13.5747 1090 49.611 1156.46 528.806
1865 0 82.2548 13.8229 1137 49.6262 1156.63 528.216
1866 0 86.3864 13.9142 1202 49.6905 1156.84 527.265
1867 0 88.3282 13.1781 1164 50.4424 1156.44 526.965
1868 0 90.2774 13.525 1221 50.7183 1156 523.159
1869 1 50.103 10.4984 526 50.884 1157.04 547.148
1870 0 50.1554 10.0887 506 51.581 1156.16 545.874
1871 0 54.1123 12.2153 661 49.6974 1155.43 542.646
1872 0 55.0468 10.5728 582 51.1375 1155.13 544.143
1873 0 55.0191 11.5778 637 51.2056 1153.93 542.937
1874 0 57.0882 12.507 714 50.2675 1154.11 541.639
1875 0 59.1452 12.8835 762 50.3268 1154.77 542.806
1876 0 60.1497 13.217 795 50.5346 1154.5 541.01
1877 0 61.1602 12.8842 788 50.868 1154.25 543.263
1878 0 62.1035 12.7046 789 51.6299 1154.35 541.232
1879 0 65.1948 13.2066 861 51.2451 1154.57 541.05
1880 0 67.1911 13.6476 917 51.4951 1155.23 538.87
1881 0 66.2367 12.4553 825 53.4945 1154.83 539.784
1882 0 68.3144 13.1158 896 53.1908 1154.16 537.934
1883 0 72.2858 13.6818 989 52.6694 1154.37 537.486
1884 0 74.1811 14.0737 1044 53.1159 1154.51 534.496
1885 0 77.1896 13.6936 1057 53.4816 1154.51 536.019
1886 0 78.1098 12.3032 961 54.6504 1154.31 535.072
1887 0 83.3215 14.414 1201 52.7336 1154.19 532.977
1888 0 85.321 12.2947 1049 54.9552 1154.2 531.54
1889 0 91.3294 14.2999 1306 52.6256 1154.17 529.973
1890 0 92.239 13.7252 1266 53.8847 1154.16 528.428
1891 1 49.0992 11.5888 569 53.9965 1153.35 549.373
1892 0 50.1009 12.2154 612 53.8186 1154 548.9
1893 0 53.1187 12.5191 665 53.3654 1154.28 548.582
1894 0 55.1142 13.5174 745 52.6524 1154.39 547.811
1895 0 56.1066 12.1733 683 53.7687 1154.01 548.505
1896 0 58.165 12.1723 708 53.613 1154.14 547.302
1897 0 59.0994 12.0475 712 54.3272 1154.08 546.032
1898 0 62.2102 13.1811 820 53.1354 1154.24 545.137
1899 0 62.0803 12.4677 774 53.5284 1153.39 544.497
1900 0 64.1643 12.6862 814 53.1536 1153.4 544.482
1901 0 65.1683 13.1506 857 52.7526 1153.16 541.718
1902 0 65.0578 13.0499 849 52.8257 1153.47 539.9
1903 0 69.126 13.3669 924 51.8853 1152.92 538.965
1904 0 70.2002 12.8062 899 52.8365 1152.85 538.076
1905 0 73.1497 12.3309 902 52.7439 1152.89 539.47
1906 0 76.0559 13.3323 1014 51.9645 1152.38 535.737
1907 0 80.2479 13.3835 1074 51.2663 1152.21 534.592
1908 0 81.1999 13.4852 1095 51.1854 1152.27 533.327
1909 0 86.2402 11.2708 972 52.6173 1152.22 534.165
1910 0 86.155 13.1739 1135 51.4273 1152.14 532.811
1911 1 47.0423 10.0335 472 52.9216 1151.65 550.337
1912 0 48.1169 10.8486 522 52.2586 1151.39 550.274
1913 0 48.1169 10.8901 524 147.284 1151.38 550.347
1914 0 50.0443 12.3491 618 51.2929 1151.13 548.267
1915 0 53.113 12.1816 647 51.1576 1151.63 547.442
1916 0 53.0255 12.7109 674 51.0252 1151.73 546.203
1917 0 55.0311 13.3379 734 50.3583 1150.3 545.654
1918 0 58.0692 12.4507 723 51.6349 1150.61 545.91
1919 0 60.1148 13.7736 828 50.221 1151.3 545.085
1920 0 61.0959 13.0123 795 50.9522 1152.1 543.216
1921 0 62.1967 11.753 731 52.6676 1151.1 542.777
1922 0 64.1837 13.5237 868 51.318 1151.27 541.285
1923 0 67.0702 13.225 887 51.5039 1150.85 542.304
1924 0 68.04 13.2128 899 52.2703 1151.16 540.362
1925 0 70.1382 12.7463 894 52.5805 1151.14 539.775
1926 0 73.0974 12.2029 892 53.3251 1151.21 539.174
1927 0 76.2724 13.5567 1034 52.0319 1151.32 537.867
1928 0 78.26 13.0335 1020 52.4245 1151.06 536.546
1929 0 81.0988 13.1814 1069 52.4069 1151.15 535.128
1930 0 84.1741 13.5077 1137 52.3606 1151.21 533.16
1931 1 46.131 10.817 499 52.5491 1151.19 554.567
1932 0 46.0693 10.6144 489 53.0614 1150.78 553.309
1933 0 50.1547 11.943 599 52.7296 1151.35 550.299
1934 0 51.1708 11.3737 582 53.2199 1151.6 549.55
1935 0 53.0996 12.0152 638 52.9671 1151.93 547.567
1936 0 56.0972 12.6031 707 52.6096 1150.91 548.249
1937 0 57.1227 12.2718 701 53.1912 1150.92 547.24
1938 0 58.0291 12.9935 754 52.6618 1151.05 546.593
1939 0 59.0821 12.1187 716 54.3352 1151.17 546.168
1940 0 63.2196 13.0339 824 53.0959 1151.44 544.711
1941 0 64.1339 13.2068 847 53.7084 1151.44 542.144
1942 0 68.1496 13.2943 906 52.8278 1151.52 542.267
1943 0 69.2036 13.4386 930 53.3538 1151.77 540.777
1944 0 70.0482 13.248 928 52.9019 1151.68 539.543
1945 0 71.0896 13.5744 965 52.487 1151.84 539.014
1946 0 75.1131 13.3399 1002 52.2944 1152.21 538.129
1947 0 76.2238 14.195 1082 51.975 1151.91 536.459
1948 0 81.1801 13.7719 1118 52.0376 1151.67 534.539
1949 0 82.1385 13.879 1140 51.8026 1151.68 534.426
1950 0 84.1552 13.7841 1160 52.4043 1152.08 533.016
1951 0 87.2026 14.1051 1230 52.178 1152.3 531.224
1952 0 89.1947 14.0816 1256 52.2611 1152.54 528.946
1953 0 92.189 13.7327 1266 52.9968 1152.67 526.701
1954 1 52.0538 10.2778 535 53.5308 1152.76 549.363
1955 0 54.0814 10.891 589 53.7131 1152.8 546.509
1956 0 57.0726 12.3001 702 51.6239 1153.04 545.916
1957 0 59.1503 12.24 724 51.5483 1153.07 544.586
1958 0 60.078 12.5337 753 51.0624 1153.24 543.527
1959 0 60.1057 12.7276 765 51.1961 1153.02 543.345
1960 0 66.1829 13.2965 880 49.6886 1153.22 543.569
1961 0 66.3305 13.6287 904 50.0819 1153.55 541.264
1962 0 70.1775 13.0954 919 50.6649 1153.56 539.936
1963 0 72.1953 12.7155 918 50.8126 1154.16 539.712
1964 0 73.1475 13.712 1003 50.2164 1153.96 537.655
1965 0 75.2615 13.1541 990 50.6899 1153.82 535.894
1966 0 79.3756 13.203 1048 50.667 1155.16 535.083
1967 0 79.1905 12.5646 995 51.4874 1155.42 533.517
1968 0 82.1714 13.3136 1094 50.6654 1155.88 532.065
1969 0 86.2353 13.3124 1148 50.6681 1156.14 530.039
1970 0 90.2944 12.5035 1129 51.1816 1156.25 529.938
1971 0 94.2981 14.7299 1389 49.5061 1156.58 526.32
1972 1 45.2925 11.5692 524 51.0496 1156.34 548.153
1973 0 49.1691 11.3079 556 50.3237 1156.56 549.059
1974 0 52.2489 11.3687 594 50.298 1156.91 547.857
1975 0 55.337 11.5113 637 50.2182 1157.16 546.675
1976 0 54.1517 12.3911 671 50.1028 1157.11 543.827
1977 0 58.1784 13.6133 792 48.8737 1157.44 544.009
1978 0 59.131 12.9543 766 49.7402 1157.17 540.894
1979 0 61.1338 12.808 783 49.1635 1156.44 541.573
1980 0 62.169 12.0478 749 50 1156.5 540.403
1981 0 64.199 13.3024 854 48.76 1156.42 538.674
1982 0 62.1495 12.0998 752 50.7354 1157.1 536.693
1983 0 68.1647 13.4527 917 48.3239 1156.72 537.923
1984 0 71.1408 12.7775 909 48.5633 1156.6 536.926
1985 0 72.1641 13.4832 973 48.7903 1156.88 533.116
1986 0 76.24 12.7623 973 48.3248 1157.18 535.326
1987 0 76.2605 12.7327 971 49.0021 1156.99 531.825
1988 0 80.3192 14.5295 1167 47.6153 1157.12 531.439
1989 0 82.369 13.4638 1109 48.7358 1157.05 530.665
1990 0 84.4275 13.5264 1142 48.535 1156.87 527.958
1991 0 86.3158 12.964 1119 48.9812 1156.78 527.838
1992 1 46.2776 9.91841 459 49.6863 1156.18 548.88
1993 0 48.2869 10.479 506 49.5494 1156.1 546.47
1994 0 47.162 12.086 570 48.2035 1155.58 548.544
1995 0 49.287 10.4693 516 49.9767 1156.91 545.535
1996 0 52.2785 11.6109 607 48.6804 1156.97 546.603
1997 0 55.3404 13.5163 748 47.5842 1156.27 544.41
1998 0 56.1733 12.7819 718 48.7047 1156.12 542.389
1999 0 57.1809 13.2737 759 48.6733 1156.24 542.64
2000 0 60.0865 14.0131 842 47.8705 1156.07 540.436
2001 0 59.111 13.5339 800 48.8462 1155.9 542.034
2002 0 61.1818 13.321 815 48.6282 1155.4 541.114
2003 0 65.1067 14.2382 927 47.822 1155.34 539.838
2004 0 66.1564 14.9343 988 47.8664 1154.92 538.671
2005 0 68.2156 13.7505 938 49.4563 1154.68 537.588
2006 0 70.1978 15.0859 1059 48.8159 1154.55 537.506
2007 0 72.0969 13.5651 978 50.2812 1154.74 538.022
2008 0 73.1588 13.7099 1003 50.7019 1154.65 534.494
2009 0 75.1854 14.1118 1061 50.6494 1154.09 533.691
2010 0 78.1853 13.1738 1030 51.301 1154.56 535.07
2011 0 78.3112 12.7313 997 52.346 1154.76 532.57
2012 0 83.2412 13.8033 1149 50.8468 1154.95 530.767
2013 0 85.4091 14.4598 1235 50.4372 1154.9 527.687
2014 0 87.286 13.4615 1175 51.8187 1154.9 526.499
2015 0 92.3467 14.4022 1330 50.4722 1154.69 526.792
2016 0 93.4625 13.1497 1229 51.8299 1154.59 526.481
2017 1 49.336 10.9048 538 51.7993 1154.63 549.396
2018 0 52.1866 11.9188 622 51.3955 1154.93 545.916
2019 0 53.3702 12.0667 644 51.4022 1154.56 546.186
2020 0 54.4369 12.1792 663 51.629 1154.38 545.448
2021 0 56.3703 12.3469 696 51.0733 1154.65 544.75
2022 0 58.2559 11.9473 696 51.7213 1154.31 543.247
2023 0 60.2202 11.8399 713 51.6311 1154.45 543.233
2024 0 62.521 13.5314 846 50.6087 1153.95 540.912
2025 0 66.3151 13.6017 902 49.8869 1154.16 539.928
2026 0 67.2596 12.3997 834 50.9269 1154.1 539.241
2027 0 68.4712 12.5162 857 50.8355 1153.93 539.37
2028 0 71.2613 12.7138 906 51.1358 1153.96 537.817
2029 0 72.554 14.6098 1060 49.9613 1153.65 534.966
2030 0 72.304 13.6784 989 50.7887 1153.91 536.632
2031 0 76.5429 13.6655 1046 50.8432 1153.7 534.319
2032 0 79.4389 14.2625 1133 50.5596 1153.88 532.658
2033 0 81.5449 13.8083 1126 51.1625 1153.3 531.636
2034 0 83.4214 13.7734 1149 51.1375 1153.44 530.958
2035 0 84.5133 13.631 1152 51.1372 1153.03 528.264
2036 0 89.2392 14.1081 1259 50.6259 1153.04 525.608
2037 0 93.4226 13.4978 1261 50.801 1153.02 524.996
2038 0 95.3232 13.5434 1291 50.6607 1152.68 525.406
2039 0 100.367 13.62 1367 50.8786 1152.44 523.053
2040 1 55.3392 10.6615 590 51.6661 1151.74 546.432
2041 0 55.1829 12.0508 665 51.4722 1151.57 544.752
2042 0 59.1978 10.5578 625 52.4608 1152.05 544.214
2043 0 60.257 11.7829 710 52.8338 1151.81 541.314
2044 0 64.1629 12.6397 811 51.5869 1151.68 541.753
2045 0 67.1537 13.4021 900 50.6367 1151.5 541.811
2046 0 69.1099 12.9359 894 51.3345 1151.73 540.236
2047 0 70.1297 12.8761 903 51.5814 1151.61 539.214
2048 0 74.2521 14.0198 1041 50.3151 1151.57 536.651
2049 0 77.1679 14.6175 1128 49.7766 1151.11 535.418
2050 0 78.1957 12.4304 972 51.9064 1151.26 535.307
2051 0 82.0708 14.4266 1184 49.9282 1151.29 532.78
2052 0 85.1388 12.8614 1095 51.6612 1150.67 531.438
2053 0 89.1278 13.3628 1191 51.0176 1150.83 532.302
2054 0 90.3464 12.8395 1160 53.7647 1150.65 529.558
2055 0 94.2858 12.8863 1215 53.5325 1150.79 528.337
2056 0 99.3 14.2296 1413 52.2902 1150.58 525.26
2057 1 55.0531 10.1357 558 52.8244 1150.06 550.486
2058 0 55.0411 11.1916 616 53.099 1150.3 548.729
2059 0 56.0921 11.9268 669 52.9806 1150.8 546.444
2060 0 58.1347 11.0777 644 53.5124 1150.26 546.28
2061 0 57.0532 12.0414 687 52.1659 1150.95 541.559
2062 0 62.1507 10.7159 666 53.0435 1150.18 543.071
2063 0 63.0816 13.0466 823 50.9077 1149.58 541.406
2064 0 65.0619 12.7571 830 51.3675 1150.02 540.547
2065 0 66.1213 11.7662 778 53.1221 1150.28 538.477
2066 0 70.2319 12.8859 905 51.4619 1150.29 536.484
2067 0 72.1661 12.0832 872 52.3521 1151.55 538.631
2068 0 74.2001 11.5229 855 53.352 1151.74 535.888
2069 0 76.222 11.9651 912 53.6129 1151.51 536.276
2070 0 77.451 12.2916 952 54.1681 1151.65 534.549
2071 0 79.3928 13.0239 1034 54.6992 1151.35 530.533
2072 0 82.1085 12.8123 1052 55.2044 1151.98 531.689
2073 0 88.1486 13.6928 1207 54.5866 1151.74 529.78
2074 0 88.1636 12.4428 1097 56.1468 1152.17 531.151
2075 1 49.1925 10.5301 518 56.5598 1150.99 550.278
2076 0 51.1354 11.0882 567 56.5168 1151.34 548.808
2077 0 57.2266 12.0224 688 54.8692 1151.39 546.167
2078 0 56.1932 11.2291 631 56.1094 1151.48 545.693
2079 0 58.161 12.0356 700 55.5114 1151.89 544.131
2080 0 60.2486 12.9796 782 54.3708 1151.7 543.513
2081 0 60.2094 13.3036 801 54.7553 1151.44 541.052
2082 0 64.1355 12.3021 789 55.7275 1152.45 540.479
2083 0 65.1592 12.738 830 55.4759 1152.19 539.326
2084 0 65.0387 12.3311 802 55.5711 1152.91 538.396
2085 0 68.0511 13.1813 897 54.6778 1152.59 536.117
2086 0 69.0853 12.4629 861 55.7247 1152.67 536.517
2087 0 69.06 12.6122 871 56.7107 1153.07 534.319
2088 0 75.0648 13.8947 1043 55.419 1153.3 534.758
2089 0 75.1102 13.1141 985 57.0812 1153.28 533.704
2090 0 79.0894 13.6554 1080 56.1833 1153.72 533.29
2091 0 80.0791 13.2369 1060 57.4009 1153.34 529.847
2092 0 84.0784 13.7372 1155 56.9758 1154.32 529.98
2093 0 85.1097 14.6282 1245 57.012 1154.35 525.876
2094 0 89.1475 13.8086 1231 57.8562 1154.44 526.673
2095 0 91.146 13.7911 1257 58.9069 1154.91 523.71
2096 0 97.2491 14.5194 1412 57.5779 1155.18 522.254
2097 1 56.1699 10.6819 600 58.5967 1155.31 544.24
2098 0 56.1685 10.9848 617 59.3679 1155.13 544.102
2099 0 59.2117 11.9402 707 58.2249 1155.7 541.864
2100 0 61.2293 12.8697 788 58.3794 1155.88 538.439
2101 0 63.1024 13.5177 853 57.3001 1155.23 540.899
2102 0 63.0848 11.8729 749 60.1949 1155.54 540.67
2103 0 63.0536 13.6233 859 58.9523 1155.37 538.711
2104 0 66.2095 13.6385 903 58.6578 1156.23 538.347
2105 0 66.2449 12.9821 860 60.4198 1156.19 536.53
2106 0 70.0327 13.6936 959 58.6548 1156.67 536.125
2107 0 73.193 14.6052 1069 56.9785 1156.82 535.862
2108 0 75.2442 14.9912 1128 56.7243 1157 534.491
2109 0 77.1705 15.0576 1162 57.0404 1157.08 531.713
2110 0 79.2357 13.9079 1102 58.2858 1156.81 531.153
2111 0 81.1969 14.5572 1182 57.8968 1157.13 528.079
2112 0 86.1266 14.2 1223 57.946 1156.91 527.419
2113 0 88.1449 14.2152 1253 58.0335 1156.89 528.176
2114 0 90.1981 13.293 1199 59.2143 1157.11 527.234
2115 0 93.1991 13.9486 1300 58.4038 1156.8 524.379
2116 0 98.1765 15.1767 1490 56.0121 1157.03 523.398
2117 1 55.1905 11.3244 625 57.8688 1157.28 543.414
2118 0 53.1348 10.9909 584 59 1157.33 541.324
2119 0 57.3506 11.3338 650 58.1046 1157.29 541.317
2120 0 59.3579 11.5907 688 57.6221 1157.16 541.121
2121 0 61.0633 13.1012 800 57.4288 1156.43 540.361
2122 0 62.0525 13.4563 835 57.4012 1156.11 539.69
2123 0 66.1319 13.4126 887 56.6268 1156.43 539.347
2124 0 66.0606 13.0335 861 57.7398 1156.16 538.124
2125 0 70.1272 14.5735 1022 55.5333 1156.24 537.411
2126 0 71.1923 13.2739 945 56.9873 1155.69 536.891
2127 0 72.1027 13.5085 974 56.9774 1155.09 536.55
2128 0 75.084 12.9588 973 57.1161 1155.1 534.816
2129 0 76.1373 12.7795 973 57.7112 1154.69 534.768
2130 0 79.0664 13.2294 1046 57.0239 1154.5 531.839
2131 0 82.144 13.2329 1087 56.6688 1154.72 530.848
2132 0 85.2116 13.2376 1128 56.5434 1154.84 528.765
2133 1 46.2031 12.1204 560 55.2839 1155.2 549.459
2134 0 46.1235 11.3174 522 56.5192 1155.86 548.632
2135 0 49.3292 12.0618 595 55.721 1156.33 547.61
2136 0 51.2888 12.4004 636 54.8491 1155.35 546.006
2137 0 49.2382 11.9216 587 54.1601 1155.93 545.622
2138 0 52.1295 12.9869 677 53.5524 1155.14 544.065
2139 0 55.0465 12.4259 684 54.5088 1153.57 548.276
2140 0 55.0828 13.1983 727 54.3879 1153.31 547.107
2141 0 58.122 12.4738 725 54.5559 1153.4 545.141
2142 0 59.1885 12.3335 730 54.8685 1153.47 544.416
2143 0 62.1642 12.7726 794 53.7179 1153.78 541.573
2144 0 62.1642 12.7726 794 141.343 1154.78 541.573
2145 0 62.1642 12.7726 794 140.781 1155.78 541.573
2146 0 67.2535 12.386 833 53.4262 1153.38 542.302
2147 0 65.1345 13.6333 888 52.6588 1153.22 541.22
2148 0 68.0859 13.0864 891 52.8743 1153.11 541.508
2149 0 71.0896 13.7995 981 52.2273 1153.7 537.24
2150 0 73.1596 12.4112 908 53.5881 1154.06 536.932
2151 0 77.302 13.4667 1041 52.0768 1153.4 536.275
2152 0 79.2137 13.1038 1038 52.578 1153.6 535.646
2153 0 82.221 12.3569 1016 52.6299 1153.41 535.675
2154 0 83.3467 12.8499 1071 52.8058 1153.24 531.893
2155 0 85.2651 12.2911 1048 53.0277 1153 532.853
2156 0 89.2802 13.1608 1175 51.8706 1152.89 529.946
2157 1 48.2229 11.6957 564 52.3245 1152.46 549.621
2158 0 48.1559 12.0235 579 51.3765 1152.28 551.472
2159 0 50.0705 10.605 531 52.9058 1152.42 551.235
2160 0 55.0326 11.9565 658 51.6763 1152.96 549.03
2161 0 56.401 12.9785 732 50.8101 1152.26 545.605
2162 0 60.071 13.4674 809 49.4981 1152.78 546.918
2163 0 57.11 12.1695 695 51.8014 1152.58 543.99
2164 0 62.1172 13.0077 808 50.6671 1152.23 543.995
2165 0 64.1053 13.8678 889 50.0922 1152.19 544.769
2166 0 68.1136 14.5786 993 49.4703 1152.45 543.557
2167 0 68.0353 13.493 918 51.476 1152.43 542.097
2168 0 73.135 14.6305 1070 49.4869 1152.64 542.912
2169 0 72.2152 14.4429 1043 51.0585 1152.27 542.157
2170 0 74.0929 14.5223 1076 51.5576 1152.4 539.586
2171 0 78.0537 15.0794 1177 51.1793 1152.44 537.104
2172 0 79.1047 14.0826 1114 52.6104 1152.14 537.369
2173 0 81.1148 14.1035 1144 53.1337 1152.63 536.495
2174 0 85.1751 13.936 1187 53.5762 1152.15 533.131
2175 0 88.1039 14.7099 1296 53.0201 1152.67 531.41
2176 0 91.1724 14.4342 1316 53.4468 1152.22 531.378
2177 0 93.2234 14.4706 1349 54.7168 1152.93 530.139
2178 0 98.2381 13.793 1355 55.3616 1152.9 529.692
2179 1 50.0511 12.9068 646 55.2059 1151.81 549.463
2180 0 54.1563 11.3376 614 57.5619 1152.47 549.086
2181 0 55.1074 13.3013 733 56.2251 1152.43 547.413
2182 0 59.0843 13.2184 781 55.7516 1152.55 546.768
2183 0 61.1983 13.2357 810 55.8074 1152.48 546.402
2184 0 64.0705 13.4851 864 55.6725 1152.82 544.448
2185 0 64.0806 13.9044 891 56.009 1152.67 544.262
2186 0 66.1316 14.4409 955 55.755 1153.04 542.089
2187 0 68.1253 13.6954 933 57.0161 1153.45 540.35
2188 0 72.2514 14.1312 1021 56.2684 1153.19 538.907
2189 0 74.1132 13.1286 973 57.4368 1153.4 538.802
2190 0 76.0322 14.6517 1114 56.7729 1153.32 536.549
2191 0 77.2326 13.2457 1023 58.8221 1154.21 537.001
2192 0 82.1328 15.0732 1238 57.0291 1154.09 534.003
2193 0 84.1645 14.9469 1258 57.473 1154.34 532.998
2194 0 86.0979 14.077 1212 58.9521 1154.71 531.821
2195 0 89.1282 14.4735 1290 58.6775 1154.89 530.884
2196 0 95.2499 14.2152 1354 58.4439 1155.44 529.261
2197 0 95.1992 13.435 1279 59.921 1155.1 527.737
2198 0 99.1978 14.5164 1440 59.0931 1155.68 523.856
2199 1 53.0973 11.526 612 61.0441 1155.88 546.606
2200 0 56.174 12.9419 727 59.4594 1156.1 544.752
2201 0 58.1007 13.8208 803 58.3611 1156.12 545.375
2202 0 61.0352 13.353 815 58.6491 1156.37 544.031
2203 0 62.103 13.3327 828 60.0447 1155.96 541.608
2204 0 62.103 13.3005 826 162.08 1155.94 541.605
2205 0 65.0887 13.7351 894 59.755 1155.74 540.292
2206 0 70.1817 13.75 965 59.0477 1155.98 539.599
2207 0 72.086 12.7625 920 60.4794 1156.3 537.895
2208 0 72.0486 13.4492 969 60.227 1156.23 537.239
2209 0 75.0608 13.3359 1001 60.6903 1156.73 535.217
2210 0 77.0439 12.72 980 61.701 1156.54 534.533
2211 0 79.0591 14.3564 1135 59.7806 1156.36 533.78
2212 0 83.1676 13.563 1128 59.3998 1156.88 532.646
2213 0 86.2328 14.2869 1232 58.9943 1156.58 531.819
2214 0 88.1055 13.393 1180 60.2644 1157.33 531.074
2215 0 90.1388 13.8675 1250 59.9176 1157.15 527.348
2216 0 95.1432 14.0315 1335 59.1625 1157.52 526.616
2217 0 97.2288 13.7614 1338 60.2294 1157.56 521.365
2218 0 102.198 15.0688 1540 57.3325 1158.28 520.577
2219 0 104.159 13.7866 1436 59.2263 1158.44 520.845
2220 1 57.3321 10.6049 608 59.6595 1157.56 543.727
2221 0 62.1912 11.8505 737 59.2307 1157.84 539.54
2222 0 63.3451 11.8557 751 59.3555 1158.14 540.142
2223 0 67.2487 13.2345 890 57.1933 1158.41 539.307
2224 0 68.1699 12.8356 875 57.4137 1158.51 537.589
2225 0 71.1348 13.2565 943 56.8706 1158.35 536.634
2226 0 71.1874 12.2775 874 58.3432 1158.25 535.62
2227 0 74.2313 12.5284 930 57.1151 1158.26 535.176
2228 0 69.2666 10.4812 726 61.0909 1158.47 526.073
2229 1 79.2696 13.2964 1054 58.1888 1158.29 530.216
2230 0 82.2714 13.1759 1084 58.1116 1158.24 530.869
2231 0 84.231 13.0118 1096 58.3887 1158.38 528.187
2232 0 87.1667 12.8489 1120 57.8938 1157.87 528.162
2233 0 92.267 13.8078 1274 56.8407 1157.85 524.976
2234 0 93.2353 13.1602 1227 57.6178 1156.96 524.122
2235 0 97.2421 13.0396 1268 58.2752 1156.75 519.436
2236 0 100.242 12.4897 1252 58.7468 1156.6 520.757
2237 0 104.319 12.5193 1306 58.441 1156.57 521.552
2238 1 58.0714 11.9853 696 57.6365 1156.45 543.441
2239 0 59.1189 12.0774 714 57.4482 1156.25 542.322
2240 0 61.2246 12.6746 776 57.0876 1156.34 541.589
2241 0 61.0892 12.4081 758 57.7718 1156.75 539.633
2242 0 64.3124 12.6881 816 57.2806 1156.2 539.333
2243 0 67.1459 13.3739 898 56.6481 1156.93 537.352
2244 0 69.2183 13.2335 916 56.8362 1157.55 536.331
2245 0 71.2961 12.8618 917 58.0284 1156.62 533.571
2246 0 71.2774 12.4163 885 59.1548 1155.56 535.51
2247 0 76.296 13.6049 1038 57.7014 1155.99 533.49
2248 0 76.2852 12.6892 968 58.6002 1155.25 535.216
2249 0 80.58 12.9188 1041 59.5303 1155.45 532.504
2250 0 79.1648 13.0993 1037 60.2083 1155.66 530.539
2251 0 83.2866 13.0513 1087 59.9218 1155.77 529.549
2252 0 86.2659 13.4584 1161 60.2946 1155.91 527.233
2253 0 90.189 14.4807 1306 58.7734 1155.22 526.476
2254 0 90.1524 12.9004 1163 61.963 1155.19 525.378
2255 0 95.2194 13.2956 1266 61.5972 1155.08 524.443
2256 0 98.3354 14.5319 1429 59.9139 1154.93 523.514
2257 0 99.39 14.1262 1404 61.3276 1154.6 521.543
2258 0 100.297 13.7591 1380 62.4819 1154.56 519.175
2259 0 106.263 13.6924 1455 61.8378 1154.28 515.669
2260 0 110.302 14.7504 1627 60.8439 1154.37 515.931
2261 0 110.262 14.4836 1597 62.3757 1154.34 513.441
2262 0 116.248 15.269 1775 60.7752 1154.71 512.265
2263 0 117.376 14.5175 1704 61.6303 1154.69 512.548
2264 0 122.237 14.6355 1789 62.095 1154.78 511.136
2265 0 123.258 14.7252 1815 62.6419 1155.07 508.966
2266 0 130.362 15.0274 1959 61.8545 1154.47 508.347
2267 0 132.283 14.5143 1920 63.1734 1155.41 505.629
2268 0 138.359 15.2935 2116 61.8932 1155.17 504.973
2269 0 141.243 14.599 2062 63.1833 1155.21 503.106
2270 0 143.381 14.995 2150 63.813 1155.16 498.72
2271 0 147.176 15.8314 2330 62.5734 1155.14 498.445
2272 0 153.219 15.3376 2350 62.8898 1155.22 494.005
2273 0 157.312 14.6842 2310 64.3862 1154.83 491.729
2274 1 80.1291 11.5189 923 65.3965 1154.35 531.574
2275 0 84.2401 12.6899 1069 63.609 1154.1 530.823
2276 0 86.1605 13.1847 1136 63.9296 1154.42 526.864
2277 0 88.1801 12.7693 1126 64.127 1154 527.721
2278 0 88.1801 12.7353 1123 163.053 1152.01 527.63
2279 0 97.1804 13.5521 1317 62.6264 1154.42 523.965
2280 0 101.166 13.5026 1366 62.7108 1154.21 522.144
2281 0 103.281 13.7392 1419 62.3813 1154.33 520.036
2282 0 106.349 12.8727 1369 63.5888 1154.35 520.113
2283 0 110.245 13.8419 1526 62.1147 1153.94 516.164
2284 0 113.255 13.7742 1560 62.4058 1154.2 517.319
2285 0 118.299 14.0407 1661 61.7628 1153.8 513.647
2286 0 119.207 13.3968 1597 62.6043 1153.57 513.463
2287 0 123.221 13.4149 1653 62.7653 1153.1 510.964
2288 0 127.322 13.7604 1752 62.4144 1153.56 510.189
2289 0 132.403 13.9423 1846 62.0368 1153.44 508.334
2290 0 135.393 13.7747 1865 61.7973 1153.47 506.77
2291 0 141.216 14.106 1992 60.9413 1153.22 506.198
2292 0 145.25 14.3889 2090 59.8957 1153.6 501.253
2293 0 150.232 14.7838 2221 59.4228 1153.07 499.973
2294 0 155.256 15.1427 2351 59.2216 1152.63 497.169
2295 0 157.183 13.7801 2166 60.5679 1153.43 497.269
2296 0 163.25 13.5253 2208 60.3474 1153.62 492.388
2297 1 91.151 10.4661 954 60.3428 1153.25 531.108
2298 0 94.076 11.799 1110 59.1973 1153.38 529.456
2299 0 97.1209 12.3454 1199 58.1226 1153.58 526.433
2300 0 99.2488 13.1186 1302 57.0568 1153.19 525.731
2301 0 104.089 13.354 1390 56.013 1152.96 523.677
2302 0 107.1 12.549 1344 57.1771 1153.42 521.056
2303 0 110.148 12.7193 1401 57.3919 1153.38 519.934
2304 0 115.3 12.9575 1494 56.6486 1153.35 515.476
2305 0 117.358 13.1563 1544 56.296 1153.46 512.57
2306 0 122.243 13.1787 1611 55.8771 1153.26 511.038
2307 0 126.084 13.6417 1720 55.3796 1153.3 509.141
2308 1 56.039 10.9924 616 53.0227 1152.16 544.885
2309 0 59.1137 10.9112 645 52.4217 1152.45 546.471
2310 0 59.0928 11.2873 667 53.4408 1151.96 545.693
2311 0 62.0955 12.7545 792 52.0189 1152.07 543.971
2312 0 64.2458 12.4522 800 52.5088 1152.51 544.19
2313 0 64.2703 11.0004 707 54.0651 1154 540.547
2314 0 67.1913 10.9687 737 53.7558 1152.71 542.176
2315 0 69.1313 12.5847 870 52.4908 1153.25 537.946
2316 0 70.3278 11.6028 816 54.0319 1153.17 538.31
2317 0 73.1401 12.2231 894 53.3993 1154.19 537.473
2318 0 73.215 11.4731 840 54.5583 1154.59 536.073
2319 0 75.1374 12.2176 918 53.8235 1154.62 535.655
2320 0 76.0961 11.5118 876 55.1381 1154.91 535.489
2321 0 78.1862 12.8667 1006 53.9692 1154.96 530.315
2322 0 83.4541 11.8508 989 54.1699 1154.84 532.405
2323 0 83.4486 12.4747 1041 54.243 1154.95 530.727
2324 0 87.2408 11.9325 1041 54.8069 1155.24 527.764
2325 0 87.2408 11.9554 1043 139.854 1155.26 527.769
2326 1 53.4431 11.6198 621 52.8229 1154.15 540.797
2327 0 54.3195 11.6717 634 53.3675 1155.44 540.388
2328 0 56.1136 11.6371 653 53.1011 1156.1 540.854
2329 0 57.163 11.3885 651 53.0123 1156.55 541.673
2330 0 61.2286 11.7102 717 51.1213 1154.92 541.782
2331 0 62.1589 10.9236 679 52.4315 1155.56 539.212
2332 0 63.2673 11.2854 714 52.3403 1155.63 539.712
2333 0 66.2092 11.8261 783 51.9029 1155.38 538.923
2334 0 68.1423 13.2957 906 50.9558 1155.48 538.119
2335 0 68.264 11.4555 782 53.5396 1155.71 535.995
2336 0 71.2403 12.6894 904 52.4126 1155.8 536.145
2337 0 73.2118 13.099 959 52.0115 1155.73 534.044
2338 0 74.2029 12.3176 914 53.093 1156.04 534.131
2339 0 75.1625 12.6925 954 53.5556 1156.35 531.447
2340 0 79.1583 13.0498 1033 53.1442 1156.26 532.42
2341 0 82.1387 13.3433 1096 52.9325 1156.25 530.297
2342 0 83.1105 12.8504 1068 53.6592 1157.03 529.781
2343 0 82.2141 12.6377 1039 54.4649 1157.31 527.254
2344 0 88.1987 12.4605 1099 54.1893 1157.52 526.942
2345 0 87.1668 12.7113 1108 54.4034 1157.55 523.165
2346 0 93.4929 13.1347 1228 53.7655 1158 521.866
2347 0 95.2566 12.881 1227 53.9299 1157.96 522.689
2348 0 95.2566 12.902 1229 152.191 1157.94 522.494
2349 0 100.599 12.674 1275 54.3184 1158.6 519.508
2350 0 104.378 13.729 1433 53.4668 1158.61 517.943
2351 0 106.33 13.1196 1395 54.2903 1158.05 517.051
2352 0 108.37 14.2844 1548 53.7326 1158.4 514.052
2353 0 111.225 13.8728 1543 54.3953 1158.41 512.351
2354 0 113.233 12.9732 1469 55.4466 1157.91 513.272
2355 0 117.335 13.8067 1620 54.3142 1157.91 509.185
2356 0 119.339 13.1307 1567 55.3357 1158.03 508.899
2357 0 121.284 14.2888 1733 54.2787 1157.91 505.94
2358 0 124.146 14.1285 1754 54.9806 1158.08 505.038
2359 0 128.209 12.8462 1647 55.6588 1158.06 504.135
2360 0 130.182 12.7821 1664 56.5475 1157.52 498.492
2361 0 134.158 13.3499 1791 56.33 1157.32 497.517
2362 0 142.238 14.075 2002 55.045 1157.5 497.258
2363 1 79.1126 9.7456 771 55.0493 1157.26 529.457
2364 0 84.0736 10.7763 906 54.2759 1156.84 526.98
2365 0 86.1041 12.6707 1091 53.3896 1157.09 523.62
2366 0 90.1307 13.1476 1185 53.0835 1156.94 522.024
2367 0 92.2164 13.3816 1234 53.2075 1156.39 521.173
2368 0 95.1664 11.6533 1109 55.3841 1156.17 519.004
2369 0 99.3013 12.9001 1281 54.3482 1156.3 516.068
2370 0 101.314 11.8444 1200 55.445 1156.1 517.011
2371 0 106.298 13.1329 1396 53.4241 1155.62 516.218
2372 0 106.297 12.0793 1284 55.5343 1155.32 513.161
2373 0 111.211 12.8135 1425 54.7151 1155.2 508.904
2374 0 115.179 12.9276 1489 54.4862 1154.94 508.514
2375 0 116.237 12.1734 1415 55.4099 1155.23 506.285
2376 0 122.315 13.3344 1631 54.3053 1155.21 505.467
2377 0 127.578 12.9176 1648 54.4418 1155.02 504.661
2378 1 70.2118 10.3401 726 53.5413 1155.02 534.691
2379 0 72.1986 10.5404 761 53.2536 1154.68 532.194
2380 0 76.1829 10.5798 806 53.1973 1155.61 530.802
2381 0 79.1685 11.4818 909 49.6689 1154.69 528.858
2382 0 83.1973 12.5004 1040 49.2712 1155.36 530.195
2383 0 84.3449 11.1921 944 50.2924 1155.41 528.977
2384 0 88.2402 12.5793 1110 48.9144 1155.54 531.47
2385 0 88.324 12.7938 1130 49.0894 1155.81 526.877
2386 0 90.2266 12.1029 1092 49.9441 1155.95 527.86
2387 0 95.2916 12.446 1186 48.9325 1156.29 528.149
2388 0 100.215 13.3713 1340 48.2104 1155.98 525.095
2389 0 102.28 12.1529 1243 49.4336 1155.24 524.219
2390 0 107.274 13.4982 1448 48.3494 1155.4 519.619
2391 0 108.225 12.1414 1314 49.1735 1155.31 519.148
2392 0 112.15 13.6691 1533 47.7378 1154.64 517.373
2393 0 115.282 12.5951 1452 48.7844 1155.29 515.438
2394 0 119.144 12.9339 1541 48.209 1155.04 515.452
2395 1 64.2948 10.4985 675 48.6904 1155.45 541.908
2396 0 67.2746 12.278 826 46.4867 1155.81 541.407
2397 0 70.3093 11.4636 806 47.5906 1155.66 540.46
2398 0 72.21 11.882 858 47.676 1155.72 537.226
2399 0 75.2579 13.2876 1000 46.836 1155.75 535.132
2400 0 74.2556 12.8879 957 48.1264 1154.96 535.18
2401 0 77.2784 12.1509 939 48.4036 1155 534.67
2402 0 80.2944 12.5289 1006 48.8698 1154.99 532.2
2403 0 85.2974 13.8926 1185 47.103 1154.66 533.8
2404 0 85.3876 13.7022 1170 48.1026 1154.04 530.586
2405 0 89.3256 12.6727 1132 48.8869 1153.99 530.577
2406 0 91.265 12.7979 1168 49.2543 1154.29 528.64
2407 0 91.3384 12.7438 1164 50.1675 1153.9 527.814
2408 0 95.371 13.264 1265 50.1565 1153.9 526.52
2409 0 97.5169 11.7518 1146 51.5349 1153.58 526.498
2410 0 102.308 13.6451 1396 50.442 1153.36 523.568
2411 0 105.374 14.4343 1521 49.9139 1153.59 521.552
2412 0 105.516 12.9553 1367 52.0307 1153.67 518.825
2413 0 112.443 13.4646 1514 51.5872 1153.48 515.772
2414 0 113.503 14.123 1603 49.9283 1153.42 510.509
2415 1 65.4198 8.6671 567 51.582 1152.8 537.917
2416 0 66.3488 8.59096 570 52.8667 1153.21 535.604
2417 0 70.09 11.9275 836 50.177 1153.93 537.233
2418 0 71.0773 13.9426 991 49.0252 1153 534.523
2419 0 72.0582 12.0597 869 50.5478 1154.16 534.359
2420 0 76.125 12.5583 956 50.1663 1154.09 532.271
2421 0 77.1783 13.7474 1061 49.4411 1153.89 529.877
2422 0 78.2798 12.0848 946 51.1681 1153.64 529.928
2423 0 81.3027 12.5457 1020 50.8039 1153.04 529.195
2424 0 85.5536 12.0977 1035 51.3816 1152.7 526.973
2425 0 85.2754 11.9026 1015 52.2847 1153.07 524.338
2426 0 86.2439 11.2124 967 53.1324 1153.03 523.662
2427 0 92.3879 14.1902 1311 50.2578 1153.06 521.31
2428 0 92.3879 14.1902 1311 156.534 1154.06 521.27
2429 0 97.3571 13.3015 1295 51.0564 1153.2 520.43
2430 0 101.578 12.9851 1319 51.6922 1152.93 515.789
2431 0 102.333 13.0359 1334 51.7211 1152.61 517.506
2432 0 107.341 12.437 1335 52.37 1153.41 517.061
2433 0 107.296 13.9241 1494 51.5355 1153.39 513.153
2434 0 114.223 13.6662 1561 51.5061 1153.55 511.705
2435 0 116.376 12.6916 1477 52.1591 1153.56 514.243
2436 1 68.2315 11.0946 757 51.7741 1153.71 533.964
2437 0 67.1926 11.921 801 51.3071 1153.62 535.639
2438 0 70.157 11.0894 778 51.7892 1154.1 535.38
2439 0 72.0955 11.0409 796 51.6558 1154.09 534.275
2440 0 76.1824 12.772 973 50.1213 1154.12 532.319
2441 0 79.4342 12.8534 1021 50.6876 1153.5 533.236
2442 0 82.337 13.5176 1113 50.779 1153.86 531.48
2443 0 83.3214 12.2538 1021 52.0147 1153.76 534.292
2444 0 86.241 13.1492 1134 51.5238 1153.77 529.582
2445 0 90.5278 13.112 1187 51.4549 1153.86 528.612
2446 0 93.4218 13.2945 1242 51.6892 1153.59 525.036
2447 0 95.473 13.1765 1258 52.0135 1153.39 522.746
2448 0 96.6082 13.208 1276 52.4318 1153.21 522.597
2449 0 102.556 13.027 1336 52.4566 1153.2 521.743
2450 0 102.556 13.1147 1345 158.764 1154.19 521.906
2451 0 107.509 13.8314 1487 52.7007 1153.52 516.957
2452 1 58.4624 10.2459 599 53.606 1152.59 543.424
2453 0 58.4467 10.8646 635 54.1291 1152.95 542.683
2454 0 62.3257 11.3115 705 51.9064 1153.44 540.224
2455 0 67.1557 12.27 824 50.6711 1154.15 541.254
2456 0 64.198 11.1374 715 52.814 1154.44 541.236
2457 0 67.21 11.531 775 52.9445 1154.36 538.773
2458 0 70.2492 11.7154 823 52.7072 1154.75 538.006
2459 0 72.2871 13.4326 971 51.3574 1154.99 535.833
2460 0 72.2136 11.009 795 54.1585 1155.09 536.323
2461 0 75.2876 11.8213 890 53.4034 1154.57 535.308
2462 0 77.3231 13.2043 1021 52.3487 1154.79 534.298
2463 0 81.2099 13.8161 1122 51.5009 1155.04 533.769
2464 0 82.4372 12.1547 1002 53.2585 1156.05 532.048
2465 0 82.2762 12.3365 1015 53.5626 1156.09 531.293
2466 0 90.4611 13.597 1230 51.6585 1156.45 529.221
2467 0 90.4055 13.362 1208 52.3824 1156.95 528.404
2468 0 94.465 13.4547 1271 51.8009 1157.08 525.042
2469 0 96.3751 13.3956 1291 52.0201 1156.91 524.546
2470 0 98.4523 12.8895 1269 53.2254 1157.42 518.508
2471 0 100.428 13.1835 1324 52.7613 1157.37 519.12
2472 0 107.501 14.744 1585 50.4555 1157.62 517.979
2473 0 108.519 13.4262 1457 51.93 1158.03 517.779
2474 0 111.435 13.2185 1473 52.2471 1158.25 515.028
2475 0 115.425 13.4893 1557 51.9916 1158.08 514.301
2476 0 116.396 12.0451 1402 53.1555 1158.08 513.701
2477 0 122.505 12.979 1590 52.2384 1157.9 512.757
2478 0 123.312 13.77 1698 51.0889 1157.74 508.726
2479 0 127.42 13.7105 1747 51.2833 1157.77 505.088
2480 0 132.397 13.8598 1835 51.2169 1157.61 503.838
2481 0 137.386 12.5705 1727 52.1754 1157.89 502.827
2482 1 73.1922 10.7115 784 51.7666 1157.15 534.4
2483 0 74.0935 11.4855 851 51.6404 1157.38 532.611
2484 0 76.1419 11.0583 842 50.7221 1157.04 530.82
2485 0 78.0408 10.6226 829 51.3076 1157.7 529.335
2486 0 82.2552 12.364 1017 49.645 1157.01 532.455
2487 0 84.1842 13.0785 1101 49.6848 1157.39 527.638
2488 0 87.2056 12.1552 1060 50.1575 1157.49 527.916
2489 0 90.1919 13.1276 1184 49.3159 1157.57 526.529
2490 0 93.2708 12.7693 1191 50.2376 1157.31 526.06
2492 0 96.1908 12.392 1192 50.5839 1156.89 522.095
2493 0 97.2554 12.6471 1230 50.2951 1157.35 521.14
2494 0 101.363 13.5454 1373 49.7611 1157.05 519.644
2495 0 104.121 13.1674 1371 50.1306 1157.07 518.871
2496 0 109.203 13.5345 1478 49.4087 1157.15 518.151
2497 0 110.377 12.8379 1417 50.1235 1157.23 514.922
2498 0 116.423 13.6399 1588 49.4937 1157.52 509.846
2499 0 120.333 13.9778 1682 49.2259 1157.6 508.961
2500 0 123.478 12.7229 1571 50.1674 1157.36 508.039
2501 0 128.66 13.1665 1694 49.6464 1157.09 502.998
2502 0 133.462 13.989 1867 49.166 1156.8 501.653
2503 0 135.424 13.2399 1793 49.9665 1156.71 501.791
2504 0 140.267 14.4439 2026 49.1244 1156.65 497.742
2505 0 143.431 13.9022 1994 50.1209 1157.1 494.351
2506 0 147.508 13.4975 1991 50.6459 1156.57 492.731
2507 1 83.3039 11.26 938 50.9478 1156.71 526.664
2508 0 86.6212 11.2097 971 51.6684 1156.23 525.574
2509 0 88.3168 12.1155 1070 51.5122 1156.02 523.434
2510 0 91.1877 13.1158 1196 51.1781 1155.91 524.263
2511 0 96.2495 12.613 1214 52.4209 1155.86 525.666
2512 0 98.5748 13.3706 1318 51.5637 1156.1 498.792
2513 0 101.632 13.9522 1418 51.3385 1155.88 497.41
2514 0 103.296 12.7595 1318 53.0615 1155.73 497.058
2515 0 108.411 14.7771 1602 50.8689 1155.88 494.858
2516 0 109.362 13.7434 1503 52.678 1156 490.317
2517 0 114.361 14.2094 1625 51.8178 1156.12 492.794
2518 0 115.354 13.9224 1606 52.7266 1156 489.331
2519 0 119.355 13.7489 1641 52.1932 1155.8 491.958
2520 0 124.293 14.2164 1767 51.9281 1156.8 489.651
2521 0 126.535 13.6247 1724 52.9084 1156.63 486.077
2522 0 131.467 14.2774 1877 51.9489 1156.81 484.599
2523 1 72.364 11.2487 814 53.64 1156.65 514.814
2524 0 74.3993 12.2851 914 53.442 1155.89 511.104
2525 0 77.4623 12.3673 958 53.1023 1155.63 510.692
2526 0 80.4295 12.8809 1036 52.8031 1155.66 508.706
2527 0 81.2124 14.0988 1145 51.641 1155.78 508.066
2528 0 83.4795 13.3446 1114 52.3842 1155.27 507.45
2529 0 88.3108 14.6754 1296 50.6528 1156.11 505.001
2530 0 89.303 13.8853 1240 51.6839 1155.57 506.086
2531 0 88.2479 12.5102 1104 53.664 1155.3 503.006
2532 0 95.2721 14.0125 1335 51.8397 1155.7 502.636
2533 0 98.4614 13.6094 1340 52.041 1155.68 501.471
2534 0 99.2711 14.5561 1445 51.3433 1155.4 499.388
2535 0 103.465 14.0917 1458 51.5857 1154.91 497.125
2536 0 108.383 14.0243 1520 51.1178 1154.44 500.255
2537 0 111.424 13.7134 1528 51.6067 1154.85 497.38
2538 1 62.1191 11.655 724 53.6036 1154.87 520.843
2539 0 65.199 11.902 776 52.9716 1154.93 520.45
2540 0 66.2554 12.9801 860 52.0012 1154.49 519.624
2541 0 65.3456 12.365 808 53.5755 1153.76 517.048
2542 0 69.2047 13.0771 905 52.7746 1153.93 515.981
2543 0 71.2608 14.482 1032 51.4574 1153.68 518.36
2544 0 74.3471 12.6434 940 53.3628 1154.34 517.05
2545 0 76.3313 14.0309 1071 52.0336 1154.32 514.313
2546 0 78.2149 13.8081 1080 52.7667 1154.48 516.086
2547 0 80.2454 13.683 1098 53.071 1154.45 517.77
2548 0 84.3227 13.9583 1177 52.8853 1154.34 516.398
2549 0 87.3411 14.5636 1272 52.2469 1154.49 516.885
2550 0 87.2224 14.721 1284 52.609 1154.38 516.097
2551 0 91.3361 14.255 1302 52.7512 1154.02 519.393
2552 0 95.4395 15.8111 1509 50.9854 1153.71 520.671
2553 0 98.3525 14.9259 1468 52.3529 1154.1 523.975
2554 0 100.227 14.4272 1446 53.3077 1153.89 520.202
2555 0 104.417 15.8499 1655 51.8689 1154.15 519.65
2556 0 107.444 14.8263 1593 53.2241 1154.37 517.41
2557 0 111.465 15.1348 1687 53.045 1154.33 515.261
2558 1 60.2266 11.8552 714 53.8067 1153.69 544.227
2559 0 60.5255 12.2758 743 54.2719 1153.69 541.42
2560 0 61.2548 13.1745 807 53.5452 1154.12 541.657
2561 0 64.2364 13.7928 886 53.2449 1154.25 540.293
2562 0 68.461 14.154 969 52.4118 1153.99 538.541
2563 0 68.3215 13.5243 924 53.1688 1154.03 538.29
2564 0 72.565 13.6705 992 53.0746 1154 536.899
2565 0 71.4591 12.7486 911 54.6048 1153.61 536.947
2566 0 75.5313 14.7356 1113 53.4753 1153.66 536.148
2567 0 76.2776 13.818 1054 55.2476 1153.53 533.995
2568 0 81.5546 13.7209 1119 55.3664 1153.46 532.029
2569 0 83.528 14.115 1179 54.8846 1153.5 529.78
2570 0 86.457 14.3424 1240 54.7742 1153.19 528.452
2571 0 90.427 14.2104 1285 54.6078 1153.08 528.004
2572 0 93.6207 13.8324 1295 55.1544 1152.94 527.189
2573 0 95.554 14.6514 1400 54.56 1153 525.362
2574 0 100.463 14.9906 1506 53.9681 1153.42 524.023
2575 0 101.425 13.823 1402 55.7175 1152.95 522.904
2576 1 60.3075 12.5689 758 54.19 1152.97 544.071
2577 0 58.4914 11.6085 679 55.1915 1152.5 544.399
2578 0 63.2778 11.8367 749 54.49 1152.91 543.183
2579 0 65.3087 12.2955 803 54.0112 1152.74 540.772
2580 0 66.6881 12.7009 847 54.1263 1152.79 539.179
2581 0 70.6854 12.8032 905 53.6884 1152.81 539.878
2582 0 71.7117 12.7036 911 53.584 1152.39 538.73
2583 0 74.6617 12.9384 966 53.0787 1152.49 536.537
2584 0 76.652 14.0375 1076 52.0892 1153.36 533.851
2585 0 81.5934 13.8124 1127 51.7631 1153.93 532.934
2586 0 79.5681 12.882 1025 53.3415 1154 532.229
2587 0 85.7839 13.5457 1162 52.5645 1154.08 530.341
2588 0 87.689 13.5251 1186 52.7884 1154.03 528.275
2589 0 90.446 13.6324 1233 52.6561 1154.05 527.403
2590 0 94.4544 14.8749 1405 51.4249 1154.11 524.979
2591 0 98.6836 14.3286 1414 51.9696 1154.08 525.431
2592 1 54.5372 11.7351 640 52.4938 1153.64 546.219
2593 0 55.3818 12.0617 668 52.5524 1154.02 544.519
2594 0 56.3252 11.114 626 54.0831 1154 543.687
2595 0 58.3651 12.5075 730 52.863 1154.37 544.285
2596 0 59.412 13.0277 774 53.2868 1154.49 543.806
2597 0 59.4435 13.0712 777 53.955 1154.82 540.714
2598 0 61.328 13.8436 849 53.7326 1155.08 538.353
2599 0 63.1855 13.3417 843 54.2372 1154.99 538.499
2600 0 65.5199 12.729 834 55.2794 1155.32 537.688
2601 0 67.5117 14.2198 960 53.7771 1155.84 538.539
2602 0 70.4146 13.7045 965 54.4249 1156.21 535.522
2603 0 72.4877 14.43 1046 53.9771 1156.34 536.028
2604 0 73.3361 13.2404 971 55.8136 1155.9 534.618
2605 0 75.2388 14.1151 1062 55.0678 1156.29 533.161
2606 0 78.4728 13.801 1083 55.8393 1156.52 532.779
2607 0 79.3729 13.5563 1076 56.5678 1156.63 531.147
2608 0 82.4876 14.2809 1178 55.9958 1156.77 529.538
2609 0 85.5533 14.8329 1269 56.0181 1157.1 528.266
2610 0 88.596 14.5153 1286 56.063 1157.81 527.215
2611 0 90.5353 14.2817 1293 56.8391 1157.81 525.581
2612 0 93.602 14.551 1362 56.7952 1157.51 521.997
2613 0 97.555 14.1766 1383 57.1656 1157.65 520.031
2614 0 99.5033 14.09 1402 57.6398 1158.16 520.115
2615 0 101.456 14.3215 1453 57.905 1158.02 520.243
2616 0 107.442 15.9529 1714 55.7159 1158.91 514.7
2617 0 110.49 14.7163 1626 57.3167 1158.24 516.196
2618 0 113.352 14.4418 1637 57.7062 1158.43 512.425
2619 0 116.527 13.2416 1543 58.5781 1158.73 516.848
2620 1 63.3772 13.6958 868 58.4977 1158.56 537.962
2621 0 66.2289 12.6833 840 59.3143 1158.22 537.767
2622 0 69.4628 13.6908 951 58.6246 1158.82 535.505
2623 0 73.3413 14.9302 1095 56.7826 1158.82 534.323
2624 0 76.2581 14.0969 1075 57.9442 1158.56 532.446
2625 0 76.5038 13.9601 1068 58.4504 1158.46 531.452
2626 0 77.2884 14.53 1123 58.3313 1158.71 530.486
2627 0 81.3634 14.2693 1161 57.59 1158.64 530.035
2628 0 85.5071 14.9578 1279 56.4597 1158.55 527.398
2629 0 87.7351 14.2132 1247 57.7634 1158.36 525.688
2630 0 89.5189 14.0752 1260 58.05 1158.26 524.656
2631 0 93.5631 14.215 1330 57.6286 1158.01 521.762
2632 0 96.5 13.513 1304 58.194 1157.79 520.339
2633 0 99.3193 13.8241 1373 57.8136 1158.26 520.618
2634 0 104.477 16.2046 1693 54.6243 1158.02 517.058
2635 0 106.73 15.0379 1605 56.1308 1157.71 514.199
2636 1 61.4086 12.7507 783 57.8097 1158.18 538.659
2637 0 64.3515 13.3641 860 56.893 1158.07 537.596
2638 0 65.3868 13.9784 914 56.1772 1158.13 535.66
2639 0 66.3229 14.4294 957 55.6991 1158.2 535.096
2640 0 70.3802 16.2404 1143 53.0009 1158.56 531.34
2641 0 69.391 14.2237 987 56.4286 1158.12 530.734
2642 0 73.4087 13.8676 1018 55.9745 1157.84 533.565
2643 0 73.3833 14.4583 1061 56.8652 1157.79 529.341
2644 0 76.4243 14.2232 1087 56.7544 1157.59 529.095
2645 0 78.4365 14.7763 1159 55.887 1157.58 527.11
2646 0 82.4217 14.171 1168 55.7748 1157.24 528.496
2647 0 85.4639 14.6729 1254 55.6515 1157.39 526.326
2648 0 86.4063 13.9342 1204 56.5415 1157.02 522.96
2649 0 91.1842 15.0684 1374 54.8341 1157.15 524.878
2650 0 95.3138 14.3211 1365 53.3978 1156.76 521.675
2651 0 97.335 14.558 1417 53.0064 1157.15 521.582
2652 0 99.3941 15.0009 1491 52.5708 1156.69 519.187
2653 0 103.716 14.9253 1548 52.4089 1157.03 516.433
2654 0 107.429 15.5731 1673 51.642 1157.58 515.448
2655 0 109.3 14.8399 1622 52.5191 1157.31 515.105
2656 1 61.3194 12.3615 758 53.4591 1157.81 538.468
2657 0 65.2296 11.8504 773 52.8642 1157.65 538.369
2658 0 64.2281 12.767 820 52.6061 1157.24 536.178
2659 0 67.1867 11.6839 785 53.2395 1157.18 535.958
2660 0 70.2098 12.4484 874 52.5835 1156.93 536.238
2661 0 71.1582 13.7721 980 51.6061 1156.74 534.856
2662 0 74.1873 14.5173 1077 50.5747 1156.86 530.963
2663 0 76.198 13.3337 1016 51.3396 1156.59 534.382
2664 0 80.1762 13.4828 1081 51.2757 1156.54 529.538
2665 0 80.2008 14.6881 1178 49.8616 1156.18 529.34
2666 0 85.3081 13.1875 1125 50.9769 1156.41 528.11
2667 0 88.2843 14.3627 1268 49.5686 1155.76 525.734
2668 0 91.2376 14.5006 1323 49.288 1156.55 524.875
2669 0 96.2399 13.3728 1287 50.094 1156.21 523.632
2670 0 96.2399 13.3624 1286 140.124 1157.22 523.648
2671 0 101.4 12.929 1311 50.6659 1156.34 519.361
2672 0 105.263 14.079 1482 49.6923 1156.45 515.998
2673 0 108.105 13.6442 1475 50.3444 1156.01 515.619
2674 0 112.171 14.469 1623 49.3068 1156.07 514.97
2675 0 117.326 14.2595 1673 49.2857 1156.14 510.555
2676 0 122.245 14.0538 1718 49.4156 1156.21 512.189
2677 0 126.324 14.542 1837 48.9042 1156.27 509.347
2678 0 129.278 12.9178 1670 50.3395 1155.73 508.74
2679 0 135.265 13.4624 1821 49.682 1155.76 502.214
2680 0 141.298 15.0816 2131 48.3679 1155.62 499.543
2681 0 146.262 15.1578 2217 48.1791 1155.59 499.009
2682 0 148.369 12.725 1888 50.545 1155.39 496.466
2683 1 80.1602 13.211 1059 48.899 1155.17 530.178
2684 0 86.2466 14.0527 1212 48.0611 1155.25 528.116
2685 0 87.2474 13.5706 1184 48.8725 1155.34 524.469
2686 0 90.3449 12.5519 1134 50.0758 1155.23 525.668
2687 0 92.3201 13.5398 1250 49.5728 1155.7 521.964
2688 0 96.6103 14.1186 1364 48.9648 1155.5 519.334
2689 0 98.2282 12.6644 1244 50.3722 1155.05 520.999
2690 0 103.365 14.028 1450 49.0821 1155.1 518.291
2691 0 105.385 13.4554 1418 49.9281 1154.56 514.106
2692 0 111.581 15.1011 1685 47.7976 1154.87 515.637
2693 0 113.327 13.9331 1579 49.1362 1154.77 513.379
2694 0 117.574 14.7057 1729 48.2591 1154.39 515.429
2695 0 120.337 15.3735 1850 47.9405 1154.75 509.671
2696 0 124.753 13.8995 1734 49.0433 1154.85 510.482
2697 0 131.495 14.5481 1913 48.3497 1155 507.194
2698 1 73.3622 11.4637 841 50.2509 1154.02 534.62
2699 0 75.3952 12.335 930 49.4452 1153.7 535.271
2700 0 75.464 11.1709 843 50.6145 1153.55 535.574
2701 0 79.6205 11.9944 955 50.578 1153.48 533.835
2702 0 81.7213 12.9832 1061 50.1923 1153.9 531.075
2703 0 82.4597 13.2792 1095 50.1215 1153.62 530.5
2704 0 86.4593 13.3705 1156 49.8149 1153.67 527.188
2705 0 88.4785 13.8113 1222 49.7119 1153.46 526.73
2706 0 94.705 14.8883 1410 48.4411 1153.73 525.699
2707 0 96.7029 13.7224 1327 49.7054 1154.13 524.94
2708 0 100.503 14.0991 1417 49.5102 1154.42 520.422
2709 0 102.349 15.1344 1549 48.8702 1154.57 519.228
2710 0 106.705 13.5233 1443 50.1961 1154.18 519.634
2711 0 110.466 14.0677 1554 49.749 1154.98 517.411
2712 0 110.557 13.4682 1489 50.5816 1154.21 515.652
2713 0 114.521 14.242 1631 50.0533 1153.81 511.528
2714 0 117.72 12.81 1508 51.1552 1154.17 512.155
2715 0 123.885 14.909 1847 49.0114 1154.23 509.254
2716 0 128.723 13.5718 1747 48.8895 1154.24 510.821
2717 0 129.537 13.9574 1808 48.9817 1153.67 509.269
2718 0 133.689 14.1223 1888 49.0196 1153.57 505.555
2719 0 137.833 13.6324 1879 49.1873 1153.39 507.798
2720 0 143.787 13.68 1967 49.4037 1153.02 501.152
2721 0 148.612 14.4941 2154 48.7117 1152.86 496.029
2722 0 154.147 14.2981 2204 48.8557 1153.15 496.944
2723 0 158.138 13.7348 2172 49.8959 1152.84 492.921
2724 0 165.879 14.2996 2372 49.312 1152.85 489.452
2725 0 168.871 14.5792 2462 49.5662 1152.88 488.81
2726 0 176.934 14.4631 2559 49.5401 1153 484.265
2727 0 180.827 14.7268 2663 49.4454 1152.51 480.243
2728 0 185.836 14.1522 2630 50.4129 1152.62 475.965
2729 0 195.964 15.2835 2995 48.9416 1152.82 474.443
2730 0 200.684 14.3958 2889 50.2153 1153.04 469.551
2731 0 210.749 15.4306 3252 48.8853 1153.4 466.772
