time division length width area intensity CMx CMy
1789 0 52.1784 11.6523 608 54.8635 1005.21 569.98
1790 0 54.223 12.1166 657 54.618 1005 567.749
1791 0 57.2079 11.3621 650 55.2754 1004.87 567.498
1792 0 58.2456 12.4645 726 54.4477 1004.47 566.019
1793 0 59.2312 11.8687 703 55.3727 1004.68 565.848
1794 0 60.1654 11.3188 681 55.8796 1004.27 565.289
1795 0 62.1656 11.8072 734 54.97 1004.36 564.676
1796 0 65.2251 12.1426 792 54.3245 1005.16 564.33
1797 0 66.1929 12.1916 807 54.5948 1004.63 562.524
1798 0 69.2201 13.2187 915 52.7519 1004.77 562.756
1799 0 70.3012 12.3326 867 54.1938 1004.69 561.059
1800 0 71.1776 12.7006 904 53.7887 1004.54 560.394
1801 0 73.3426 12.5166 918 53.9368 1005.34 558.782
1802 0 75.2064 12.7516 959 54.0991 1005.11 558.698
1803 0 79.3165 12.4186 985 54.6071 1005.21 555.928
1804 0 82.2085 13.0643 1074 53.6955 1005.08 555.191
1805 0 82.2928 12.5649 1034 54.2186 1005.29 555.463
1806 1 44.1942 10.3181 456 53.0417 1004.97 576.364
1807 0 44.1404 10.1721 449 53.6147 1004.71 574.844
1808 0 47.1011 11.6133 547 53.1572 1004.27 572.519
1809 0 47.1974 10.5514 498 53.7952 1004.32 574.153
1810 0 49.0992 12.6071 619 51.9855 1004.3 573.131
1811 0 51.1415 12.7881 654 52.6667 1003.79 572.164
1812 0 51.2353 11.6716 598 54.0518 1004.03 571.318
1813 0 54.1582 12.445 674 53.2463 1004.22 570.292
1814 0 55.2009 12.2643 677 53.3131 1004.63 571.285
1815 0 58.2628 12.8212 747 52.7041 1004.68 569.782
1816 0 58.3214 12.9626 756 53.3333 1004.99 568.522
1817 0 59.1692 12.6248 747 54.0321 1005.23 567.746
1818 0 63.2413 13.2508 838 53.1695 1004.8 566.064
1819 0 62.3272 13.397 835 54.1449 1004.97 564.576
1820 0 66.2098 13.8348 916 53.476 1005.08 563.773
1821 0 66.3702 12.9124 857 55.3232 1004.75 562.917
1822 0 69.5194 13.8666 964 54.5104 1005.14 561.331
1823 0 72.4033 13.5353 980 54.7837 1005.31 560.569
1824 0 72.5059 13.2127 958 55.8152 1005.92 560.603
1825 0 76.4507 13.4597 1029 55.5569 1005.69 558.506
1826 0 79.5567 14.2163 1131 54.5729 1005.55 557.5
1827 1 42.317 11.3193 479 55.9729 1006.69 577.058
1828 0 43.3057 12.2617 531 56.0113 1006.48 575.371
1829 0 43.356 12.086 524 56.9943 1006.56 574.471
1830 0 45.2084 11.5465 522 57.9579 1006.69 575.937
1831 0 46.0247 12.5802 579 57.6753 1005.57 574.501
1832 0 46.0476 13.6815 630 57.7048 1005.72 573.554
1833 0 47.093 11.8277 557 60.7127 1006.41 572.837
1834 0 49.2509 12.548 618 59.2605 1006.44 572.762
1835 0 52.2794 13.4087 701 58.4779 1006.78 571.843
1836 0 53.1866 13.4056 713 59.0154 1006.76 570.592
1837 0 53.1788 13.2572 705 59.7475 1007.02 570.613
1838 0 55.2595 12.758 705 60.6014 1007.7 568.98
1839 0 59.271 14.4928 859 58.1048 1008.17 568.471
1840 0 60.3983 13.9242 841 59.4055 1008.45 567.916
1841 0 63.4968 14.0007 889 58.9145 1008.44 565.567
1842 0 63.2478 12.9174 817 60.7209 1008.78 565.57
1843 0 66.2164 14.9812 992 58.748 1008.91 562.462
1844 0 65.1912 13.422 875 61.4423 1008.7 563.256
1845 0 71.3894 13.5034 964 60.6224 1008.69 562.967
1846 0 73.265 14.2633 1045 59.7368 1009.26 562.323
1847 0 74.3431 13.8816 1032 60.4438 1009.23 560.935
1848 0 76.4872 14.5514 1113 60.1977 1009.28 558.081
1849 0 80.2847 14.0749 1130 60.4363 1009.5 555.696
1850 1 44.0464 11.2154 494 62.1154 1009.18 574.595
1851 0 46.0686 12.8721 593 60.5143 1008.9 572.818
1852 0 48.171 13.6804 659 58.6024 1008.75 572.921
1853 0 47.3662 12.3506 585 60.4803 1008.93 571.021
1854 0 48.2126 13.3782 645 59.3488 1009 570.039
1855 0 51.1754 13.2876 680 58.9632 1008.86 570.038
1856 0 53.1713 13.5035 718 58.4331 1009.31 568.245
1857 0 54.1514 13.8131 748 58.3155 1008.9 566.936
1858 0 55.2486 12.6157 697 59.7303 1009.11 566.67
1859 0 58.227 14.5293 846 56.8227 1009.16 565.171
1860 0 57.2562 12.8894 738 59.7683 1008.79 565.451
1861 0 61.2888 13.3956 821 57.525 1008.92 565.255
1862 0 64.3362 14.533 935 56.2053 1008.81 562.618
1863 0 65.1105 13.8841 904 57.3064 1008.92 562.004
1864 0 66.1778 14.1437 936 56.9359 1008.47 559.304
1865 0 69.2006 14.0317 971 56.6035 1008.31 560.865
1866 0 71.3545 13.9024 992 57.2621 1008.25 558.425
1867 0 73.3115 13.4358 985 57.4244 1007.79 557.191
1868 0 75.3016 12.7089 957 58.187 1007.52 557.326
1869 0 79.4696 13.3762 1063 56.9906 1007.85 554.893
1870 1 40.186 10.9989 442 57.871 1007.35 573.457
1871 0 44.4324 10.6454 473 55.871 1007.03 574.142
1872 0 42.3077 11.0382 467 56.3512 1007.29 572.621
1873 0 45.3195 11.783 534 55.8783 1007.43 571.354
1874 0 45.7008 12.2536 560 54.8321 1007.1 571.773
1875 0 49.1713 12.5276 616 54.211 1006.8 570.25
1876 0 52.3077 12.8279 671 53.3562 1006.61 570.198
1877 0 54.37 12.3414 671 53.6006 1006.32 568.961
1878 0 54.3044 12.7614 693 53.2179 1006.61 569.003
1879 0 57.4832 12.5254 720 53.2264 1006.43 567.757
1880 0 57.3219 13.2584 760 52.9829 1006.67 565.676
1881 0 60.6044 12.9694 786 52.9389 1007.39 566.258
1882 0 61.5199 12.6626 779 53.697 1006.78 564.953
1883 0 64.5878 11.5347 745 54.3087 1006.19 565.898
1884 0 66.5441 11.3759 757 54.6856 1006.08 564.35
1885 0 69.6868 13.9481 972 52.4228 1006.32 560.491
1886 0 72.3936 13.7719 997 52.1846 1005.79 560.493
1887 0 74.6205 12.8249 957 53.5068 1006.01 558.807
1888 0 77.3888 12.8442 994 53.164 1005.26 558.607
1889 0 79.4664 13.5026 1073 53.3029 1005.68 555.723
1890 0 83.6206 13.2264 1106 53.5235 1004.76 555.69
1891 1 45.5048 10.2187 465 54.1548 1004.62 575.03
1892 0 46.5071 9.78346 455 54.378 1004.26 574.237
1893 0 48.4007 11.1775 541 53.8669 1005.07 573.009
1894 0 50.2808 11.7938 593 53.4671 1004.55 572.774
1895 0 50.4329 11.9168 601 53.2629 1004.97 571.942
1896 0 54.2163 11.4726 622 52.836 1005.28 570.937
1897 0 55.3771 12.0086 665 52.6602 1005.43 570.863
1898 0 56.2626 12.2106 687 53.0087 1005.53 569.619
1899 0 59.2519 12.7422 755 51.9113 1004.55 569.009
1900 0 59.2519 12.7253 754 153.981 1004.56 569.04
1901 0 61.2629 12.781 783 52.2529 1004.08 566.89
1902 0 64.3082 12.7822 822 52.5073 1004.37 566.58
1903 0 66.3331 12.4071 823 52.7169 1003.79 566.819
1904 0 68.4848 12.1487 832 53.3053 1003.58 564.957
1905 0 70.3942 13.95 982 51.722 1003.18 563.835
1906 0 72.2985 12.1441 878 53.9761 1002.81 561.959
1907 0 74.4831 12.8083 954 53.413 1002.7 560.867
1908 0 77.458 12.7166 985 53.9777 1002.56 560.198
1909 0 78.5555 12.7935 1005 54.4418 1002.65 560.215
1910 0 80.4011 13.1839 1060 54.3208 1002.56 558.249
1911 0 83.5458 12.7475 1065 55.1305 1002.63 556.133
1912 0 86.6459 12.8108 1110 55.0757 1002.23 555.25
1913 0 89.5388 12.8436 1150 55.5304 1002.88 554.47
1914 1 47.3204 10.7776 510 55.5706 1001.28 574.869
1915 0 47.3369 9.42182 446 57.4081 1001.35 575.146
1916 0 49.2706 10.899 537 55.8101 1001.63 573.922
1917 0 52.1571 11.6571 608 54.1266 1000.99 574.635
1918 0 53.1102 10.9395 581 54.6076 1000.62 572.916
1919 0 55.0368 12.1555 669 56.7549 1001.92 571.631
1920 0 55.3545 12.2845 680 56.1353 1002.28 572.49
1921 0 57.3048 12.2677 703 57.0398 1002.07 571.292
1922 0 58.2513 12.7894 745 57.9154 1001.69 571.915
1923 0 60.2713 12.8253 773 57.9056 1001.62 571.296
1924 0 61.3619 12.5648 771 58.2399 1001.79 570.013
1925 0 65.1515 13.5223 881 56.2963 1000.84 569.831
1926 0 63.2699 13.15 832 58.3017 1000.94 568.071
1927 0 68.2835 12.9753 886 57.7585 1000.77 568.289
1928 0 69.2425 13.6477 945 57.8201 1000.74 567.019
1929 0 71.2432 13.2785 946 58.4323 1000.85 566.03
1930 0 71.1836 12.9384 921 59.5831 1000.96 565.067
1931 0 75.072 13.4671 1011 58.817 1001.16 565.023
1932 0 78.0731 13.7435 1073 58.6747 1001.19 561.495
1933 0 81.1049 13.1805 1069 59.6763 1001.31 561.917
1934 0 82.2297 13.0123 1070 60.0916 1001.87 561.671
1935 0 85.2046 13.4382 1145 59.7485 1001.78 559.272
1936 1 46.0882 10.9139 503 60.6481 1001.91 579.302
1937 0 47.0674 11.1542 525 60.0533 1003.17 579.345
1938 0 49.0923 11.6515 572 60.1906 1002.3 577.063
1939 0 48.124 10.8885 524 62.4618 1002.66 578.634
1940 0 50.0434 12.0495 603 61.4362 1002.58 576.401
1941 0 53.2833 12.1051 645 60.4434 1002.95 574.346
1942 0 55.1423 12.5493 692 59.0361 1003.71 572.338
1943 0 56.2746 12.3857 697 59.9268 1002.46 574.242
1944 0 57.2844 13.1973 756 57.6362 1002.71 573.754
1945 0 58.2748 13.0588 761 59.042 1003 573.062
1946 0 59.1979 12.8383 760 59.5171 1003.2 571.237
1947 0 62.2579 13.6368 849 58.4452 1003.71 570.86
1948 0 63.2389 12.8718 814 59.3514 1003.71 568.725
1949 0 67.3636 13.1525 886 58.0959 1004.07 567.931
1950 0 69.3397 13.7439 953 57.5771 1004.24 566.218
1951 0 70.2618 14.4887 1018 57.0246 1003.68 565.878
1952 0 72.2463 13.4401 971 58.4099 1003.39 564.491
1953 0 77.1895 13.7972 1065 57.3624 1003.83 564.017
1954 0 76.1622 13.4844 1027 58.8676 1005.13 561.152
1955 0 79.195 13.8645 1098 57.7341 1005.2 559.78
1956 0 81.3782 12.362 1006 58.9433 1005.01 559.493
1957 1 43.1806 11.4635 495 59.602 1005.42 577.632
1958 0 45.1383 11.0106 497 58.6801 1005.44 578.678
1959 0 45.0892 12.1537 548 58.1715 1005.77 577.783
1960 0 49.0818 11.9392 586 57.5051 1006.27 577.8
1961 0 48.3188 11.9001 575 58.1878 1006.02 574.816
1962 0 50.2155 12.7849 642 57.553 1006.35 573.237
1963 0 52.2179 13.0032 679 57.271 1006.56 571.351
1964 0 54.3339 12.3128 669 57.852 1006.09 573.35
1965 0 55.5821 13.5115 751 56.7923 1006.39 571.458
1966 0 55.29 13.5287 748 57.5027 1006.73 570.754
1967 0 58.2603 13.5427 789 57.0875 1007.11 570.984
1968 0 61.3482 13.3663 820 56.8866 1007.75 568.172
1969 0 64.2162 14.4668 929 55.3498 1007.49 565.344
1970 0 65.2012 13.2973 867 57.3379 1008.16 565.537
1971 0 67.2804 11.5636 778 59.0488 1007.29 566.23
1972 0 70.1953 12.6932 891 57.4411 1008.09 563.558
1973 0 73.1944 13.6213 997 56.6018 1007.84 562.058
1974 0 73.0607 13.2219 966 57.7143 1008.52 562.188
1975 0 78.3182 13.0238 1020 58.0137 1008.74 559.331
1976 0 80.3171 12.6997 1020 58.2118 1008.95 559.094
1977 1 41.2188 11.0386 455 57.611 1009.28 578.846
1978 0 43.118 10.9467 472 58.1186 1008.88 577.875
1979 0 45.0702 10.8276 488 57.7398 1009.09 578.363
1980 0 45.1372 11.6755 527 57.2846 1008.77 576.231
1981 0 44.2889 11.583 513 58.8324 1008.63 574.739
1982 0 48.2764 12.5942 608 57.3865 1009.24 573.791
1983 0 50.2715 12.5916 633 57.4408 1009.01 573.512
1984 0 50.2759 12.8292 645 58.0961 1008.94 571.988
1985 0 52.2942 13.0033 680 57.9574 1009.15 570.968
1986 0 52.2288 12.9622 677 58.4564 1009.09 569.984
1987 0 58.2624 13.5765 791 56.4994 1009.09 568.717
1988 0 58.2219 13.2596 772 57.2746 1008.91 568.777
1989 0 59.2203 13.1374 778 58.1221 1009.12 568.324
1990 0 63.2527 13.4224 849 57.4311 1008.56 565.695
1991 0 65.2081 13.5566 884 57.4186 1009.05 563.923
1992 0 64.2943 12.9249 831 58.6763 1009 564.64
1993 0 66.2695 13.4602 892 58.8307 1008.57 563.85
1994 0 67.2615 13.0684 879 59.9852 1008.34 562.146
1995 0 73.2792 13.3462 978 58.5204 1008.39 560.928
1996 0 74.2601 13.3046 988 59.2399 1008.53 559.064
1997 0 77.2447 12.9459 1000 59.751 1008 559.138
1998 0 79.3077 14.2735 1132 58.4602 1007.76 555.67
1999 0 79.3077 14.2735 1132 160.841 1007.76 555.67
2000 0 84.1473 14.7361 1240 58.2718 1008.37 553.597
2001 0 85.1551 13.6692 1164 59.8239 1008.05 552.453
2002 0 90.1741 13.6625 1232 59.3506 1007.82 551.035
2003 1 46.0487 12.009 553 58.8264 1007.19 571.852
2004 0 45.2411 11.6929 529 60.4291 1006.68 573.255
2005 0 49.1955 11.4645 564 61.0461 1006.69 572.057
2006 0 49.1091 11.5865 569 61.5343 1006.35 570.246
2007 0 51.1633 12.333 631 60.0887 1006.66 571.596
2008 0 52.1582 13.2098 689 59.566 1006.87 568.959
2009 0 54.2063 12.6185 684 59.9225 1006.7 569.959
2010 0 54.2609 12.5873 683 60.4422 1006.9 569.429
2011 0 55.1042 13.3021 733 59.9536 1007.34 568.162
2012 0 59.3289 13.1302 779 58.9499 1006.98 567.701
2013 0 61.1978 13.1541 805 58.959 1007.01 567.509
2014 0 63.2344 13.0309 824 59.2282 1006.96 565.007
2015 0 64.1844 12.0278 772 60.4158 1006.32 565.571
2016 0 67.1532 13.7894 926 57.9914 1006.18 563.776
2017 0 68.3734 13.3239 911 59.1339 1006.2 562.701
2018 0 71.2373 13.6165 970 57.9227 1006.27 563.172
2019 0 70.1625 13.7538 965 58.7078 1006.12 561.206
2020 0 73.321 13.3386 978 59.2607 1006.18 561.944
2021 0 77.2569 13.6299 1053 58.2355 1006.18 559.041
2022 0 79.4175 13.2716 1054 59.0806 1005.96 559.59
2023 0 82.2522 13.8963 1143 58.6168 1005.66 557.55
2024 0 85.2168 13.9644 1190 58.6773 1005.83 555.433
2025 0 85.1604 13.5274 1152 59.7917 1005.91 554.539
2026 0 90.2355 13.0326 1176 59.5961 1005.25 555.233
2027 1 52.2041 11.1486 582 60.177 1005.19 572.775
2028 0 53.1902 11.2615 599 60.222 1004.79 570.922
2029 0 56.2902 13.1639 741 58.2578 1005.26 570.565
2030 0 56.1694 12.6403 710 58.531 1004.93 571.527
2031 0 58.2736 13.1449 766 58.1084 1004.69 570.687
2032 0 60.1285 12.756 767 58.1943 1005.21 571.073
2033 0 62.1238 12.9741 806 58.5533 1004.77 569.347
2034 0 63.1764 13.217 835 58.4719 1004.76 567.868
2035 0 66.1214 13.0518 863 59.2375 1005.04 567.404
2036 0 67.1668 13.2655 891 59.3816 1004.93 567.365
2037 0 71.1981 13.1886 939 59.6869 1005.25 565.56
2038 0 72.3044 13.5953 983 59.3927 1005.46 562.591
2039 0 73.1655 13.4353 983 60.5972 1004.73 562.83
2040 0 77.3088 12.961 1002 60.6856 1004.97 560.897
2041 0 79.3354 13.2475 1051 60.7383 1004.8 560.461
2042 0 83.2164 13.2666 1104 60.6603 1004.72 559.516
2043 0 86.2504 14.1217 1218 60.188 1004.25 557.774
2044 1 45.0122 11.6857 526 61.6559 1003.92 577.086
2045 0 45.0706 11.5596 521 61.7332 1004.84 576.57
2046 0 49.2038 12.5803 619 60.1826 1005.58 576.01
2047 0 48.1275 12.5708 605 60.9008 1005.59 575.764
2048 0 53.1175 13.1595 699 59.8956 1005.17 574.594
2049 0 52.1861 12.6854 662 61.8082 1004.06 573.785
2050 0 54.216 13.0958 710 61.2915 1003.53 573.349
2051 0 56.1126 12.7244 714 62.1289 1003.43 572.739
2052 0 58.0793 13.0339 757 61.4135 1004.16 572.178
2053 0 58.1618 12.7575 742 64.7655 1003.88 570.466
2054 0 62.1505 13.049 811 64.0506 1003.91 570.132
2055 0 62.0897 12.3209 765 65.9033 1003.65 569.188
2056 0 65.1067 13.1323 855 64.7754 1004.01 568.618
2057 0 67.1726 13.1303 882 64.9592 1003.71 567.834
2058 0 70.2704 14.4015 1012 62.9457 1003.5 566.273
2059 0 72.0675 13.2098 952 64.9758 1004.43 564.908
2060 0 74.1067 12.9138 957 65.1087 1004.47 563.747
2061 0 78.0739 13.2695 1036 64.582 1004.32 562.595
2062 0 79.116 12.7155 1006 65.84 1003.72 562.262
2063 1 44.0143 11.519 507 63.1124 1003.5 580.73
2064 0 44.0561 9.5106 419 65.105 1003.21 581.322
2065 0 44.0469 10.2845 453 65.7152 1003.5 580.607
2066 0 46.0961 10.4564 482 64.7324 1004.16 579.102
2067 0 46.128 11.7282 541 64 1004.82 578.359
2068 0 49.2184 11.9874 590 63.4017 1003.4 578.681
2069 0 49.2708 12.137 598 63.7843 1004.17 576.505
2070 0 52.2642 12.1498 635 63.2567 1003.95 576.161
2071 0 53.345 11.9036 635 65.4913 1004.62 575.961
2072 0 55.2708 12.1945 674 64.4852 1004.42 575.086
2073 0 56.1769 12.7277 715 64.2559 1004.89 573.509
2074 0 57.2285 12.1443 695 65.4547 1004.68 573.79
2075 0 58.2229 12.3834 721 65.4938 1003.95 571.562
2076 0 60.2429 12.5492 756 65.3519 1004.21 569.956
2077 0 64.179 13.7116 880 63.358 1004.39 569.209
2078 0 65.1625 13.4587 877 64.2292 1004.83 567.844
2079 0 67.2867 12.796 861 65.511 1004.73 567.129
2080 0 67.122 12.3953 832 66.3233 1005.32 566.48
2081 0 70.0897 12.2985 862 66.3875 1005.19 565.277
2082 0 72.0608 12.8503 926 66.54 1005.29 564.086
2083 0 75.1075 13.261 996 65.6114 1005.89 561.994
2084 0 78.1611 13.5106 1056 65.6023 1006.53 560.063
2085 0 80.0481 12.4925 1000 67.187 1006.61 560.194
2086 0 82.0555 13.1862 1082 66.0813 1007.14 556.942
2087 0 83.0964 12.9247 1074 66.6713 1007.02 556.983
2088 0 87.0585 13.2784 1156 65.8651 1007.27 556.323
2089 0 88.0465 12.5729 1107 67.5456 1007.51 554.22
2090 1 50.1578 9.47011 475 68.2821 1007.94 574.865
2091 0 51.1238 10.7973 552 66.6359 1007.98 574.569
2092 0 53.0695 10.8537 576 68.0503 1008.07 573.41
2093 0 53.0737 11.2862 599 68.6978 1008.11 571.109
2094 0 55.0383 12.2097 672 67.3452 1008.55 570.658
2095 0 57.1208 12.0447 688 66.9201 1008.85 567.945
2096 0 58.1595 12.5001 727 66.7978 1007.59 567.604
2097 0 58.3501 12.425 725 67.1876 1008.17 569.389
2098 0 61.3179 12.9978 797 66.33 1008.37 566.296
2099 0 66.3151 12.5462 832 66.1875 1008.88 566.484
2100 0 66.4345 12.7946 850 66.2671 1008.87 565.895
2101 0 69.3456 12.8054 888 65.5023 1008.88 564.907
2102 0 71.2167 13.1009 933 64.9014 1009 562.998
2103 0 73.1959 12.4461 911 65.5005 1009.06 562.317
2104 0 77.5075 12.3343 956 65.6119 1009.73 560.033
2105 0 80.3386 13.5178 1086 63.9383 1010.31 558.586
2106 0 80.3253 13.7068 1101 64.4151 1010.15 556.413
2107 0 83.2392 12.7224 1059 65.8008 1010.4 555.799
2108 0 87.5012 13.0627 1143 65.5766 1010.71 553.5
2109 0 90.2985 12.8463 1160 65.8534 1010.88 551.337
2110 0 93.4771 13.1904 1233 64.8929 1010.93 550.753
2111 0 97.5326 12.9905 1267 65.1871 1010.79 549.71
2112 1 51.269 11.3324 581 65.4303 1009.95 572.625
2113 0 51.2818 10.5691 542 66.7823 1009.11 571.863
2114 0 52.1764 10.6753 557 65.0987 1011.22 571.214
2115 0 53.2183 11.6689 621 63.7359 1010.83 568.934
2116 0 56.2987 12.7356 717 62.007 1009.46 568.248
2117 0 57.3314 12.9074 740 61.5473 1009.66 568.101
2118 0 60.3916 13.2966 803 61.3337 1009.62 566.489
2119 0 61.3172 12.5903 772 61.8277 1009.15 566.266
2120 0 64.2886 12.335 793 61.6078 1009.13 564.943
2121 0 64.3112 11.5843 745 62.7208 1008.87 564.635
2122 0 68.561 13.5937 932 59.8509 1009.36 562.273
2123 0 70.4145 12.9661 913 60.2979 1009.09 562.951
2124 0 73.4947 13.3751 983 59.0722 1008.76 561.878
2125 0 75.4922 12.7298 961 60.3746 1008.58 560.291
2126 0 77.5574 13.0742 1014 59.4122 1007.93 559.704
2127 0 81.5413 13.2693 1082 58.4473 1007.73 558.695
2128 0 83.298 13.0615 1088 59.1691 1007.93 555.507
2129 0 86.7419 13.5805 1178 58.3336 1007 553.41
2130 0 89.4783 14.2157 1272 57.0991 1007.09 552.189
2131 0 91.537 12.7926 1171 58.6892 1007.25 553.303
2132 0 94.7062 12.2801 1163 59.1814 1007.13 552.261
2133 1 49.3665 9.80423 484 59 1006.27 573.556
2134 0 52.5199 11.4052 599 57.0601 1006.35 572.98
2135 0 53.5099 10.5027 562 58.7438 1006.19 572.39
2136 0 55.5081 10.7732 598 58.5351 1006.2 571.157
2137 0 58.3917 12.2106 713 57.3043 1006.46 571.79
2138 0 62.1568 13.5625 843 55.0878 1005.31 570.196
2139 0 61.1919 12.7305 779 56.4544 1004.76 568.046
2140 0 61.1919 12.7305 779 152.818 1003.76 568.046
2141 0 64.1507 12.1589 780 57.9359 1005.53 567.506
2142 0 66.1193 12.8404 849 57.4075 1004.91 565.953
2143 0 66.0901 11.4692 758 59.5237 1004.93 564.951
2144 0 67.1581 12.5971 846 58.7021 1004.9 564.005
2145 0 71.1531 12.3255 877 58.7355 1004.38 563.088
2146 0 73.1212 12.9648 948 58.2036 1004.95 561.824
2147 0 75.2065 13.4563 1012 58.085 1004.56 559.999
2148 0 77.3313 13.0607 1010 58.6881 1005.06 559.676
2149 0 81.2538 12.7748 1038 59.2187 1005.32 557.535
2150 1 45.355 10.8698 493 59.4462 1004.1 577.533
2151 0 45.1518 10.8744 491 59.8004 1004.13 576.703
2152 0 44.1174 10.2907 454 60.6674 1003.89 577.817
2153 0 47.1755 10.302 486 60.6008 1004.19 577.951
2154 0 49.1723 12.1817 599 58.9549 1004.14 575.25
2155 0 51.2258 12.2985 630 59.3175 1004.67 576.394
2156 0 52.0854 12.5563 654 57.9786 1004.06 573.437
2157 0 53.03 12.2761 651 58.765 1004.15 571.903
2158 0 55.0838 12.0725 665 58.2647 1004.05 572.803
2159 0 57.0628 12.162 694 58.5548 1003.94 571.787
2160 0 60.1146 12.2266 735 57.9864 1003.45 571.307
2161 0 62.1393 11.8283 735 58.5646 1003.8 572.075
2162 0 62.1121 12.5096 777 58.6036 1003.25 570.977
2163 0 62.1121 12.5096 777 161.414 1003.25 570.977
2164 0 64.1124 12.0258 771 60.1971 1002.85 568.951
2165 0 67.1996 13.0804 879 58.7884 1002.79 568.818
2166 0 69.2223 12.7416 882 59.1689 1002.82 568.008
2167 0 73.0845 12.9439 946 58.8108 1002.98 566.36
2168 0 74.1777 12.4566 924 59.632 1002.79 564.384
2169 0 77.2759 12.1772 941 60.0425 1003.46 563.951
2170 0 77.2367 13.0767 1010 59.1772 1003.55 563.386
2171 0 84.228 14.0215 1181 49.3971 1003.31 561.204
2172 0 83.2538 13.1886 1098 58.5883 1003.97 559.376
2173 0 86.4424 12.5286 1083 59.3786 1003.61 560.071
2174 0 90.4284 13.5024 1221 57.9238 1002.56 558.13
2175 0 92.2851 12.8515 1186 58.4241 1002.35 557.378
2176 0 95.3433 13.572 1294 58.1043 1002.02 555.395
2177 0 99.2941 13.1126 1302 58.768 1002.68 552.843
2178 0 100.285 13.5513 1359 58.2038 1003.05 551.383
2179 0 105.328 13.795 1453 56.8651 1004.28 549.783
2180 1 54.3554 9.69545 527 59.1784 1003.64 572.814
2181 0 58.2323 11.0592 644 57.646 1003.7 572.93
2182 0 59.2004 11.8918 704 56.5923 1003.55 572.322
2183 0 62.3745 12.6815 791 56.622 1003.42 571.949
2184 0 62.3543 12.0761 753 57.4382 1004 571.003
2185 0 64.1994 13.131 843 56.516 1004.6 568.738
2186 0 66.2666 12.2384 811 56.7127 1004.68 568.773
2187 0 67.3032 13.4318 904 56.3728 1004.91 564.979
2188 0 71.2844 12.6956 905 56.2564 1005.1 563.158
2189 0 73.3007 14.0654 1031 54.5587 1004.92 563.908
2190 0 75.3142 13.0785 985 55.7096 1005 562.008
2191 0 76.418 13.4 1024 55.0957 1005.37 561.23
2192 0 80.3743 13.4993 1085 55.5263 1005.24 561.053
2193 0 83.2689 13.6786 1139 54.885 1005.8 558.373
2194 0 85.2056 13.7902 1175 54.6655 1006.03 556.919
2195 0 90.3796 13.3105 1203 54.3973 1006.06 555.736
2196 0 90.237 13.5975 1227 54.7555 1006.28 552.522
2197 0 94.2775 13.1951 1244 54.7291 1006.18 552.725
2198 0 97.2753 13.7753 1340 54.3425 1006.19 551.243
2199 1 48.1254 10.0571 484 55.9607 1005.08 574.062
2200 0 52.1096 9.36487 488 55.6066 1005.32 575.377
2201 0 54.0557 12.0431 651 53.7066 1005.76 572.232
2202 0 55.0308 11.648 641 54.3775 1006.84 570.981
2203 0 59.0297 11.6721 689 54.6183 1007.15 569.99
2204 0 60.1417 12.138 730 54.4726 1006.24 568.156
2205 0 63.1171 13.2769 838 53.0072 1006.55 568.039
2206 0 65.1818 12.9791 846 53.8416 1007.03 566.825
2207 0 67.0838 13.431 901 53.3174 1006.96 565.83
2208 0 68.0851 12.8956 878 54.3144 1007.15 565.323
2209 0 71.1918 13.2038 940 54.2521 1007.39 563.196
2210 0 73.145 12.4274 909 55.7338 1007.62 564.191
2211 0 74.2174 13.7973 1024 54.8701 1007.78 560.501
2212 0 77.258 14.0956 1089 54.3756 1008.29 558.82
2213 0 78.2036 12.8511 1005 56.5174 1008.21 558.527
2214 0 79.2129 12.4348 985 57.7066 1008.62 556.116
2215 0 82.1556 12.9876 1067 56.7329 1008.55 556.631
2216 0 86.1661 13.4276 1157 56.5601 1008.61 553.386
2217 0 88.1488 13.1255 1157 57.2005 1008.68 550.821
2218 0 91.2783 13.1904 1204 57.1495 1008.47 550.642
2219 1 49.0747 9.63836 473 57.2854 1007.65 572.924
2220 0 48.0725 10.5466 507 57.7495 1008.7 570.538
2221 0 53.0815 10.9831 583 56.7307 1009.1 570.787
2222 0 54.0772 11.2432 608 56.4868 1009.28 570.456
2223 0 55.3724 11.2872 625 56.5456 1008.83 569.79
2224 0 56.248 12.356 695 56.9079 1008.62 568.129
2225 0 57.1535 11.7403 671 58.0343 1007.98 567.692
2226 0 61.2446 12.7358 780 56.959 1008.29 564.458
2227 0 63.2147 12.8451 812 56.7783 1008.44 564.672
2228 0 65.2229 12.5569 819 57.8291 1008.5 564.565
2229 0 69.3312 12.6494 877 58.0445 1008.52 562.96
2230 0 68.2211 11.2722 769 60.0923 1008.28 562.541
2231 0 71.2399 13.644 972 57.5885 1008.17 559.082
2232 0 74.2458 13.1994 980 57.7908 1008.36 558.345
2233 0 75.2237 13.1342 988 58.6579 1008.75 556.57
2234 0 80.2356 13.0241 1045 58.3694 1009.14 555.25
2235 0 81.0812 12.7896 1037 58.7338 1007.88 554.836
2236 0 83.0781 13.4331 1116 58.3996 1008.44 553.073
2237 0 86.1154 13.4471 1158 58.5915 1007.49 552.415
2238 0 88.1634 12.8625 1134 59.6658 1007.68 551.093
2239 0 92.1864 13.7764 1270 58.2866 1008.06 550.252
2240 0 96.35 14.0737 1356 58.7478 1007.89 547.905
2241 0 100.219 14.2388 1427 56.9902 1007.85 548.734
2242 0 103.266 12.7244 1314 59.207 1008.22 545.254
2243 1 55.0541 10.7531 592 60.3226 1008.51 567.706
2244 0 56.2674 10.9477 616 59.737 1009.68 566.802
2245 0 60.1371 12.6877 763 57.7064 1008.38 566.115
2246 0 60.0939 13.0795 786 58.2188 1007.9 564.78
2247 0 62.1123 13.0409 810 58.4148 1007.87 563.315
2248 0 63.1785 12.7258 804 59.2724 1007.95 562.252
2249 0 67.1445 13.0763 878 58.508 1007.89 560.874
2250 0 69.1902 12.733 881 59.2974 1007.53 561.041
2251 0 72.3075 13.5532 980 58.1051 1007.69 559.862
2252 0 72.4159 12.3592 895 60.2559 1007.78 558.515
2253 0 76.4427 13.2518 1013 59.5716 1008.09 557.728
2254 0 78.3103 13.4976 1057 60.0927 1008.13 556.831
2255 0 79.2681 12.9308 1025 61.5834 1008.1 555.475
2256 0 83.3658 13.3148 1110 61.2712 1007.9 553.759
2257 0 86.4859 13.6438 1180 61.3542 1007.81 551.412
2258 0 87.6925 13.6044 1193 61.9715 1007.51 551.405
2259 0 90.2408 13.5083 1219 62.3724 1007.32 551.27
2260 0 93.4801 13.2755 1241 63.6003 1007.61 550.524
2261 1 49.2114 11.3388 558 63.8172 1007.95 572.833
2262 0 49.2114 11.2576 554 169.366 1008.94 572.726
2263 0 52.3167 11.8127 618 64.3867 1007.93 570.275
2264 0 53.2407 12.5092 666 64.6952 1007.66 570.461
2265 0 55.0919 12.6697 698 64.9269 1007.75 570.729
2266 0 55.108 12.9927 716 65.5056 1007.15 569.443
2267 0 58.2155 13.8451 806 64.0211 1007.33 568.31
2268 0 61.1034 14.2545 871 63.0494 1007.73 567.095
2269 0 60.0545 13.6876 822 65.4136 1007.57 566.564
2270 0 62.1615 13.658 849 65.7762 1007.84 565.592
2271 0 65.1516 13.7986 899 65.8176 1007.63 565.347
2272 0 68.1172 14.0787 959 64.7393 1007.59 563.766
2273 0 68.0416 12.654 861 67.7607 1007.43 564.857
2274 0 70.3301 13.1096 922 67.0738 1007.67 562.61
2275 0 73.154 13.1367 961 66.5525 1007.88 561.197
2276 0 76.271 14.0158 1069 65.7259 1007.19 559.047
2277 0 76.2191 13.5268 1031 67.0369 1006.95 558.06
2278 0 83.4951 14.959 1249 63.2402 1006.67 557.956
2279 0 83.3964 13.5977 1134 66.1623 1006.47 555.817
2280 1 45.0953 10.9989 496 66.9355 1006.54 574.611
2281 0 46.1856 11.0208 509 66.0766 1006.49 575.244
2282 0 48.1003 10.9978 529 66.2741 1006.21 573.541
2283 0 47.0523 12.1142 570 65.3772 1006.01 573.677
2284 0 50.1714 12.4972 627 64.8612 1005.7 571.592
2285 0 51.2184 12.8079 656 64.9588 1005.91 570.793
2286 0 53.2993 13.002 693 64.6032 1006.01 570.273
2287 0 53.1929 13.404 713 64.8317 1006.08 570.477
2288 0 56.0908 13.1038 735 64.8463 1005.92 569.177
2289 0 59.1116 13.2123 781 65.1754 1005.51 568.977
2290 0 59.1781 13.7382 813 64.8942 1005.19 568.315
2291 0 62.2689 14.0038 872 64.1044 1005.11 567.024
2292 0 65.3902 13.0295 852 64.4354 1004.94 567.488
2293 0 67.3984 13.1754 888 64.8052 1004.8 565.061
2294 0 70.4357 12.8202 903 64.732 1004.9 565.29
2295 0 72.4146 12.7461 923 64.2719 1005.11 564.744
2296 0 74.2441 12.4185 922 64.4783 1004.99 563.077
2297 0 78.436 13.119 1029 63.4247 1005.31 560.599
2298 1 40.3011 10.0245 404 65.1832 1005.18 581.369
2299 0 43.1851 11.9949 518 62.7645 1005.59 579.55
2300 0 44.3151 11.2828 500 63.53 1005.56 578.168
2301 0 46.2487 11.9571 553 62.0796 1005.51 576.901
2302 0 48.2758 12.8843 622 60.6977 1005.22 575.876
2303 0 49.1706 12.4668 613 62.0359 1004.63 575.701
2304 0 49.3021 12.8392 633 62.0506 1004.87 574.142
2305 0 51.1244 12.1664 622 62.1897 1004.72 576.434
2306 0 52.1598 12.5192 653 61.634 1004.94 574.714
2307 0 55.178 11.925 658 61.652 1005.03 574.22
2308 0 57.1576 13.1391 751 60.0732 1004.98 571.019
2309 0 56.2031 11.8677 667 62.2264 1005 570.183
2310 0 61.1207 13.1543 804 59.245 1005.6 569.755
2311 0 63.268 11.9334 755 60.8556 1005.54 568.068
2312 0 66.3976 13.1481 873 58.8339 1005.85 566.999
2313 0 65.2828 12.4688 814 60.0897 1005.15 566.107
2314 1 32.1988 10.7458 346 59.1156 1005.06 582.621
2315 0 34.2629 10.0692 345 60 1005.88 581.035
2316 0 34.1207 10.5801 361 59.7091 1005.56 581.468
2317 0 36.2381 11.0933 402 58.8159 1006.02 581.077
2318 0 36.2837 10.8313 393 60.3435 1006.57 581.608
2319 0 39.3349 11.008 433 59.3995 1006.39 579.721
2320 0 38.1835 10.5281 402 60.5498 1006.37 580.468
2321 0 40.0898 12.1477 487 58.8501 1006.86 577.881
2322 0 41.3217 12.6326 522 57.954 1006.72 577.23
2323 0 41.1351 12.0578 496 59.7097 1006.8 576.776
2324 0 44.3392 12.4269 551 58.3212 1006.95 575.437
2325 0 45.1512 12.89 582 58.0567 1006.98 575.304
2326 0 46.1652 12.2387 565 59.0637 1007.03 573.993
2327 0 47.2266 12.493 590 59.2458 1006.93 574.097
2328 0 51.4611 13.2527 682 57.4238 1007.69 571.509
2329 0 51.3686 11.7387 603 59.7413 1007.97 571.942
2330 0 52.1371 12.6206 658 59.5881 1007.82 570.573
2331 0 54.1736 13.0137 705 58.3504 1007.65 572.292
2332 0 53.3299 12.9758 692 59.9841 1007.98 568.504
2333 0 56.1561 13.1419 738 59.8808 1007.68 567.411
2334 0 59.1566 13.6756 809 58.5439 1008.13 566.737
2335 0 62.3232 13.6225 849 58.4099 1008.03 565.857
2336 0 64.127 14.0658 902 58.2849 1008.05 564.871
2337 0 65.2486 12.7359 831 59.9302 1008.24 565.953
2338 0 67.2609 13.0983 881 60.4699 1008.21 563.166
2339 0 70.3973 13.2391 932 59.9571 1008.07 562.471
2340 0 72.3212 14.0761 1018 59.4617 1008.4 560.506
2341 0 76.3314 14.1226 1078 58.6299 1008.46 560.956
2342 0 77.3103 14.1508 1094 59.3473 1008.64 558.309
2343 0 80.5181 13.4131 1080 60.0148 1008.89 556.797
2344 1 43.3592 12.4311 539 60.436 1008.85 573.083
2345 0 41.3677 10.7572 445 62.6225 1008.87 572.751
2346 0 47.1568 12.2994 580 59.6224 1009.33 570.138
2347 0 48.2556 12.869 621 59.2995 1009.3 569.09
2348 0 49.3138 13.1606 649 59.3236 1009.85 568.314
2349 0 52.1991 13.142 686 58.5364 1010.31 569.155
2350 0 52.2237 12.5613 656 60.1494 1009.79 567.881
2351 0 56.101 13.8322 776 58.2178 1009.69 565.696
2352 0 56.1999 13.968 785 59.2076 1010.24 563.86
2353 0 59.2194 13.7117 812 58.5185 1009.74 564.461
2354 0 59.4535 12.9008 767 60.6532 1009.63 562.18
2355 0 63.396 13.7548 872 59.1938 1009.61 560.511
2356 0 66.3862 13.3612 887 59.4791 1009.77 559.643
2357 0 67.2532 13.5161 909 59.5457 1009.82 559.285
2358 0 68.2398 12.3828 845 61.8959 1009.6 559.441
2359 0 71.2842 13.7618 981 60.4332 1009.31 555.627
2360 0 72.2496 13.5779 981 60.7176 1009.28 556.594
2361 0 76.3501 12.9404 988 61.2409 1008.98 555.399
2362 0 76.3501 12.9142 986 146.565 1008.98 555.424
2363 0 80.2718 13.1428 1055 60.9611 1008.49 554.156
2364 0 84.3072 13.9371 1175 59.9626 1008.22 549.828
2365 0 86.4315 14.2309 1230 59.8423 1008.17 549.121
2366 1 48.1756 11.7902 568 62.9912 1008.26 567.681
2367 0 49.2061 12.7423 627 61.2536 1007.52 568.625
2368 0 51.2886 12.7709 655 62.8046 1007.6 567.145
2369 0 52.2102 12.8902 673 63.3388 1007.81 563.539
2370 0 55.2749 13.3876 740 61.677 1008.03 567.296
2371 0 57.2 13.7588 787 60.8094 1007.81 565.994
2372 0 60.2087 13.0712 787 60.7916 1007.18 564.429
2373 0 61.3631 12.6134 774 61.7765 1007.17 564.236
2374 0 64.1384 12.9096 828 61.2935 1007.33 557.917
2375 0 65.2703 14.2484 930 59.4903 1007.08 560.187
2376 0 67.1969 13.7655 925 60.4205 1006.53 557.83
2377 0 69.1509 14.2008 982 59.6151 1006.96 558.67
2378 0 71.1318 13.9741 994 60.0463 1006.88 558.184
2379 0 76.4594 14.5175 1110 57.964 1007 556.446
2380 0 77.1157 13.9531 1076 59.1524 1007.16 555.372
2381 0 81.3137 14.0444 1142 55.8564 1006.94 554.808
2382 0 80.2827 13.3653 1073 57.3942 1007.13 553.043
2383 0 85.4105 13.2185 1129 56.7626 1007.58 551.679
2384 1 45.3865 12.2503 556 57.8291 1007.28 570.529
2385 0 48.3669 12.6739 613 57.23 1007.14 569.917
2386 0 49.1547 12.9184 635 57.2378 1007.24 570.257
2387 0 53.591 13.1925 707 56.0099 1007.31 567.799
2388 0 53.312 12.9989 693 56.7157 1006.8 567.98
2389 0 55.3135 13.4506 744 56.0605 1007.06 567.05
2390 0 59.3594 13.4604 799 55.9437 1007.1 562.199
2391 0 59.5196 14.5666 867 54.8028 1007.08 560.859
2392 0 62.7914 13.3298 837 56.0048 1006.98 561.049
2393 0 62.5567 13.268 830 56.6554 1007 559.28
2394 0 70.353 17.2701 1215 49.9473 1007.4 555.935
2395 0 70.2647 14.9577 1051 53.4291 1006.84 555.676
2396 0 71.7022 14.4905 1039 54.4572 1007.25 554.953
2397 0 72.5139 14.2042 1030 55.467 1007.03 556.159
2398 0 72.5677 13.7389 997 56.5416 1006.87 554.501
2399 0 78.61 15.3161 1204 53.7392 1006.95 551.947
2400 0 78.6617 13.717 1079 56.1844 1005.97 552.534
2401 0 82.8285 14.8137 1227 54.6756 1006.52 550.347
2402 0 85.6088 13.0127 1114 56.8654 1006.08 548.031
2403 0 88.5969 13.0027 1152 56.9358 1006.03 546.399
2404 1 49.4129 11.3331 560 57.1964 1005.56 567.939
2405 0 50.5605 10.4825 530 57.9755 1005.34 566.555
2406 0 53.4392 12.6125 674 56.0163 1005.45 564.858
2407 0 55.5187 13.0947 727 55.4388 1005.36 565.498
2408 0 55.2941 13.0394 721 56.2843 1005.19 565.365
2409 0 59.524 13.3392 794 55.4773 1005.38 564.757
2410 0 61.6437 13.4645 830 55.9349 1005.02 563.978
2411 0 62.5596 13.3633 836 56.4151 1004.89 561.67
2412 0 63.754 13.1913 841 57.0749 1004.86 562.086
2413 0 66.6128 14.1865 945 55.8635 1004.28 561.468
2414 0 69.5682 13.325 927 56.8123 1004.45 560.311
2415 0 70.474 14.5586 1026 55.7057 1004.31 560.291
2416 0 73.573 14.2036 1045 56.3809 1004.58 559.056
2417 0 75.658 14.2748 1080 56.4491 1004.29 558.313
2418 0 77.5403 13.709 1063 56.619 1004.42 557.206
2419 0 81.519 14.1439 1153 56.0243 1004.25 554.42
2420 0 84.2346 15.4924 1305 54.5165 1004.42 553.096
2421 0 86.6098 14.7674 1279 55.7029 1004.23 553.116
2422 0 91.6773 14.9655 1372 55.0736 1004.42 551.693
2423 0 95.3067 14.6475 1396 55.2708 1004.59 549.1
2424 0 96.4045 14.5636 1404 55.9979 1004.4 547.415
2425 0 102.605 14.4827 1486 55.5498 1004.25 545.423
2426 1 53.4912 11.9272 638 57.4687 1003.72 568.738
2427 0 53.3729 11.9162 636 58.0472 1003.78 568.358
2428 0 59.2565 12.1843 722 56.6898 1003.45 569.719
2429 0 58.361 12.9196 754 56.752 1003.86 567.631
2430 0 61.3056 13.8813 851 56.0999 1003.43 565.363
2431 0 63.2866 13.6522 864 56.2951 1003.49 564.88
2432 0 64.2364 12.6252 811 57.6634 1003.92 563.687
2433 0 68.2664 14.6192 998 54.9689 1003.95 561.979
2434 0 71.3475 13.4833 962 56.2225 1003.79 560.948
2435 0 74.5696 13.5712 1012 55.2065 1004.24 561.795
2436 0 74.5623 13.9749 1042 55.8464 1004.51 558.436
2437 0 79.3597 14.4406 1146 55.0384 1003.95 557.267
2438 0 80.2695 14.4887 1163 55.4987 1004.36 555.843
2439 0 83.2334 14.177 1180 55.6992 1004.01 553.701
2440 0 86.4737 14.1893 1227 55.9421 1003.88 553.16
2441 0 87.2197 13.7584 1200 56.6975 1004.29 551.296
2442 0 92.1914 14.6543 1351 56.2154 1004.71 550.809
2443 0 96.3497 13.9388 1343 57.1169 1004.76 549.957
2444 0 98.171 14.5766 1431 57.2034 1004.89 545.939
2445 0 102.273 14.6765 1501 57.0773 1004.63 545.03
2446 0 105.223 14.8351 1561 56.9308 1004.46 543.261
2447 0 106.326 13.7784 1465 58.6512 1004.8 539.615
2448 1 58.1647 10.7282 624 58.7708 1005.08 565.348
2449 0 63.0438 12.6579 798 57.1729 1004.85 563.764
2450 0 64.2575 11.5317 741 58.3158 1005.22 562.877
2451 0 67.1284 13.3624 897 56.4326 1005.36 560.943
2452 0 68.1207 13.9312 949 56.7977 1005.45 559.525
2453 0 68.1089 12.6268 860 58.9209 1005.46 558.253
2454 0 73.4956 12.9804 954 56.2107 1005.38 556.32
2455 0 75.1113 13.3269 1001 55.7483 1005.55 556.333
2456 0 78.1182 13.9532 1090 55.7651 1006.45 554.803
2457 0 79.1009 13.6787 1082 56.3096 1005.54 552.453
2458 0 82.1192 12.7863 1050 57.619 1006.52 551.77
2459 0 85.1246 13.5918 1157 56.7373 1006.82 550.752
2460 0 89.0999 13.6813 1219 56.822 1007.16 550.274
2461 0 92.1991 14.2951 1318 56.8392 1007.41 550.181
2462 0 93.3124 13.9639 1303 58.5395 1007.67 549.248
2463 0 96.2099 13.9695 1344 58.4717 1007.56 547.219
2464 0 100.21 14.2002 1423 58.0471 1008.09 544.261
2465 0 103.331 14.9713 1547 57.1984 1008.22 544.395
2466 0 107.3 14.287 1533 57.7802 1008.51 544.618
2467 0 109.149 14.3748 1569 58.5583 1008.45 539.239
2468 0 113.269 14.7083 1666 58.1297 1008.32 538.174
2469 0 116.202 14.0359 1631 59.3513 1008.51 535.396
2470 0 119.15 14.1167 1682 59.7675 1008.59 532.372
2471 0 124.291 14.812 1841 58.6143 1009.11 531.263
2472 0 127.369 14.2656 1817 59.0991 1009.59 528.07
2473 0 130.398 14.5324 1895 58.9509 1009.98 529.338
2474 0 136.249 14.6937 2002 58.985 1009.94 524.565
2475 0 140.254 14.3168 2008 59.4517 1009.61 523.116
2476 0 145.492 14.3101 2082 59.4236 1010.24 519.752
2477 1 84.3093 11.7662 992 58.8468 1010.51 551.639
2478 0 87.3141 11.4415 999 58.2392 1010.47 554.311
2479 0 88.4727 12.3767 1095 59.1224 1010.01 548.45
2480 0 92.3522 12.8313 1185 58.4549 1009.87 546.765
2481 0 94.4046 12.5841 1188 59.0497 1010.11 546.944
2482 0 97.261 12.852 1250 59.184 1010.15 544.857
2483 0 100.452 12.384 1244 59.6182 1009.84 543.628
2484 0 102.399 12.5392 1284 60.1791 1009.64 539.725
2485 0 107.38 13.8108 1483 58.6736 1009.35 538.236
2486 0 111.331 13.9134 1549 58.1627 1009.4 538.43
2487 0 114.637 13.172 1510 59.1636 1009.18 536.229
2488 0 117.339 13.4141 1574 59.1836 1009.02 533.967
2489 0 120.739 13.5333 1634 58.7619 1008.94 535.034
2490 0 125.701 13.19 1658 58.7123 1008.86 531.58
2491 0 129.734 12.9111 1675 58.9391 1009 526.804
2492 0 131.659 13.2691 1747 58.4602 1009.1 526.868
2493 0 134.494 13.391 1801 58.9517 1009.02 523.867
2494 0 140.766 13.7818 1940 58.4222 1008.15 519.368
2495 0 143.507 12.7172 1825 59.5753 1008.32 522.953
2496 0 148.812 12.9425 1926 59.6807 1008.16 518.656
2497 0 155.587 13.1952 2053 58.9128 1008.47 517.559
2498 1 94.5639 10.6383 1006 58.3181 1008.89 548.356
2499 0 97.3874 11.2438 1095 58.2676 1008.95 545.12
2500 0 102.617 12.99 1333 56.7727 1008.8 542.034
2501 0 105.505 12.2838 1296 57.6528 1008.63 540.62
2502 0 108.416 13.5497 1469 56.4452 1008 539.092
2503 0 111.589 12.9583 1446 57.5609 1008.11 535.766
2504 0 115.568 13.9917 1617 56.2189 1007.73 534.618
2505 0 116.635 12.8949 1504 57.6868 1007.66 533.661
2506 0 122.522 13.2221 1620 56.7698 1007.36 533.433
2507 0 125.907 13.0811 1647 57.187 1007.43 528.399
2508 0 131.683 14.0641 1852 55.7046 1007.26 529.205
2509 0 135.615 13.7006 1858 56.7863 1007.28 524.163
2510 0 142.035 14.8766 2113 55.1548 1007.93 522.474
2511 0 144.752 13.9272 2016 56.8353 1007.51 519.92
2512 0 149.642 14.1137 2112 56.3759 1007.37 518.712
2513 0 153.703 14.0531 2160 56.3986 1007.75 516.774
2514 1 90.6163 11.0355 1000 56.776 1008.17 549.21
2515 0 91.6625 11.4769 1052 56.8812 1007.85 548.873
2516 0 95.6339 11.3976 1090 57.4596 1007.68 546.282
2517 0 96.5061 12.2065 1178 56.8548 1007.53 544.864
2518 0 100.399 12.5101 1256 56.578 1006.48 541.486
2519 0 103.612 12.3151 1276 56.982 1006.58 541.194
2520 0 107.572 12.81 1378 56.812 1006.38 541.142
2521 0 109.659 13.3869 1468 56.3787 1006.59 538.035
2522 0 111.545 12.8917 1438 57.5285 1006.66 536.954
2523 0 115.634 13.2659 1534 57.575 1007.38 535.263
2524 0 118.526 12.048 1428 59.014 1006.77 534.732
2525 0 121.545 12.7689 1552 58.9543 1007.01 530.772
2526 1 71.382 8.93782 638 57.4734 1006.6 562.321
2527 0 70.469 10.4727 738 57.4363 1006.26 560.626
2528 0 73.306 11.4997 843 55.9478 1006.59 559.223
2529 0 75.431 11.9314 900 56.0644 1006.87 557.58
2530 0 78.4236 11.5654 907 56.2304 1006.58 556.291
2531 0 80.4297 11.4261 919 55.2829 1005.81 555.551
2532 0 83.4183 12.8869 1075 53.6326 1006.26 553.576
2533 0 84.3059 11.4108 962 55.8191 1006.04 551.687
2534 0 87.4864 11.7275 1026 55.6423 1006.44 551.739
2535 0 90.4841 12.3779 1120 55.3777 1005.79 549.397
2536 0 92.4459 11.6717 1079 56.3373 1005.38 549.647
2537 0 94.766 11.5337 1093 57.0961 1005.43 548.401
2538 0 98.6813 11.6942 1154 58.1941 1005.9 546.587
2539 0 103.648 13.3529 1384 56.672 1005.68 546.481
2540 0 105.625 12.7622 1348 57.9347 1005.9 543.775
2541 1 57.4026 10.3305 593 58.0304 1005.66 569.897
2542 0 57.5391 9.62824 554 59.4838 1006.18 567.334
2543 0 61.4036 11.0091 676 58.1361 1005.59 567.355
2544 0 61.3771 11.2094 688 57.4506 1005.47 566.808
2545 0 62.2713 11.4338 712 57.8216 1005.65 565.59
2546 0 65.5068 11.1439 730 57.7753 1005.64 565.303
2547 0 67.6134 12.0982 818 55.7958 1005.3 563.566
2548 0 69.5028 11.9851 833 55.9304 1005.22 563.325
2549 0 73.4219 11.5633 849 57.5607 1005.5 561.749
2550 0 72.6006 12.493 907 57.0375 1005.47 559.376
2551 0 74.5276 11.3247 844 58.3791 1005.51 560.299
2552 0 77.8749 12.0706 940 57.6436 1005.13 559.603
2553 0 81.711 13.0215 1064 56.4079 1005.22 557.686
2554 0 82.6929 11.7543 972 58.4074 1005.11 556.05
2555 0 83.7362 12.2647 1027 58.148 1005 551.048
2556 1 45.6873 11.1847 511 58.4149 1004.47 571.207
2557 0 47.6452 9.88556 471 58.5648 1004.38 573.998
2558 0 48.5086 10.5136 510 58.9706 1004.36 571.524
2559 0 49.5445 10.7176 531 58.6704 1004.49 575.218
2560 0 51.2745 12.1893 625 57.5568 1004.65 573.469
2561 0 53.4263 12.4658 666 57.6757 1004.65 572.417
2562 0 53.3407 11.9608 638 58.674 1004.32 572.483
2563 0 55.3332 13.1386 727 57.9739 1004.57 571.173
2564 0 56.5814 12.2125 691 59.7496 1004.43 570.986
2565 0 58.427 12.8023 748 59.2005 1004.3 569.941
2566 0 60.4692 12.8661 778 60.7969 1004.57 569.763
2567 0 61.7289 12.6845 783 61.4904 1004.37 567.889
2568 0 62.4183 12.8328 801 61.7004 1004.28 566.472
2569 0 64.8108 12.8991 836 61.1711 1004.26 567.129
2570 0 67.6557 13.5391 916 60.3679 1004.23 564.963
2571 0 69.7443 13.4491 938 60.8102 1004.2 564.455
2572 0 70.5668 12.9523 914 61.3665 1003.83 563.304
2573 0 73.7583 13.6798 1009 60.3171 1003.78 561.341
2574 0 75.4446 13.5331 1021 60.5181 1004.11 560.425
2575 0 77.721 14.2818 1110 59.8667 1004.4 558.544
2576 0 77.6132 13.593 1055 60.727 1004.34 555.978
2577 0 82.7645 13.5807 1124 59.5525 1003.69 554.302
2578 0 83.6861 13.0727 1094 60.6051 1004.08 553.953
2579 0 83.6861 13.0488 1092 172.092 1004.08 553.949
2580 0 90.3691 13.5445 1224 59.0727 1003.22 549.26
2581 1 48.3898 9.48548 459 61.7211 1003.17 569.529
2582 0 49.2571 10.5162 518 59.778 1002.74 570.477
2583 0 51.2746 10.473 537 59.8566 1002.77 569.507
2584 0 51.1753 10.6497 545 59.8275 1003.18 568.486
2585 0 55.0606 12.2411 674 57.6261 1003.29 568.945
2586 0 56.1069 11.6741 655 59.5282 1003.85 569.913
2587 0 59.1783 13.1298 777 57.4427 1003.69 569.636
2588 0 59.2011 12.8038 758 58.1741 1004.05 569.438
2589 0 61.2259 12.6254 773 57.8991 1004.54 568.351
2590 0 64.1564 13.358 857 56.5111 1005.33 567.182
2591 0 66.1532 13.9525 923 56.2914 1005.09 565.536
2592 0 68.1573 13.5129 921 57.0282 1005.39 563.982
2593 0 69.2088 12.325 853 58.6272 1005.52 563.535
2594 0 72.1517 13.2083 953 57.5761 1005.84 562.723
2595 0 73.3673 12.9894 953 58.1794 1005.9 560.556
2596 0 75.3564 12.5935 949 58.8367 1006.1 560.236
2597 0 77.2809 13.3539 1032 58.9128 1006.25 557.731
2598 0 79.2894 13.3814 1061 58.9698 1006.48 555.14
2599 0 82.2019 13.2722 1091 59.1201 1006.67 552.381
2600 0 87.1893 13.1324 1145 58.8943 1007.06 551.449
2601 0 91.1578 12.9117 1177 59.1461 1007.19 551.639
2602 0 93.1594 13.1495 1225 59.2547 1007.06 548.464
2603 1 51.1412 9.56176 489 59.1472 1008.54 573.194
2604 0 50.1445 10.37 520 59.6596 1008.13 571.844
2605 0 54.0616 10.0996 546 59.6832 1008.31 569.775
2606 0 55.1801 11.9971 662 57.7069 1006.55 568.896
2607 0 57.3 12.4084 711 57.7637 1006.38 567.761
2608 0 60.2644 12.1631 733 57.6207 1007.24 567.233
2609 0 62.3027 12.4714 777 57.4131 1007.7 565.945
2610 0 62.3167 12.9179 805 57.1304 1007.43 565.38
2611 0 65.1586 12.3852 807 57.9988 1007.93 564.919
2612 0 64.1947 12.0882 776 59.0683 1007.85 564.898
2613 0 67.3081 13.5051 909 57.956 1008.21 562.284
2614 0 69.2924 12.5988 873 58.8328 1008.45 563.23
2615 0 74.1703 13.3072 987 58.2219 1008.62 559.85
2616 0 75.135 13.4425 1010 58.5703 1008.71 559.473
2617 0 76.0913 12.8924 981 60.0255 1008.53 559.467
2618 0 79.2151 13.6338 1080 59.162 1008.44 557.467
2619 0 80.1643 13.4474 1078 59.3701 1008.84 557.445
2620 0 85.1233 13.4511 1145 59.4463 1008.82 554.863
2621 0 88.1579 13.1355 1158 60.0035 1008.93 553.374
2622 0 90.1553 13.7097 1236 59.8843 1008.93 551.4
2623 0 94.1774 13.7719 1297 59.6731 1009.36 551.741
2624 1 50.0276 10.794 540 61.4259 1009.12 572.574
2625 0 50.0352 10.5925 530 62.1132 1008.91 570.677
2626 0 55.0732 11.3485 625 61.2992 1008.76 569.382
2627 0 56.2464 12.7119 715 58.6685 1008.66 568.909
2628 0 57.3133 12.58 721 59.3495 1008.77 567.022
2629 0 59.3 12.8331 761 58.8607 1008.57 565.727
2630 0 60.3054 12.7186 767 59.0561 1008.9 565.193
2631 0 62.268 12.5265 780 59.0449 1008.39 565.121
2632 0 63.1945 12.9125 816 59.1679 1008.08 563.429
2633 0 67.2323 13.1336 883 58.393 1008.13 560.951
2634 0 69.2572 13.3271 923 58.2806 1008.08 559.756
2635 0 72.363 12.9486 937 58.5176 1008.3 561.117
2636 0 72.1535 13.5129 975 58.8933 1008.29 557.698
2637 0 75.2895 13.4547 1013 58.6051 1008.79 558.085
2638 0 76.1562 13.7349 1046 58.6138 1008.38 557.495
2639 0 81.2232 13.6045 1105 58.1321 1008.59 555.448
2640 0 84.3232 13.8633 1169 57.7947 1008.55 554.562
2641 0 85.2908 13.7295 1171 58.1332 1009.07 553.278
2642 0 86.285 12.3312 1064 60.7133 1008.76 551.32
2643 0 90.3577 12.8711 1163 59.6071 1008.36 549.428
2644 0 92.2482 12.4555 1149 60.5004 1009.02 547.07
2645 1 52.228 10.4925 548 58.8577 1008.35 569.27
2646 0 53.368 11.1115 593 58.0691 1007.95 565.501
2647 0 52.1735 10.7909 563 58.2167 1007.11 563.377
2648 0 53.2304 10.727 571 58.5026 1007.82 565.04
2649 0 57.0097 12.5593 716 54.662 1007.15 565.075
2650 0 57.0371 12.2552 699 55.1144 1007.34 564.415
2651 0 59.0247 12.2152 721 55.387 1007.73 564.58
2652 0 61.0442 11.9422 729 55.4019 1007.67 566.159
2653 0 62.0219 12.5439 778 55.8509 1008.01 563.589
2654 0 63.0156 12.5207 789 56.1103 1008.09 563.009
2655 0 66.1061 12.7674 844 56.032 1007.36 562.802
2656 0 68.1146 12.6111 859 55.709 1008.43 560.906
2657 0 69.0514 12.3531 853 56.0856 1008.36 560.681
2658 0 72.1277 12.9492 934 55.8833 1008.35 559.328
2659 0 74.1172 12.858 953 55.9895 1008.52 558.144
2660 0 78.077 12.5389 979 56.1338 1008.79 558.254
2661 0 78.2872 12.7479 998 56.9479 1008.63 556.278
2662 0 82.1002 13.0207 1069 56.9579 1007.18 554.92
2663 0 84.1781 13.4714 1134 56.6552 1007.43 553.58
2664 1 44.0813 9.48248 418 58.3756 1007.88 575.333
2665 0 47.2273 10.5024 496 57.3548 1007.77 572.825
2666 0 49.5066 10.5036 520 56.9596 1007.68 572.158
2667 0 52.2574 11.2903 590 56.1763 1007.63 572.039
2668 0 53.196 10.9219 581 57.0465 1007.89 569.811
2669 0 55.2747 12.2479 677 55.3589 1007.37 570.427
2670 0 56.0594 12.8257 719 54.1488 1006.27 569.293
2671 0 59.1038 12.8418 759 53.9592 1006.22 568.524
2672 0 61.0827 11.8528 724 55.1588 1006.15 567.902
2673 0 64.0315 12.3377 790 54.3975 1005.68 566.503
2674 0 64.088 12.7013 814 54.4398 1006.09 565.074
2675 0 66.0866 12.5895 832 54.256 1005.78 564.526
2676 0 68.082 12.5143 852 54.0587 1005.36 563.845
2677 0 70.0778 12.5432 879 54.6689 1005.53 561.944
2678 0 72.0575 12.5455 904 54.7677 1005.41 563.01
2679 0 75.0486 12.6451 949 54.8272 1005.76 557.414
2680 0 78.0994 13.8157 1079 53.0853 1005.53 558.424
2681 0 80.1354 12.9156 1035 53.9063 1004.79 559.404
2682 0 82.1697 12.3038 1011 54.6815 1005.13 556.164
2683 0 86.201 12.6333 1089 54.0037 1005.28 553.938
2684 1 47.0685 11.3239 533 53.3527 1004.91 574.488
2685 0 44.2143 10.7658 476 54.0735 1005.68 574.122
2686 0 47.1737 10.9807 518 52.7838 1006.47 573.861
2687 0 49.0304 11.1563 547 53.0055 1006.86 573.497
2688 0 49.1783 11.1431 548 53.2993 1006.11 573.445
2689 0 53.1472 11.4211 607 52.5074 1006.31 573.409
2690 0 52.0968 10.6916 557 54.1634 1005.27 571.679
2691 0 55.1973 12.8992 712 51.7669 1005.3 570.926
2692 0 56.1368 11.4898 645 53.4527 1004.86 569.845
2693 0 59.1277 12.1263 717 52.4644 1004.76 570.689
2694 0 60.1103 11.612 698 53.1246 1004.66 569.805
2695 0 61.1184 12.0749 738 52.7629 1005.37 568.702
2696 0 63.1205 11.7078 739 53.5332 1005.37 567.231
2697 0 64.1502 13.2034 847 51.9197 1005.44 566.191
2698 0 66.0751 11.941 789 53.256 1005.2 566.266
2699 0 69.1148 12.718 879 52.3561 1005.02 565.893
2700 0 70.2145 11.7212 823 53.5152 1005.2 564.475
2701 0 72.1348 12.4905 901 52.8868 1004.88 562.882
2702 0 77.2204 13.2866 1026 52.1442 1005.11 561.586
2703 0 78.1557 13.3324 1042 52.5106 1004.76 559.868
2704 0 79.1551 13.164 1042 52.8896 1005.11 557.531
2705 0 82.2201 13.2814 1092 52.7399 1004.13 557.184
2706 0 84.3006 12.9299 1090 53.644 1004.39 555.672
2707 0 87.2506 13.1804 1150 52.9687 1003.98 556.541
2708 0 88.1846 12.5532 1107 54.5266 1004.42 554.373
2709 0 92.2659 12.9083 1191 53.9446 1004.55 553.581
2710 0 96.2601 13.3285 1283 53.5136 1004.55 551.09
2711 0 99.3014 12.5174 1243 54.8447 1004.47 549.147
2712 1 51.1297 10.7374 549 55.3825 1002.96 573.419
2713 0 54.0646 12.0596 652 53.9003 1005.61 572.345
2714 0 55.2074 11.2847 623 54.7801 1006.12 571.955
2715 0 57.0485 12.095 690 54.3667 1006.24 569.943
2716 0 60.2378 13.2641 799 51.8623 1006.07 569.567
2717 0 62.1085 12.5104 777 52.7426 1006.13 569.637
2718 0 66.1142 16.29 1077 47.6351 1005.87 565.207
2719 0 67.1456 14.9079 1001 49.6573 1005.74 564.247
2720 0 68.0949 15.1847 1034 50.1625 1005.56 565.052
2721 0 75.0885 20.9753 1575 42.913 1005.78 557.783
2722 0 77.2043 16.0483 1239 47.8596 1005.66 560.476
2723 0 78.1104 16.5279 1291 47.8404 1005.59 560.378
2724 0 77.0681 14.6234 1127 50.5013 1005.84 554.625
2725 0 75.107 13.1945 991 53.33 1005.1 541.987
2726 0 77.1239 12.5253 966 53.7888 1004.72 544.146
2727 0 80.1737 13.0342 1045 53.2746 1003.82 538.323
2728 0 83.1711 13.3099 1107 53.5465 1003.82 534.984
2729 0 83.2684 12.6098 1050 54.4981 1003.95 536.191
2730 0 86.1133 13.0758 1126 54.2789 1004.2 542.648
2731 0 89.1243 12.477 1112 54.7077 1004.46 544.797
