time division length width area intensity CMx CMy
0 0 46.6503 12.0471 562 126.555 133.407 482.265
1 0 48.6462 13.1768 641 123.267 133.396 481.222
2 0 49.4476 13.0846 647 121.594 133.638 481.413
3 0 49.6196 12.3137 611 125.003 133.678 479.953
4 0 51.4119 13.246 681 120.122 134.034 480.862
5 0 53.4715 13.7643 736 118.402 134.654 479.478
6 0 53.4527 13.7131 733 117.207 135.427 480.168
7 0 56.4905 14.2148 803 117.061 134.706 476.818
8 0 55.4077 13.1029 726 120.129 135.196 476.774
9 1 30.0466 10.8498 326 121.724 136.874 489.301
10 0 33.1316 11.1374 369 118.388 136.42 487.173
11 0 34.0395 10.194 347 119.21 136.582 488.971
12 0 32.0569 10.6685 342 120.339 135.857 488.544
13 0 34.0147 10.7307 365 117.652 136.748 487.805
14 0 34.0835 10.5036 358 119.21 135.584 487.894
15 0 36.0341 12.2661 442 114.803 135.484 487.482
16 0 35.0157 10.8523 380 118.987 136.339 485.842
17 0 37.0278 11.5589 428 116.208 136.077 485.755
18 0 37.0244 12.0461 446 115.948 133.399 486.11
19 0 39.0554 13.2376 517 113.662 134.936 483.948
20 0 43.0322 14.5937 628 106.207 132.608 485.443
21 0 40.2939 12.9796 523 114.264 134.103 485.212
22 0 43.2965 13.9272 603 109.426 135.312 485.023
23 0 42.2718 12.9401 547 113.108 135.616 485.885
24 0 44.1802 14.1919 627 112.263 135.352 483.421
25 0 47.1693 14.9038 703 109.752 134.947 483.784
26 0 46.3489 15.0381 697 113.145 134.386 481.627
27 0 47.1707 15.3485 724 111.695 135.921 482.668
28 0 48.279 14.0641 679 114.863 136.555 482.673
29 0 52.214 16.6239 868 107.484 136.014 479.902
30 0 51.2038 14.5692 746 114.084 137.18 480.685
31 0 53.2668 15.244 812 112.744 137.724 480.432
32 0 52.2239 14.5527 760 117.212 137.496 479.074
33 0 56.2511 15.3064 861 113.717 138.534 477.668
34 0 57.1937 16.2256 928 112.124 138.798 477.71
35 0 60.2209 15.4099 928 114.899 138.805 476.621
36 0 61.1062 16.8886 1032 113.632 139.103 474.726
37 0 64.1746 16.2993 1046 114.23 139.391 475.125
38 0 65.2211 17.6323 1150 111.283 139.336 475.156
39 0 65.3404 16.942 1107 114.381 138.842 474.63
40 0 69.2218 15.9198 1102 117.498 138.98 471.924
41 0 72.1004 17.6421 1272 112.645 138.877 472.855
42 0 72.1603 16.4495 1187 117.297 139.389 471.432
43 0 76.1675 16.0961 1226 117.898 139.846 470.275
44 0 77.1462 17.6289 1360 115.829 139.342 470.554
45 0 80.1662 16.9273 1357 118.379 140.382 467.707
46 1 43.1333 11.8006 509 127.23 139.965 486.12
47 0 42.0528 13.055 549 123.322 139.617 487.667
48 0 42.0966 12.0912 509 125.513 139.802 487.709
49 0 49.0841 13.6093 668 120.145 139.012 486.681
50 0 47.0588 13.9613 657 119.47 139.16 485.467
51 0 48.0771 13.5615 652 119.745 138.807 485.753
52 0 48.2088 13.1719 635 121.209 139.951 485.288
53 0 52.1643 14.3201 747 117.807 139.657 484.181
54 0 53.1705 16.5129 878 113.45 140.106 481.546
55 0 55.2514 15.6376 864 114.541 138.985 482.657
56 0 56.1734 15.0427 845 117.734 138.839 480.553
57 0 58.0791 16.7702 974 114.736 140.667 477.765
58 0 61.0962 15.3528 938 117.091 139.821 478.326
59 0 60.1767 15.8699 955 118.209 139.586 478.099
60 0 63.066 16.3955 1034 116.249 139.423 476.063
61 0 65.2061 18.2958 1193 111.776 139.381 475.162
62 0 66.127 15.8634 1049 118.048 139.871 473.626
63 0 69.2358 16.7254 1158 117.949 139.58 473.635
64 0 70.2497 15.8577 1114 121.128 139.773 473.192
65 0 72.35 16.5169 1195 120.268 139.468 471.553
66 0 74.175 16.879 1252 120.503 139.541 468.188
67 0 76.1757 16.3832 1248 121.4 140.018 468.73
68 0 80.1985 17.4317 1398 118.426 140 467.27
69 0 83.2442 16.7819 1397 120.535 140.241 465.135
70 0 83.4081 16.0176 1336 125.546 138.725 464.219
71 0 86.4533 15.384 1330 126.31 139.805 465.054
72 0 92.2024 17.9388 1654 118.646 138.638 465.178
73 0 94.3208 16.5923 1565 124.689 137.903 459.376
74 0 95.3086 16.0846 1533 126.509 138.374 460.528
75 0 99.3046 16.6357 1652 126.008 138.844 457.093
76 0 103.248 17.9664 1855 121.654 140.512 457.804
77 0 106.214 17.8884 1900 122.055 139.606 454.544
78 0 108.221 17.0669 1847 124.024 140.051 452.545
79 0 112.262 16.791 1885 126.735 139.457 450.933
80 0 118.206 17.9602 2123 122.528 140.393 449.81
81 0 121.228 18.1476 2200 122.7 140.612 448.158
82 1 61.1437 13.8526 847 123.516 140.175 478.842
83 0 65.1728 14.8988 971 121.471 140.531 476.558
84 0 65.0824 13.9208 906 126.854 139.514 474.617
85 0 69.1196 15.5817 1077 121.548 140.163 472.988
86 0 70.2372 14.9066 1047 124.883 139.892 472.593
87 0 73.1061 15.9768 1168 123.373 140.082 469.705
88 0 77.159 15.6819 1210 122.808 140.255 468.944
89 0 80.0832 16.4204 1315 119.735 139.548 469.288
90 0 83.2302 16.6166 1383 120.489 139.88 465.662
91 0 85.2115 15.5378 1324 122.616 140.077 464.137
92 0 87.1206 15.5991 1359 122.377 140.322 462.035
93 0 92.2089 16.0397 1479 121.694 140.147 460.346
94 0 93.1283 16.0746 1497 122.886 140.122 458.787
95 1 51.0332 13.1091 669 122.176 140.744 478.849
96 0 51.0643 13.0032 664 120.48 140.718 480.854
97 0 54.0644 14.4088 779 117.994 140.522 477.431
98 0 57.0401 14.3057 816 118.199 139.993 477.335
99 0 58.1259 14.7611 858 118.268 140.073 477.334
100 0 61.1127 14.6942 898 118.376 140.345 476.506
101 0 62.1325 14.968 930 120.102 141.047 474.845
102 0 66.1164 15.0038 992 118.531 140.532 474.026
103 0 68.1255 15.3247 1044 118.376 140.525 474.332
104 0 68.1144 14.3729 979 120.865 140.971 472.559
105 0 71.132 13.7772 980 122.469 141.115 470.63
106 0 73.128 14.7276 1077 122.202 141.607 470.396
107 0 75.1656 13.0645 982 126.498 141.421 468.876
108 0 78.1502 13.7428 1074 126.06 141.801 466.864
109 0 81.1944 13.4369 1091 124.593 141.289 466.859
110 1 42.1198 10.8025 455 120.277 141.567 487.059
111 0 46.0134 11.8661 546 117.645 140.866 485.771
112 0 48.0364 14.3433 689 112.951 141.009 484.591
113 0 48.1194 11.0766 533 119.456 140.456 485.047
114 0 49.0147 11.8944 583 118.094 141.398 484.403
115 0 52.1286 13.3516 696 115.109 139.228 483.21
116 0 52.116 12.2611 639 117.989 140.023 482.635
117 0 54.2843 12.453 676 120.749 139.879 480.746
118 0 57.2581 14.5307 832 113.962 139.954 479.486
119 0 58.308 13.2915 775 116.44 139.365 477.534
120 0 60.2731 13.4388 810 115.495 139.521 477.156
121 0 64.3007 13.8101 888 113.587 139.455 476.617
122 0 62.39 14.0728 878 114.121 138.839 474.509
123 0 67.4663 13.8291 933 112.884 138.894 473.364
124 0 72.3537 15.0096 1086 108.127 139.366 472.506
125 0 72.3711 12.961 938 114.238 139.156 469.038
126 0 75.3906 14.2989 1078 110.222 139.584 470.135
127 0 79.2632 13.9787 1108 109.89 139.709 468.916
128 0 81.1291 13.4477 1091 113.049 139.387 465.593
129 0 83.2374 12.2781 1022 112.99 139.202 467.311
130 1 44.0272 11.9017 524 109.685 139.557 482.51
131 0 46.0231 12.0592 555 107.625 139.259 483.508
132 0 47.0433 11.8827 559 106.277 139.249 481.474
133 0 50.047 11.669 584 103.788 139.606 480.753
134 0 51.0659 14.119 721 98.7545 140.012 480.528
135 0 52.1147 11.6474 607 102.736 139.474 479.75
136 0 55.1509 13.6353 752 100.346 139.707 479.646
137 0 55.2004 14.0398 775 99.5239 140.115 478.359
138 0 57.3419 12.8353 736 101.077 140.386 478.897
139 0 59.2171 11.3143 670 102.831 139.946 477.273
140 0 63.1928 13.3559 844 98.9763 140.754 476.039
141 0 62.2367 12.7738 795 100.73 140.609 476.186
142 0 67.2967 14.7258 991 96.5873 140.974 475.896
143 0 69.2418 13.9222 964 98.8589 139.273 473.448
144 0 70.2358 13.7394 965 100.927 139.107 473.432
145 0 75.3473 13.3382 1005 101.338 139.369 472.567
146 0 77.266 13.5894 1050 101.775 139.518 471.987
147 0 79.2429 13.6164 1079 102.779 140.053 467.728
148 0 83.1682 14.4647 1203 101.438 139.877 468.53
149 0 86.2968 14.7167 1270 101.487 139.476 467.202
150 1 43.0428 10.8961 469 103.505 140.64 488.446
151 0 46.0814 12.5213 577 101.189 139.92 485.797
152 0 47.0838 12.5946 593 101.954 140.465 485.992
153 0 47.0451 13.2851 625 101.093 140.136 484.778
154 0 50.182 13.172 661 100.209 140.779 485.588
155 0 51.2634 13.772 706 100.952 138.887 483.722
156 0 54.1876 14.173 768 100.621 139.086 481.449
157 0 55.1219 13.0438 719 103.67 138.78 479.758
158 0 58.1268 13.0577 759 102.895 138.808 479.74
159 0 59.3029 15.3112 908 100.431 139.281 477.113
160 0 62.1844 15.5184 965 98.2487 138.909 476.723
161 0 64.3095 13.3262 857 102.485 139.202 476.874
162 0 66.2613 14.971 992 101.706 139.397 473.583
163 0 68.1795 14.1245 963 102.946 140.014 474.848
164 0 71.2402 13.5878 968 104.117 140.115 472.033
165 0 74.1615 15.1022 1120 101.238 139.916 471.78
166 0 76.2278 12.3577 942 106.626 140.344 469.837
167 0 80.3908 13.2727 1067 104.868 139.461 468.679
168 1 40.4192 10.3169 417 102.52 141.635 490.139
169 0 43.4568 11.7818 512 102.643 141.797 488.223
170 0 45.326 12.4211 563 103.272 141.437 485.847
171 0 47.0929 13.2079 622 102.431 140.246 485.627
172 0 48.4114 14.8519 719 98.6801 139.791 485.189
173 0 50.5825 14.0958 713 100.454 139.429 483.868
174 0 51.3189 13.231 679 101.165 139.496 483.262
175 0 53.4751 14.4927 775 97.6361 139.476 484.974
176 0 55.2968 14.5397 804 99.5199 139.602 482.937
177 0 56.3492 14.8538 837 98.9498 139.796 482.125
178 0 58.3994 13.3221 778 101.29 140.153 481.7
179 0 59.34 13.8524 822 101.026 139.193 480.21
180 0 64.2791 14.8571 955 97.2775 139.338 480.908
181 0 63.2981 13.4127 849 101.953 139.014 479.001
182 0 63.2719 12.9283 818 104.297 138.474 476.488
183 0 68.2515 14.1389 965 101.911 138.655 474.788
184 0 71.3691 16.4217 1172 96.8038 138.361 474.395
185 0 73.3943 15.5462 1141 99.9851 137.93 472.27
186 0 76.5743 15.9453 1221 99.7011 137.44 471.715
187 0 78.5337 15.0636 1183 101.47 137.31 471.851
188 0 80.27 16.3199 1310 100.537 136.837 468.558
189 0 83.3142 15.8316 1319 101.803 136.525 467.168
190 0 85.4709 15.3854 1315 103.513 136.141 463.43
191 1 43.388 10.579 459 104.368 136.704 487.255
192 0 47.4881 12.9085 613 103.721 136.667 483.305
193 0 47.8421 11.2035 536 105.759 138.097 483.521
194 0 50.5078 14.0374 709 103.11 138.344 480.787
195 0 50.5808 13.9579 706 104.586 138.579 479.435
196 0 53.4338 14.1296 755 103.604 138.453 478.865
197 0 53.4586 14.4785 774 104.65 139.018 478.859
198 0 55.5955 15.6847 872 102.764 138.499 477.48
199 0 57.5376 14.6165 841 106.36 138.71 475.317
200 0 59.598 16.0744 958 103.447 138.714 475.024
201 0 62.3199 15.6611 976 104.055 139.408 474.492
202 0 64.0649 15.4843 992 103.101 138.847 475.472
203 0 65.14 14.5533 948 106.954 139.02 473.404
204 0 68.9046 16.1818 1115 105.371 139.327 471.794
205 0 72.9059 16.4596 1200 104.836 139.552 470.595
206 0 73.9196 15.7468 1164 108.002 139.685 470.932
207 0 76.933 17.3398 1334 104.899 139.756 469.672
208 0 77.975 16.2616 1268 108.596 138.855 470.16
209 0 81.0668 16.8133 1363 108.768 139.274 467.33
210 0 83.866 16.5621 1389 110.203 139.342 466.617
211 1 45.732 12.442 569 114.448 138.759 485.898
212 0 46.5373 12.2053 568 113.678 138.264 486.831
213 0 49.4672 11.9877 593 115.374 137.82 485.017
214 0 52.5929 13.4999 710 112.314 137.446 483.846
215 0 52.484 13.3564 701 112.755 137.722 482.852
216 0 53.5226 13.9941 749 113.065 137.96 482.039
217 0 57.2244 16.5314 946 106.467 137.527 481.266
218 0 58.4811 14.8082 866 110.234 137.335 480.67
219 0 59.4142 15.1142 898 109.487 137.027 480.521
220 0 60.6364 14.6777 890 113.189 138.09 476.867
221 0 63.6036 15.6595 996 110.026 137.786 476.218
222 0 65.453 14.7434 965 112.776 137.768 475.251
223 0 68.4854 14.3826 985 112.828 137.728 473.085
224 0 70.4566 14.9312 1052 111.485 137.189 473.116
225 0 73.468 14.6186 1074 111.873 137.518 471.836
226 0 74.5821 15.4461 1152 112.53 138.108 468.077
227 0 78.4288 15.581 1222 110.798 137.966 468.367
228 0 79.5088 14.8285 1179 114.372 138.06 466.159
229 0 79.5088 14.8285 1179 159.07 139.06 466.159
230 0 84.4898 13.6111 1150 117.683 138.957 462.859
231 0 86.507 14.7734 1278 114.134 139.049 461.656
232 1 50.3851 9.78464 493 111.16 139.598 483.941
233 0 47.3304 11.557 547 111.856 140.219 481.506
234 0 50.2979 11.6506 586 110.7 140.614 481
235 0 54.2018 12.2321 663 109.974 141.605 479.305
236 0 55.3373 12.6316 699 109.256 141.019 479.838
237 0 59.2142 13.392 793 107.008 141.323 479.213
238 0 60.1004 13.8435 832 107.034 140.294 478.179
239 0 62.1539 13.724 853 108.293 140.368 477.655
240 0 65.1828 13.1016 854 108.671 140.564 477.329
241 0 68.215 13.1203 895 108.954 139.668 477.578
242 0 70.17 13.3105 934 110.396 139.043 473.119
243 0 73.1383 13.3172 974 111.219 138.662 472.354
244 0 76.0802 15.0762 1147 107.778 138.741 471.122
245 0 80.2155 13.7879 1106 109.82 139.018 470.775
246 1 43.1111 10.8325 467 106.058 139.216 487.91
247 0 44.1246 10.493 463 107.216 139.371 487.4
248 0 46.1715 11.0458 510 106.294 138.992 486.535
249 0 47.1815 11.8479 559 105.925 138.005 485.245
250 0 49.1969 13.4561 662 102.379 138.473 483.992
251 0 50.2038 12.748 640 105.127 138.197 483.988
252 0 51.2578 11.2568 577 110.189 137.778 481.39
253 0 53.0914 12.9965 690 106.993 137.535 481.504
254 0 54.1443 12.5775 681 107.932 137.204 481.222
255 0 56.1719 13.6189 765 105.807 137.004 481.45
256 0 59.2068 13.3768 792 107.838 137.745 478.241
257 0 61.1588 14.0944 862 105.876 137.825 477.602
258 0 60.2609 14.1385 852 107.31 138.128 475.805
259 0 64.2584 14.9708 962 104.696 137.909 475.399
260 0 65.1235 12.9139 841 110.199 138.335 472.523
261 0 67.075 12.4935 838 111.126 137.827 473.7
262 0 70.2484 14.0928 990 108.973 137.784 471.656
263 0 72.0576 14.7937 1066 107.72 138.404 470.876
264 0 75.1429 14.7985 1112 106.987 139.074 469.854
265 1 40.0816 9.45572 379 108.29 139.491 488.739
266 0 41.0905 9.44257 388 109.621 139.765 487.358
267 0 42.1217 9.61499 405 111.664 140.696 486.504
268 0 43.2283 9.71586 420 110.14 141.34 487.331
269 0 45.2135 12.1424 549 106.459 141.37 485.832
270 0 44.2928 10.7241 475 110.705 140.853 486.718
271 0 48.1872 11.7459 566 106.191 140.783 486.809
272 0 48.1682 11.875 572 104.066 140.836 486.691
273 0 48.2798 12.469 602 104.61 141.018 485.513
274 0 51.2136 11.7937 604 105.886 140.164 486.248
275 0 51.1662 13.2118 676 102.321 140.42 487.012
276 0 53.1379 12.8722 684 105.345 139.67 484.854
277 0 55.2133 12.3521 682 106.957 139.6 483.726
278 0 57.0381 14.4114 822 100.816 137.664 483.033
279 0 56.0523 12.2921 689 106.295 137.402 482.421
280 0 59.0706 13.0691 772 103.891 137.133 482.92
281 0 59.0706 13.1537 777 136.589 137.127 482.922
282 0 63.1612 14.9142 942 101.182 136.686 479.018
283 0 64.0453 13.9745 895 105.009 136.03 476.769
284 0 68.0964 14.5676 992 104.548 135.412 475.748
285 0 70.0333 14.336 1004 105.569 135.905 474.848
286 0 72.0501 15.2394 1098 105.006 135.392 471.647
287 1 39.0445 10.6801 417 108.002 135.928 488.199
288 0 40.0329 10.1916 408 108.733 135.029 487.488
289 0 43.0158 11.3912 490 106.216 135.818 487.943
290 0 42.017 10.472 440 108.107 136.402 487.293
291 0 45.0338 13.0347 587 103.116 135.995 485.077
292 0 46.0763 11.9801 552 104.538 135.966 484.56
293 0 47.0215 12.1859 573 104.763 137.148 484.29
294 0 48.1879 12.5758 606 104.886 139.804 482.64
295 0 51.2872 13.7071 703 102.578 140.44 482.896
296 0 52.3021 13.1543 688 104.587 139.839 481.907
297 0 53.2158 12.9661 690 105.878 140.304 482.214
298 0 53.1376 11.5737 615 109.707 141.234 481.496
299 0 55.21 12.3891 684 108.893 141.215 481.225
300 0 59.2259 14.7064 871 104.263 139.816 479.687
301 0 60.123 13.2063 794 107.031 140.521 481.132
302 0 63.2283 15.5943 986 101.918 140.203 479.186
303 0 65.0654 14.1704 922 104.996 140.274 478.215
304 0 66.1987 14.9852 992 102.36 140.289 481.524
305 0 70.0918 15.1658 1063 102.842 140.587 477.523
306 0 71.2492 12.8282 914 108.097 139.854 477.986
307 0 76.1752 15.4118 1174 103.724 139.945 475.818
308 1 40.0815 11.1523 447 106.996 139.823 492.754
309 0 40.0809 10.3041 413 109.751 139.84 491.542
310 0 44.1147 11.9461 527 103.38 139.558 491.956
311 0 45.2116 11.6121 525 104.72 139.08 490.739
312 0 45.1647 9.65356 436 106.752 137.991 490.647
313 0 46.0222 10.6905 492 104.98 137.132 487.543
314 0 47.1142 13.9024 655 99.3374 136.727 486.745
315 0 48.1929 12.0142 579 102.872 137.995 487.801
316 0 50.2107 13.5429 680 100.8 138.04 485.294
317 0 50.2159 12.3069 618 105.257 137.764 484.51
318 0 52.2122 12.8323 670 104.69 137.349 482.433
319 0 54.1278 12.0271 651 105.978 137.651 482.418
320 0 59.1975 15.0682 892 97.8677 137.877 482.257
321 0 58.1971 15.3616 894 100.596 137.839 477.733
322 0 57.1735 12.7856 731 106.449 137.512 477.011
323 0 61.1285 13.578 830 104.176 138.302 476.757
324 0 63.266 13.6408 863 103.513 137.627 477.031
325 0 65.1917 13.9128 907 103.949 138.788 473.71
326 0 66.1085 13.8863 918 103.566 139.252 474
327 0 70.2483 15.1036 1061 100.737 139.67 472.088
328 0 72.1634 13.5941 981 103.808 140.119 473.24
329 0 74.1308 14.1237 1047 102.891 141.291 470.731
330 0 77.14 14.0394 1083 102.726 141.235 469.567
331 0 79.2312 13.6058 1078 102.793 141.616 471.328
332 0 83.2908 16.7486 1395 97.5534 141.649 467.673
333 0 85.1738 15.4742 1318 98.7898 141.522 470.81
334 1 45.0419 10.3459 466 103.579 140.633 488.215
335 0 46.0859 10.0899 465 103.133 140.677 489.462
336 0 49.1244 11.2368 552 101.536 140.216 488.775
337 0 51.106 12.0729 617 102.666 140.366 486.968
338 0 52.1328 12.3914 646 97.5046 140.837 488.3
339 0 53.1725 12.8826 685 98.3898 140.165 487.012
340 0 53.1547 12.1156 644 102.116 139.405 484.157
341 0 56.2261 12.2897 691 102.622 140.153 482.541
342 0 59.2254 14.5883 864 97.4988 139.824 483.564
343 0 58.1195 12.8872 749 102.053 138.907 482.427
344 0 60.2793 14.383 867 100.292 138.103 479.567
345 0 62.1073 14.475 899 99.3882 137.531 480.028
346 0 65.122 15.6168 1017 98.2596 138.133 477.625
347 0 67.175 14.6334 983 100.518 136.513 475.874
348 0 69.3833 13.4326 932 103.428 136.161 476.668
349 0 71.2797 15.334 1093 101.744 136.694 472.936
350 0 71.154 13.6886 974 105.791 136.705 471.436
351 0 75.2388 14.1815 1067 105.705 137.274 469.032
352 0 78.3065 15.069 1180 104.393 137.981 467.325
353 0 81.305 16.1122 1310 102.65 138.622 466.83
354 0 84.4082 14.9985 1266 104.958 138.923 466.259
355 1 44.0931 11.0221 486 107.399 140.556 484.644
356 0 46.113 11.2333 518 107.392 140.749 483.925
357 0 48.1274 12.3215 593 104.234 141.953 483.668
358 0 47.086 11.4896 541 107.015 141.588 481.856
359 0 50.1044 12.2145 612 105.971 141.353 482.546
360 0 53.1374 12.8158 681 103.838 141.859 482.69
361 0 53.1321 12.8547 683 105.921 141.398 481.55
362 0 56.1851 12.2274 687 106.049 142.495 481.737
363 0 57.1777 14.761 844 102.233 142.256 480.134
364 0 58.2811 13.4006 781 104.611 143.247 480.535
365 0 59.224 14.6393 867 104.386 143.556 480.433
366 0 63.3314 13.8636 878 105.891 143.483 480.026
367 0 65.2758 13.8642 905 106.303 142.443 479.566
368 0 66.2545 14.9877 993 106.348 142.199 478.465
369 0 68.3522 14.557 995 108.206 141.598 478.986
370 0 71.2843 14.1406 1008 109.974 141.027 478.022
371 0 75.4803 14.931 1127 108.11 140.417 477.004
372 0 78.2166 15.8534 1240 107.581 139.135 473.982
373 0 77.3148 14.137 1093 114.13 139.089 472.22
374 0 82.2802 17.173 1413 106.104 138.62 471.773
375 0 85.1393 15.6215 1330 111.271 137.503 469.07
376 0 86.413 16.0045 1383 108.911 137.441 468.851
377 0 89.3025 14.7588 1318 112.316 137.415 465.852
378 0 92.2094 15.8661 1463 111.523 136.345 464.198
379 0 96.2558 16.986 1635 108.76 137.505 462.018
380 0 97.2135 14.5762 1417 114.999 137.026 459.863
381 0 102.236 15.3175 1566 112.36 137.836 458.877
382 0 104.353 15.2463 1591 113.292 136.463 454.848
383 0 108.537 16.0683 1744 111.32 137.085 452.47
384 1 57.103 10.9101 623 108.897 138.892 480.782
385 0 60.1344 11.757 707 108.072 139.594 478.472
386 0 61.3866 13.1951 810 105.611 139.747 477.321
387 0 62.2012 13.5849 845 105.388 140.74 476.381
388 0 65.1312 13.373 871 103.371 142.062 476.723
389 0 67.1232 12.8421 862 105.681 142.515 475.193
390 0 68.0833 13.0135 886 104.034 141.693 473.86
391 0 73.2694 15.7774 1156 98.0407 142.247 474.287
392 0 73.107 13.6512 998 103.39 142.737 474.466
393 0 76.1228 12.7294 969 105.114 142.588 471.935
394 0 80.1606 13.3482 1070 104.198 142.775 472.753
395 0 82.2657 13.3592 1099 105.64 142.716 471.598
396 0 84.289 14.3198 1207 104.495 143.092 471.044
397 0 87.2099 15.113 1318 104.293 142.49 468.946
398 0 89.1223 13.7003 1221 106.096 141.977 472.235
399 0 94.256 15.0441 1418 103.334 142.478 468.128
400 0 96.4408 14.6722 1415 103.738 141.601 466.036
401 0 99.4112 13.8314 1375 104.84 142.241 463.172
402 1 53.2374 10.425 555 102.432 142.324 484.668
403 0 54.0796 10.6325 575 100.416 141.217 484.223
404 0 57.1855 12.678 725 97.3366 140.228 484.219
405 0 58.2994 12.8818 751 97.1638 140.007 483.888
406 0 60.3659 12.7224 768 96.6797 138.745 479.862
407 0 62.3253 13.1728 821 96.6236 138.614 478.733
408 0 61.4138 11.74 721 99.663 138.473 475.696
409 0 68.4065 12.9958 889 95.9111 137.688 476.687
410 0 69.5559 12.9248 899 98.9967 137.093 472.032
411 0 71.8126 14.2733 1025 97.8341 138.222 470.03
412 0 73.7052 14.4902 1068 96.8858 138.186 468.671
413 0 77.4479 13.0281 1009 98.9475 138.923 467.293
414 0 78.6995 12.643 995 100.326 139.185 465.792
415 0 81.2517 13.4274 1091 99.8204 139.923 464.542
416 0 84.3649 12.2089 1030 102.239 140.914 463.024
417 0 85.5738 11.8845 1017 102.97 141.928 460.632
418 0 89.3933 12.3052 1100 102.025 142.286 461.955
419 0 92.502 11.8051 1092 103.282 143.502 456.752
420 0 96.4541 12.7936 1234 100.376 144.182 458.138
421 0 98.2053 13.0135 1278 101.438 144.801 457.935
422 0 104.346 14.6052 1524 98.5354 144.905 455.646
423 1 52.2474 8.70856 455 98.4264 145.345 484.088
424 0 57.3607 11.7502 674 94.8754 144.752 480.323
425 0 59.1716 11.4244 676 93.5651 145.243 482.759
426 0 61.0821 11.6401 711 92.8959 143.931 483.09
427 0 61.1386 11.8583 725 93.88 143.741 478.623
428 0 67.1583 12.2397 822 92.8613 142.477 478.584
429 0 69.1822 12.9658 897 91.8027 142.484 477.667
430 0 71.3795 11.656 832 94.8846 141.796 476.493
431 0 72.3356 12.6632 916 94.2238 141.288 475.801
432 0 77.3137 14.4088 1114 93.2262 140.46 472.562
433 0 80.3678 12.4428 1000 96.494 140.333 474.527
434 1 42.143 8.70844 367 97.9019 140.485 489.706
435 0 44.0863 9.36798 413 97.3099 139.123 487.908
436 0 46.2134 9.86726 456 96.125 138.526 486.735
437 0 49.1325 10.7261 527 91.9753 137.926 488.121
438 0 48.1234 11.2004 539 95.4471 138.482 482.161
439 0 51.1122 13.2649 678 92.3909 137.593 482.528
440 0 51.2502 12.4097 636 92.3396 137.318 483.063
441 0 54.1369 13.1888 714 89.4846 137.751 482.29
442 0 57.3273 12.4199 712 92.7879 136.978 480.515
443 0 56.3922 12.7854 721 95.2566 138.259 478.383
444 0 57.186 12.4156 710 96.6056 138.584 476.854
445 0 60.2724 13.1901 795 94.073 139.135 477.86
446 0 61.2305 12.0202 736 97.841 139.783 476.311
447 0 64.1443 12.3004 789 97.0811 141.266 475.786
448 0 66.1197 13.778 911 94.7827 142.568 474.127
449 0 68.1575 13.2781 905 96.2906 143.619 472.902
450 0 70.2053 13.6884 961 95.4235 144.212 473.935
451 0 72.1716 14.6457 1057 95.7219 144.99 471.078
452 0 75.1778 13.0491 981 98.7115 145.341 470.644
453 0 78.2414 12.8576 1006 100.253 145.758 470.311
454 0 81.3212 13.4036 1090 99.6321 144.603 471.232
455 0 84.1368 14.108 1187 99.6361 144.644 470.409
456 0 88.2189 13.7726 1215 99.3251 143.621 469.3
457 0 91.2737 13.1473 1200 101.206 143.047 466.756
458 0 94.2771 13.3118 1255 101.209 142.59 469.386
459 0 98.4607 13.5079 1330 101.37 142.264 464.426
460 1 54.2206 10.7893 585 98.2222 141.668 486.568
461 0 53.0445 10.199 541 97.9538 141.821 490.286
462 0 57.1569 10.8298 619 99.5687 140.367 487.061
463 0 59.1205 12.3646 731 98.2845 138.788 483.55
464 0 62.1947 13.1201 816 96.011 138.582 482.859
465 0 63.1968 13.3709 845 96.8154 138.654 479.161
466 0 66.3596 14.5269 964 96.5436 138.482 479.226
467 0 68.1281 13.1223 894 99.906 138.35 474.711
468 0 72.3145 15.156 1096 95.3303 137.223 474.881
469 0 76.1501 15.5482 1184 94.3074 137.106 472.698
470 0 77.2724 13.4459 1039 98.589 136.948 471.299
471 0 80.5526 14.7481 1188 97.9444 136.831 466.483
472 0 84.2576 13.3638 1126 100.613 137.503 464.595
473 0 86.3623 13.1539 1136 100.901 137.783 465.828
474 0 90.1978 15.1001 1362 99.3928 138.626 463.052
475 0 91.6934 14.0032 1284 103.568 139.029 457.301
476 1 49.327 10.9879 542 100.042 139.424 482.406
477 0 51.2461 12.0204 616 98.1786 140.979 481.031
478 0 52.1716 13.2064 689 91.553 142.585 482.366
479 0 54.0695 12.151 657 95.8189 142.075 481.075
480 0 57.1373 13.4238 767 94.1643 145.108 481.464
481 0 57.2633 13.3768 766 98.4243 144.824 479.864
482 0 62.2304 13.9803 870 95.0345 145.446 483.376
483 0 61.3576 13.0057 798 98.985 145.322 481.202
484 0 66.301 12.6695 840 98.6452 145.513 479.698
485 0 66.3473 13.8966 922 97.8926 145.195 479.536
486 0 69.4332 14.0999 979 96.144 144.146 478.83
487 0 73.2933 13.9167 1020 97.7627 143.559 477.623
488 0 76.2606 13.939 1063 97.9172 142.603 476.811
489 0 78.192 14.5283 1136 97.7887 142.001 474.918
490 0 82.2324 14.9819 1232 96.2898 141.606 474.299
491 0 84.4057 13.755 1161 99.59 140.546 473.419
492 0 87.2538 14.3146 1249 99.2826 139.392 468.164
493 0 90.3664 14.4633 1307 99.088 138.4 466.259
494 0 93.3758 13.5474 1265 100.255 137.591 464.693
495 0 97.3005 14.5837 1419 99.4426 137.822 463.051
496 0 102.225 14.605 1493 98.6812 137.551 460.225
497 1 54.0853 10.6868 578 95.7526 138.666 483.941
498 0 56.1022 10.6235 596 97.3641 134.564 481.29
499 0 59.0585 12.8009 756 94.5622 134.821 479.652
500 0 60.0895 11.9655 719 95.9193 135.605 476.958
501 0 64.237 13.7771 885 92.1243 135.907 475.149
502 0 66.1631 14.7968 979 90.2554 136.272 474.853
503 0 67.1794 12.8909 866 95.6432 137.351 473.327
504 0 71.2541 14.4693 1031 92.1901 138.524 469.419
505 0 71.1417 12.1729 866 96.0762 140.053 471.476
506 0 73.1767 12.176 891 96.9832 141.119 469.284
507 1 39.0464 9.09176 355 93.8676 141.2 489.084
508 0 38.2498 9.75168 373 99.5121 142.949 488.003
509 0 42.1711 11.2399 474 96.192 144.603 487.498
510 0 43.2295 10.8953 471 96.5138 146.465 489.675
511 0 47.3167 14.2867 676 90.4379 146.707 489.38
512 0 46.4149 10.6216 493 94.574 147.124 488.848
513 0 51.5175 14.8105 763 90.2647 147.148 489.412
514 0 49.5573 12.9144 640 96.2625 145.884 488.612
515 0 52.6347 13.0142 685 96.7314 145.361 487.498
516 0 54.7031 13.3813 732 96.6434 143.32 487.429
517 0 54.3309 13.8227 751 96.2943 142.828 488.324
518 0 58.4539 14.2505 833 93.1164 141.91 487.741
519 0 59.4436 14.417 857 92.1564 140.457 486.201
520 0 62.4435 13.0358 814 93.8526 139.663 485.489
521 0 62.3108 15.3746 958 90.3591 138.52 482.832
522 0 66.35 14.1673 940 90.8521 137.502 482.876
523 0 69.1919 15.6088 1080 89.6593 136.255 479.268
524 0 72.0396 13.9923 1008 92.3105 135.432 479.008
525 0 74.1709 14.4936 1075 90.84 134.261 477.403
526 0 77.2294 13.2721 1025 92.8741 133.214 476.161
527 0 79.1052 13.1976 1044 93.3985 132.942 474.972
528 0 82.1853 14.6985 1208 92.1267 131.908 469.886
529 0 86.119 13.3536 1150 93.3504 132.044 466.74
530 1 47.0368 11.1189 523 91.4914 133.201 490.01
531 0 48.1165 10.4122 501 92.6307 133.21 488.19
532 0 51.2135 12.8872 660 88.9848 133.28 487.715
533 0 51.0713 12.5707 642 91.2928 133.383 485.455
534 0 52.1638 12.039 628 92.5526 133.949 483.94
535 0 56.1111 13.3842 751 88.9933 135.368 483.229
536 0 57.0998 12.9072 737 90.8684 137.303 483.194
537 0 61.3159 13.8626 850 90.9024 138.721 484.815
538 0 63.2682 14.3832 910 90.7648 141.411 483.631
539 0 68.1973 14.7806 1008 89.5972 141.769 484.732
540 0 69.3791 14.1974 985 90.136 140.722 485.24
541 0 71.5027 14.0274 1003 92.9691 140.805 483.455
542 0 74.3926 13.1599 979 95.4351 140.637 483.706
543 1 38.2913 10.1067 387 93.447 139.804 504.14
544 0 42.3223 11.1525 472 95.2648 138.731 501.653
545 0 44.3485 13.5066 599 93.3973 137.3 500.224
546 0 46.2292 12.676 586 94.4181 135.782 501.312
547 0 50.3144 13.5548 682 92.3798 134.736 497.598
548 0 50.266 13.4286 675 93.8118 133.39 496.09
549 0 53.1225 13.4971 717 94.3403 133.852 494.602
550 0 52.099 12.8409 669 96.6054 131.294 491.57
551 0 56.0292 14.3318 803 94.4832 130.376 490.438
552 0 59.187 14.4964 858 93.3986 128.978 489.128
553 0 61.1472 14.2443 871 93.5017 128.124 486.667
554 0 62.2778 14.5156 904 93.5962 126.775 483.489
555 0 65.354 15.133 989 92.2821 126.902 481.5
556 0 67.3003 15.468 1041 91.2767 126.645 479.976
557 0 70.2526 15.8713 1115 90.9462 127.125 476.944
558 0 71.1235 15.0443 1070 92.7346 128.033 475.547
559 0 75.3357 17.2959 1303 88.4912 128.503 471.802
560 0 76.325 14.3203 1093 93.8884 129.368 470.695
561 0 81.2894 14.5653 1184 93.6115 130.242 469.224
562 1 39.1093 10.4579 409 94.9438 132.474 487.758
563 0 42.1438 10.9862 463 93.1793 134.469 488.447
564 0 44.207 12.4641 551 91.4592 136.394 488.058
565 0 44.3474 10.7109 475 95.2947 137.884 486.053
566 0 46.3483 14.1753 657 89.9254 139.67 483.146
567 0 50.2316 13.4378 675 91.1052 141.865 485.825
568 0 51.2849 14.0002 718 90.3914 142.684 485.712
569 0 53.2545 13.9331 742 90.6186 142.927 487.58
570 0 55.2571 13.7177 758 91.3984 142.657 488.317
571 0 58.4855 14.4993 848 90.2288 142.044 488.873
572 0 60.3764 14.7077 888 90.6937 141.524 487.709
573 0 60.4133 13.6559 825 94.1406 138.864 486.435
574 0 65.5923 15.1085 991 91.2482 138.219 485.003
575 0 67.4858 15.6477 1056 91.5833 138.073 483.254
576 0 70.8865 15.1369 1073 93.3355 137.292 481.967
577 0 71.5653 15.147 1084 95.0249 136.144 481.229
578 0 77.4575 15.6731 1214 94.0206 135.096 479.297
579 0 79.8205 16.0861 1284 94.5016 133.447 475.695
580 0 83.4972 16.252 1357 95.1584 132.267 472.832
581 0 85.9305 15.1983 1306 98.0766 131.936 470.75
582 0 87.7276 16.3233 1432 97.4239 131.684 466.943
583 0 91.0111 16.1739 1472 96.3193 130.939 468.448
584 1 46.6717 8.95618 418 99.799 131.586 492.11
585 0 47.5572 12.1328 577 98.0693 131.185 489.958
586 0 49.4472 9.95001 492 101.805 130.974 488.953
587 0 53.3801 12.1394 648 97.3287 130.719 487.247
588 0 54.1485 11.5054 623 100.274 131.22 485.534
589 0 56.2011 13.9499 784 94.6084 131.216 486.871
590 0 57.0624 14.7558 842 95.1663 132.639 483.454
591 0 57.2295 14.0662 805 98.2 133.533 480.768
592 0 61.4295 13.5928 835 96.685 135.25 481.565
593 0 60.2942 12.1902 735 100.909 137.415 480.627
594 0 67.4295 14.4151 972 96.0741 136.905 480.329
595 0 68.4601 14.7239 1008 95.3889 139.761 480.037
596 0 71.3267 14.707 1049 95.8017 141.954 479.305
597 0 74.337 15.3894 1144 95.3601 143.375 476.737
598 0 77.169 13.7361 1060 99.0915 143.228 479.278
599 0 79.262 12.8939 1022 101.314 142.957 478.309
600 0 85.2221 15.4772 1319 94.8453 142.774 477.665
601 1 46.048 9.59868 442 100.699 141.253 498.495
602 0 50.0464 10.6701 534 97.7191 141.094 499.322
603 0 50.0337 13.291 665 95.0722 139.547 498.477
604 0 52.1606 11.3879 594 97.2155 137.111 498.507
605 0 53.336 11.0994 592 96.8176 135.005 499.323
606 0 57.4045 12.7516 732 94.6448 132.761 497.175
607 0 60.2721 12.062 727 96.531 131.455 496.636
608 0 63.3041 13.9328 882 93.0907 130.635 496.375
609 0 67.1826 13.9322 936 93.5865 128.651 493.606
610 0 68.3302 13.1274 897 97.3545 127.706 492.475
611 0 73.3029 14.4878 1062 95.2486 128.172 492.266
612 0 73.3029 14.4605 1060 141.982 129.134 492.227
613 0 76.1717 14.4279 1099 100.02 126.763 488.284
614 0 79.2311 14.0728 1115 101.29 126.52 486.36
615 0 83.2031 14.1461 1177 100.999 126.195 481.703
616 0 85.2864 14.1523 1207 101.848 126.368 479.954
617 0 90.2592 15.3115 1382 100.223 124.776 477.017
618 0 93.1814 14.2947 1332 103.489 126.523 473.84
619 0 97.3374 15.4309 1502 102.079 125.696 470.889
620 0 101.194 13.993 1416 103.434 127.664 469.182
621 0 103.281 13.8167 1427 105.793 128.486 466.197
622 0 108.371 13.8044 1496 104.567 130.924 465.707
623 0 115.4 17.3831 2006 97.3649 132.241 465.64
624 0 117.272 15.1187 1773 103.483 133.822 460.96
625 1 60.1402 10.8247 651 99.7419 135.616 493.441
626 0 63.2288 11.8142 747 101.529 135.805 490.841
627 0 68.2426 13.4667 919 99.5332 136.101 488.518
628 0 72.1811 13.2999 960 101.326 135.704 487.584
629 0 74.1871 13.8973 1031 99.3957 134.599 488.301
630 0 79.3113 13.8568 1099 99.8644 132.755 488.161
631 0 82.255 13.0205 1071 102.244 132.96 488.867
632 0 86.3273 13.6573 1179 100.728 132.196 487.304
633 0 88.3944 13.4285 1187 102.113 131.222 487.19
634 0 91.3538 12.676 1158 104.987 129.366 485.09
635 1 50.146 10.29 516 102.297 129.39 506.048
636 0 52.1959 11.7634 614 97.3111 129.067 507.067
637 0 52.2309 11.1237 581 100.298 127.005 504.059
638 0 56.0981 12.6386 709 96.7137 125.447 501.227
639 0 59.0824 12.728 752 95.9069 122.803 499.677
640 0 55.1443 11.8779 655 102.467 121.095 496.13
641 0 59.1455 11.8183 699 100.604 121.591 495.15
642 0 62.0618 11.5047 714 100.66 120.073 492.231
643 0 64.212 12.3186 791 98.0683 120.073 489.88
644 0 68.2223 13.0456 890 95.4483 120.76 487.789
645 0 71.1318 13.4961 960 93.5219 121.845 488.853
646 0 73.2356 12.5212 917 96.7863 123.64 485.171
647 1 40.1293 8.94607 359 96.9164 125.682 502.042
648 0 43.1217 10.6443 459 94.5011 126.789 501.357
649 0 44.1271 10.4698 462 95.2771 127.55 499.84
650 0 45.1984 12.1907 551 92.559 129.174 499.935
651 0 49.0998 11.0387 542 93.5609 130.14 499.699
652 0 48.0342 12.5119 601 92.6123 130.963 498.356
653 0 51.1039 12.2887 628 91.9108 133.005 497.132
654 0 53.0714 13.4913 716 90.6913 133.085 497.12
655 0 54.3572 13.8344 752 90.9601 133.274 496.858
656 0 58.1362 14.0188 815 90.8638 133.438 497.606
657 0 58.182 13.8703 807 92.715 132.449 494.853
658 0 60.1865 14.0397 845 93.5976 132.211 495.228
659 0 62.1642 14.7673 918 93.2658 131.898 496.147
660 0 63.1425 12.7806 807 96.6233 132.169 493.349
661 0 65.0818 13.7366 894 96.8993 130.81 492.141
662 0 70.1486 15.1535 1063 94.2747 129.154 492.625
663 0 75.1091 15.1646 1139 93.8806 129.407 490.747
664 0 76.1419 13.7506 1047 97.3467 129.161 488.666
665 0 79.1651 15.1961 1203 94.6675 128.022 487.141
666 1 41.1001 11.0219 453 94.7726 126.333 505.079
667 0 43.0431 10.0365 432 96.2014 125.794 502.708
668 0 44.0257 12.629 556 93.804 125.135 500.047
669 0 45.0659 10.5401 475 99.219 125.267 498.402
670 0 47.1379 12.2195 576 93.4757 125.759 496.392
671 0 50.244 13.8922 698 90.5186 125.052 494.299
672 0 48.1378 11.7371 565 96.8354 125.768 493.651
673 0 51.1386 12.339 631 95.6656 125.179 490.247
674 0 51.2601 13.968 716 93.9469 126.297 489.318
675 0 53.1736 14.3304 762 93.1772 127.231 487.986
676 0 54.1393 13.1143 710 96.0887 127.534 487.23
677 0 58.0308 14.4234 837 92.3716 127.959 486.693
678 0 60.0487 14.4549 868 91.2661 130.109 484.475
679 0 61.0533 12.53 765 94.5647 132.129 484.427
680 0 65.0661 14.1856 923 91.974 133.889 483.494
681 0 66.0513 14.6553 968 92.0713 136.321 482.095
682 0 69.0915 13.7209 948 92.7236 137.903 484.728
683 0 70.1201 13.919 976 93.7674 139.301 481.996
684 0 74.0877 12.5932 933 96.7674 139.363 481.43
685 0 78.0829 16.4312 1283 90.5939 139.735 480.711
686 0 81.079 14.5167 1177 95.2557 139.76 480.749
687 0 86.148 15.1832 1308 93.7768 138.646 480.82
688 1 48.0196 12.4949 600 93.6867 137.538 498.057
689 0 50.0823 11.8605 594 92.9057 136.798 500.34
690 0 51.0314 10.5033 536 97.2276 135.854 497.595
691 0 51.0778 12.3341 630 93.9889 134.978 497.124
692 0 54.0286 12.4379 672 95.9732 132.92 495.098
693 0 57.0499 14.5311 829 91.9988 132.573 491.353
694 0 58.0465 13.7648 799 94.7998 131.613 490.511
695 0 58.0586 13.228 768 96.9857 130.186 488.289
696 0 61.0967 14.0106 856 96.2558 129.41 485.432
697 0 66.1767 14.552 963 94.6708 128.172 484.07
698 0 66.1362 13.9409 922 97.59 127.825 479.256
699 0 69.1103 14.4696 1000 96.786 128.673 480.354
700 0 72.095 14.7583 1064 97.4248 128.474 477.624
701 0 75.1316 15.0137 1128 96.6206 129.549 476.182
702 0 76.1096 14.8996 1134 98.3104 130.199 472.549
703 0 78.142 14.4993 1133 99.0424 130.461 472.134
704 0 79.3676 13.8722 1101 101.465 131.474 470.098
705 0 83.2338 14.8137 1233 100.18 132.507 468.536
706 0 86.1694 13.8796 1196 101.603 134.497 466.595
707 0 89.225 14.3345 1279 101.319 136.149 465.181
708 0 93.093 14.4372 1344 101.298 138.105 462.804
709 1 49.2097 12.1521 598 96.1672 139.833 488.467
710 0 50.1113 11.6341 583 97.5678 141.784 488.593
711 0 52.2938 11.7222 613 98.4714 143.416 487.476
712 0 55.0989 13.7389 757 95.502 143.88 488.081
713 0 55.1966 13.9139 768 98.599 143.314 486.79
714 0 60.1209 15.2027 914 94.9902 143.595 487.264
715 0 62.1513 14.4164 896 96.0089 144.163 488.247
716 0 64.1453 14.2957 917 97.2737 143.723 487.313
717 0 69.2223 15.6019 1080 93.4324 142.953 487.825
718 0 69.4789 13.6876 951 99.2902 141.731 485.166
719 0 73.2687 13.8668 1016 99.6191 140.386 483.582
720 0 77.2483 14.2398 1100 99.2455 139.346 481.605
721 0 80.3525 14.6977 1181 99.1761 137.986 479.432
722 1 41.2789 10.3927 429 99.683 136.804 499.529
723 0 44.0675 10.9151 481 100.042 135.68 497.351
724 0 45.0722 10.4055 469 101.846 134.326 493.923
725 0 49.3276 12.4271 613 98.3491 133.442 493.29
726 0 51.1619 13.4866 690 96.8841 132.674 491.467
727 0 52.1318 13.4467 701 99.0842 133.15 488.799
728 0 54.2199 13.7957 748 97.9505 131.392 487.422
729 0 55.1125 13.6267 751 99.3036 131.603 485.573
730 0 58.2128 14.4126 839 96.7414 131.197 484.85
731 0 61.1323 14.7385 901 95.1842 130.616 483.122
732 0 62.1426 14.4506 898 96.706 130.283 481.646
733 0 63.1235 14.5429 918 97.7723 132.569 478.648
734 0 67.2568 15.5523 1046 94.5545 133.857 478.898
735 0 69.294 15.2683 1058 95.8979 135.627 478.216
736 0 72.2274 15.1466 1094 95.6947 138.18 478.069
737 0 75.283 14.9038 1122 96.7665 139.951 476.374
738 0 78.4933 15.6956 1232 95.8344 141.251 478.118
739 0 81.3527 14.9104 1213 97.6826 142.389 478.461
740 1 45.2508 10.4308 472 98.9767 143.235 497.002
741 0 49.2344 12.1663 599 96.222 144.324 497.77
742 0 48.3112 12.4195 600 98.2433 143.59 498.482
743 0 50.1948 13.9257 699 93.9614 142.744 500.78
744 0 53.1102 13.3684 710 97.1859 140.524 498.258
745 0 53.1773 12.9379 688 98.375 139.007 497.779
746 0 58.2706 13.6432 795 96.8579 137.808 498.332
747 0 61.22 15.3218 938 93.8529 135.851 497.9
748 0 63.2486 14.277 903 96.2979 134.393 494.954
749 0 63.1545 14.1083 891 98.4153 130.043 494.744
750 0 67.1623 13.3557 897 99.6499 129.866 492.522
751 0 69.1918 13.6577 945 99.8159 128.992 490.041
752 0 72.2161 15.1351 1093 98.5517 128.437 485.658
753 0 76.2115 14.7747 1126 98.3233 127.481 485.856
754 0 76.2224 14.9431 1139 99.3696 127.71 484.372
755 0 81.2203 16.1659 1313 96.8256 126.988 481.215
756 0 82.1274 14.7332 1210 101.134 127.493 477.018
757 0 87.1652 14.788 1289 99.7719 127.322 475.423
758 0 89.1391 15.201 1355 98.4723 127.356 475.425
759 1 46.1532 12.0468 556 100.786 127.984 493.878
760 0 49.0639 12.1067 594 100.919 129.089 492.429
761 0 49.1664 12.2441 602 101.392 130.429 491.664
762 0 52.0882 12.69 661 100.074 132.038 490.372
763 0 54.1522 13.6836 741 98.5304 133.713 488.196
764 0 55.2794 13.8931 768 98.2852 135.46 487.822
765 0 60.1742 14.5744 877 96.6648 136.908 487.318
766 0 62.1065 13.9277 865 98.4012 139.398 487.406
767 0 63.1697 13.9782 883 98.3884 140.273 486.265
768 0 68.2531 14.8125 1011 96.4857 141.012 483.887
769 0 71.2494 14.3019 1019 98.3415 141.185 483.508
770 0 75.1654 16.0446 1206 95.3764 140.605 483.784
771 0 77.321 15.5327 1201 98.2664 140.138 481.589
772 0 81.2748 14.1372 1149 99.8277 138.893 483.275
773 0 85.4215 15.6518 1337 99.4779 138.409 480.147
774 0 90.4163 16.3024 1474 94.4138 136.925 479.06
775 0 93.4153 14.837 1386 90.6494 135.76 477.523
776 1 50.1021 11.3169 567 90.7372 134.869 500.457
777 0 51.11 13.0307 666 89.3033 130.836 498.83
778 0 54.0644 13.5949 735 88.2762 130.601 496.569
779 0 56.0425 13.4362 753 89.2204 131.108 495.595
780 0 59.345 14.2893 848 88.5177 129.381 491.532
781 0 62.201 15.3695 956 86.4006 128.282 491.434
782 0 65.1844 14.1905 925 88.2162 127.677 488.668
783 0 65.1829 13.9454 909 90.7195 127.602 486.319
784 0 70.3092 16.9395 1191 85.393 127.777 486.253
785 0 71.119 15.5374 1105 88.8045 126.774 482.49
786 0 75.2448 15.5493 1170 89.2436 127.106 481.21
787 0 77.3921 14.6397 1133 91.5252 128.678 479.75
788 1 43.1657 11.5833 500 93.484 129.906 495.81
789 0 43.2183 11.1295 481 94.3139 131.129 497.083
790 0 45.1066 11.5504 521 94.5701 132.023 496.061
791 0 47.1355 14.7872 697 88.924 133.548 496.198
792 0 52.201 13.6971 715 91.3874 135.373 494.494
793 0 53.1366 14.491 770 89.9039 137.431 494.318
794 0 54.1893 15.8703 860 89.0884 138.594 493.374
795 0 55.3338 14.0601 778 93.5308 138.659 494.708
796 0 60.3176 15.5013 935 92.0588 138.991 496.815
797 0 62.3462 14.1468 882 94.0023 138.414 494.124
798 0 65.1877 15.4477 1007 92.5402 137.784 495.623
799 0 69.4321 16.2605 1129 93.2454 136.633 494.742
800 0 73.2986 15.3345 1124 97.1023 134.488 493.396
801 0 75.3694 15.8022 1191 97.3484 133.229 492.386
802 0 78.5536 15.7599 1238 98.3506 131.683 490.787
803 0 82.2988 15.6746 1290 101.382 129.849 487.802
804 0 86.4223 16.4194 1419 99.4179 128.716 486.898
805 0 91.4466 16.3374 1494 100.388 127.421 482.697
806 1 49.4017 12.0846 597 107.265 126.079 502.005
807 0 50.2953 12.4465 626 107.409 125.473 500.358
808 0 53.1781 12.9 686 110.149 125.219 498.414
809 0 55.2078 15.3058 845 107.359 125.473 494.257
810 0 57.0968 13.626 778 109.496 124.893 493.697
811 0 57.2448 14.3594 822 109.082 125.566 490.266
812 0 60.4255 15.606 943 106.995 125.534 488.407
813 0 63.3956 14.8906 944 108.568 126 487.462
814 0 65.3068 16.1392 1054 104.22 127.051 483.897
815 0 68.3098 15.7225 1074 104.582 127.605 482.948
816 0 70.5025 15.7725 1112 105.88 129.112 480.24
817 0 75.4942 17.2463 1302 102.641 130.27 479.124
818 0 76.5723 15.9588 1222 106.089 132.34 478.754
819 0 80.4185 15.8919 1278 106.293 135.418 474.533
820 0 83.5824 15.8885 1328 106.582 136.65 476.422
821 0 88.6842 15.4368 1369 107.495 137.557 474.883
822 0 91.5067 16.13 1476 106.989 139.699 474.343
823 1 47.4744 13.4388 638 107.998 138.976 496.168
824 0 49.4971 13.5968 673 110.886 137.902 493.672
825 0 54.3206 17.9674 976 98.7295 138.499 494.907
826 0 55.429 15.6597 868 106.486 137.933 494.293
827 0 58.3857 15.0379 878 107.399 137.321 494.017
828 0 58.3516 13.9156 812 111.095 135.379 492.881
829 0 63.4984 14.2523 905 109.012 134.103 491.402
830 0 67.7403 14.8361 1005 107.823 133.1 489.238
831 0 67.445 15.1383 1021 107.547 131.687 487.118
832 0 71.4548 14.5127 1037 108.671 131.054 485.772
833 0 74.4264 15.5456 1157 105.587 129.917 483.485
834 0 75.5747 15.3755 1162 106.194 129.228 481.472
835 0 81.4554 16.0333 1306 103.23 129.02 478.185
836 0 81.4921 16.0752 1310 103.529 128.645 476.387
837 0 87.421 15.9573 1395 101.649 128.695 475.501
838 0 89.4812 17.4115 1558 96.6938 129.081 470.96
839 0 93.5559 16.5035 1544 98.351 129.062 469.223
840 1 51.3774 10.3937 534 101.936 130.165 491.646
841 0 53.2773 10.6237 566 102.873 130.24 490.928
842 0 55.4423 13.4735 747 101.379 131.47 487.296
843 0 55.2344 12.8181 708 102.842 132.946 487.575
844 0 60.3014 15.0909 910 97.4176 134.286 486.753
845 0 61.2012 14.5749 892 99.3408 136.015 486.272
846 0 65.2401 14.9141 973 98.2672 137.938 485.753
847 0 69.3697 14.4588 1003 98.7029 139.685 485.739
848 0 73.1108 17.2068 1258 93.4603 140.236 485.237
849 0 72.1628 14.301 1032 102.958 140.253 483.565
850 0 77.2731 15.4517 1194 100.064 140.792 484.756
851 0 81.2154 17.1642 1394 98.5323 139.405 482.135
852 0 84.1825 16.191 1363 102.516 137.499 481.131
853 0 88.2653 15.4534 1364 103.103 137.664 482.961
854 0 93.1086 16.4647 1533 101.756 136.123 481.61
855 1 47.0297 11.312 532 103.987 135.466 503.429
856 0 49.0161 10.568 518 102.392 133.465 502.185
857 0 50.0384 12.6503 633 100.147 131.885 500.558
858 0 54.2468 13.1805 715 99.1385 129.793 498.683
859 0 56.2188 14.8349 834 95.8693 128.711 495.728
860 0 58.2405 13.8563 807 99.5539 126.399 495.77
861 0 60.3031 13.8633 836 100.135 125.652 492.248
862 0 62.3024 14.3815 896 97.6953 125.771 491.846
863 0 67.3465 14.5961 983 97.7182 125.089 489.48
864 0 69.3001 15.4689 1072 96.2155 125.256 487.955
865 0 70.1639 14.2381 999 100.162 125.173 485.83
866 0 71.1425 12.8474 914 104.16 125.41 483.283
867 0 76.207 14.2507 1086 99.7449 125.639 481.655
868 0 78.2852 15.5202 1215 96.0321 125.921 478.287
869 0 80.2565 14.6156 1173 97.1432 126.669 476.957
870 0 84.4352 14.8279 1252 96.5543 127.681 476.002
871 1 45.1773 10.4699 473 98.5391 129.992 493.865
872 0 48.1589 10.9637 528 98.1288 131.288 490.593
873 0 51.1572 10.4775 536 96.1455 133.14 494.118
874 0 52.3844 12.4846 654 95.3976 133.791 491.486
875 0 55.2244 12.2591 677 93.644 135.341 490.331
876 0 59.3906 14.6488 870 90.092 136.374 490.826
877 0 60.4228 12.7104 768 93.0417 136.777 492.362
878 0 64.2886 12.5994 810 95.3198 135.811 490.669
879 0 67.3712 12.6909 855 96.0468 136.173 488.037
880 0 69.2516 12.3607 856 97.8283 133.722 488.429
881 0 73.3094 12.6723 929 97.7998 133.792 485.487
882 0 78.2865 14.2298 1114 94.561 133.532 485.741
883 1 43.324 10.3176 447 96.0045 133.732 503.103
884 0 46.2506 10.8323 501 94.4032 132.154 502.423
885 0 47.2813 11.8863 562 93.3399 130.009 499.587
886 0 49.2296 10.9284 538 93.0799 128.747 496.777
887 0 50.3296 12.0406 606 91.4092 127.196 495.261
888 0 52.0608 12.1204 631 93.3074 127.198 493.274
889 0 53.0715 12.8129 680 95.3735 126.916 489.879
890 0 56.1765 13.1906 741 95.004 127.324 488.028
891 0 59.0538 14.2074 839 93.77 127.723 486.603
892 0 60.1066 14.5741 876 93.371 127.482 485.221
893 0 61.2939 13.1008 803 96.4346 127.173 483.346
894 0 65.3267 14.2668 932 93.7307 127.979 481.635
895 0 65.3313 13.531 884 96.4887 128.673 478.507
896 0 69.2738 14.7097 1019 93.9235 128.622 478.121
897 0 72.3244 14.1308 1022 95.2573 130.393 477.403
898 0 75.1249 14.9884 1126 94.6243 131.123 474.757
899 0 79.0687 14.5064 1147 95.1648 134.335 473.699
900 1 42.0339 10.6581 448 92.9286 137.779 496.359
901 0 42.0353 11.7044 492 93.8577 139.929 495.12
902 0 42.0361 11.2047 471 94.0021 140.541 498.136
903 0 46.1942 12.4258 574 94.5801 140.361 495.848
904 0 47.1768 13.6508 644 94.25 142.216 496.14
905 0 48.2168 13.3771 645 94.5504 141.902 496.833
906 0 49.2593 13.0737 644 96.4814 140.939 499.32
907 0 51.3027 12.4555 639 99.953 140.194 498.728
908 0 55.3895 14.8584 823 97.7679 139.114 499.661
909 0 57.2058 13.2679 759 100.586 136.808 499.974
910 0 62.343 14.6287 912 94.875 135.524 498.235
911 0 63.3462 14.7286 933 96.0375 133.251 495.462
912 0 64.1878 14.2706 916 99.5568 131.691 492.751
913 0 67.3849 14.4246 972 99.6286 130.476 492.506
914 1 38.0543 12.088 460 101.435 130.072 504.026
915 0 40.2951 10.8698 438 102.441 129.055 502.651
916 0 41.0295 11.6502 478 102.299 127.684 501.197
917 0 42.2453 10.4864 443 103.49 127.736 500.508
918 0 44.2698 12.1528 538 101.125 126.675 498.541
919 0 45.1758 12.2853 555 99.9333 126.467 496.225
920 0 48.0555 12.5272 602 98.1578 127.171 494.181
921 0 49.1913 13.7423 676 98.1272 128.257 495.141
922 0 47.1672 12.1059 571 103.385 128.291 491.748
923 0 52.2444 13.4751 704 96.7031 128.716 493.588
924 0 52.2196 13.3666 698 98.2894 129.317 491.288
925 0 53.2631 13.0484 695 97.3381 130.616 491.27
926 0 57.2117 13.5462 775 95.2503 132.768 489.164
927 0 58.0846 12.1719 707 98.3635 134.752 489.812
928 0 62.2876 13.823 861 93.5261 137.595 490.08
929 0 64.2204 15.2288 978 93.1135 138.737 489.449
930 0 68.2247 14.8627 1014 94.2771 138.658 489.491
931 0 72.1728 14.1882 1024 96.7363 139.572 490.304
932 0 74.3009 14.8854 1106 96.207 139.132 488.978
933 0 77.2923 13.7789 1065 99.1981 138.345 488.381
934 0 78.4823 14.5383 1141 99.9246 137.117 485.531
935 1 42.0933 9.69275 408 98.875 136.132 509.23
936 0 45.08 10.5146 474 100.399 133.979 506.19
937 0 46.0402 11.0121 507 98.9961 132.28 505.414
938 0 49.131 12.0494 592 103.25 130.929 500.199
939 0 50.1837 12.3147 618 104.304 129.646 500.751
940 0 54.0833 14.0709 761 101.334 128.008 498.527
941 0 54.1913 13.7476 745 102.87 125.831 496.063
942 0 57.1147 14.147 808 102.186 125.175 493.434
943 0 58.1664 14.3382 834 103.319 124.317 490.921
944 0 58.1219 13.7814 801 105.089 124.464 489.175
945 0 64.2144 15.4327 991 100.519 124.602 486.321
946 0 64.0514 14.6133 936 102.944 124.444 483.129
947 0 67.3567 14.7127 991 100.497 124.506 483.936
948 0 66.1875 13.7337 909 103.953 125.917 480.661
949 0 72.3426 14.4037 1042 101.08 126.356 480.269
950 0 73.236 14.3236 1049 101.689 127.98 477.307
951 0 76.2782 14.906 1137 100.955 128.965 477.058
952 0 79.2133 15.6918 1243 99.4312 130.501 477.51
953 0 83.3184 16.2629 1355 99.169 132.111 471.43
954 0 87.4987 15.6002 1365 99.6733 135.303 471.138
955 0 88.3607 14.3729 1270 103.54 136.735 469.887
956 0 91.2147 14.6577 1337 102.132 139.329 472.49
957 0 97.528 15.2879 1491 101.38 141.068 470.869
958 0 103.457 16.0647 1662 99.0186 141.217 468.384
959 0 107.461 15.4103 1656 100.575 141.435 468.831
960 1 59.2247 15.1964 900 99.5867 141.611 492.347
961 0 59.2191 13.2727 786 105.281 141.159 493.981
962 0 64.2634 14.4561 929 103.586 139.925 492.645
963 0 68.4321 14.8176 1014 102.773 138.608 492.916
964 0 71.2076 13.9732 995 106.131 136.821 491.4
965 0 73.2207 14.5587 1066 106.663 135.24 489.046
966 0 75.1138 14.9373 1122 106.552 134.056 487.942
967 0 82.1081 16.2225 1332 103.961 132.381 484.88
968 0 84.1916 15.9755 1345 105.567 130.216 482.416
969 0 86.2446 15.3633 1325 109.671 129.356 477.401
970 0 90.1884 14.88 1342 110.709 128.771 476.628
971 1 48.0208 12.2863 590 108.842 128.993 497.897
972 0 48.0801 10.7737 518 115.614 130.014 495.649
973 0 49.0524 12.4153 609 113.123 129.652 493.499
974 0 53.0898 14.0893 748 109.675 128.73 490.603
975 0 52.128 13.1024 683 115.517 129.293 488.958
976 0 58.0786 15.1002 877 109.605 129.828 488.218
977 0 59.1194 15.2911 904 108.694 129.959 487.761
978 0 61.1093 12.9604 792 115.039 129.806 484.011
979 0 64.0752 14.4206 924 110.539 131.083 483.803
980 0 66.1221 14.2312 941 111.372 132.818 481.884
981 0 68.1012 14.0232 955 112.344 134.192 481.997
982 0 73.1574 15.3368 1122 108.146 136.12 481.53
983 0 75.1693 14.4474 1086 110.336 137.957 482.66
984 0 78.2148 16.2118 1268 108.759 140.334 478.813
985 0 83.3677 15.6176 1302 109.609 141.444 479.636
986 1 44.0591 10.8037 476 111.807 141.868 501.477
987 0 47.2346 11.644 550 112.849 142.104 500.487
988 0 47.1732 11.426 539 115.61 141.597 500.056
989 0 49.1749 11.8556 583 115.178 140.763 500.899
990 0 54.1117 13.6015 736 112.932 138.838 499.652
991 0 56.1276 14.663 823 107.578 135.931 497.966
992 0 57.1487 13.4036 766 112.304 133.817 498.608
993 0 59.115 13.313 787 113.912 132.08 494.065
994 0 63.1904 13.673 864 112.112 130.789 490.797
995 0 66.274 15.6472 1037 107.51 129.857 488.249
996 0 68.2154 14.9673 1021 110.13 129.737 487.035
997 0 72.1058 13.5634 978 114.18 128.034 484.558
998 0 73.1198 15.1259 1106 111.135 127.052 481.669
999 0 76.1267 14.9356 1137 110.997 126.847 480.23
1000 0 79.4845 13.7008 1089 114.902 128.377 476.858
1001 0 81.5115 14.0962 1149 113.73 128.99 474.461
1002 0 84.2878 13.6675 1152 114.677 129.056 472.76
1003 0 87.182 14.9801 1306 111.827 129.057 471.296
1004 0 92.5304 14.4817 1340 111.802 130.057 468.786
1005 1 50.118 10.6149 532 112.019 130.9 488.603
1006 0 53.0528 10.122 537 110.62 132.251 489.173
1007 0 54.2568 11.5009 624 107.683 133.011 488.867
1008 0 56.3151 11.7908 664 108.399 135.078 486.386
1009 0 58.3344 12.5826 734 107.62 136.668 485.691
1010 0 61.3679 13.7368 843 105.033 138.802 486.389
1011 0 64.2888 13.8904 893 104.347 139.413 486.307
1012 0 65.3824 13.6581 893 105.424 140.877 485.725
1013 0 68.4342 13.7358 940 104.622 141.689 487.045
1014 0 71.1765 14.6397 1042 105.127 140.9 485.381
1015 0 73.2749 12.5555 920 109.735 140.61 486.757
1016 0 78.2389 13.8167 1081 108.179 139.252 483.822
1017 0 81.4566 14.9405 1217 107.881 138.244 483.512
1018 1 48.4782 10.974 532 108.81 137.152 500.558
1019 0 51.1821 10.785 552 109.514 135.447 499.408
1020 0 51.2808 11.2908 579 109.948 133.915 499.736
1021 0 54.3945 12.3726 673 108.423 132.285 497.178
1022 0 56.1825 12.4416 699 109.681 130.953 496.322
1023 0 59.1288 13.3607 790 108.143 130.632 495.472
1024 0 61.5281 13.1972 812 109.924 129.133 491.406
1025 0 62.3851 13.2564 827 111.109 128.139 488.798
1026 0 64.4682 13.0142 839 111.356 128.474 486.172
1027 0 66.3963 12.9224 858 110.983 128.125 483.788
1028 0 71.632 14.3093 1025 108.453 128.274 480.559
1029 0 73.6367 13.7431 1012 110.39 128.573 478.444
1030 0 77.5391 14.9731 1161 107.118 128.421 476.91
1031 0 80.4886 15.232 1226 107.513 129.427 474.311
1032 0 83.4747 13.8844 1159 110.242 130.068 472.431
1033 1 41.2098 10.216 421 110.254 132.591 492.872
1034 0 44.2109 9.56778 423 111.3 132.31 493.154
1035 0 50.1461 12.5832 631 104.737 134.916 491.296
1036 0 49.1499 11.7599 578 107.652 136.839 489.547
1037 0 52.101 13.5698 707 102.26 138.58 491.843
1038 0 54.0541 12.9315 699 104.874 139.465 492.489
1039 0 57.2074 12.0789 691 106.213 140.145 491.317
1040 0 59.1053 12.9261 764 104.685 140.12 490.148
1041 0 62.1361 13.4221 834 103.966 141.237 491.206
1042 0 64.1225 12.7412 817 105.054 140.23 491.024
1043 0 68.149 13.7933 940 103.246 139.896 491.179
1044 0 72.4011 13.3285 965 104.497 137.736 490.601
1045 0 75.3255 14.8024 1115 102.497 136.935 489.664
1046 0 78.4186 13.4917 1058 105.635 135.578 486.897
1047 1 44.2662 10.7305 475 104.931 135.181 504.331
1048 0 46.2836 11.9049 551 104.886 132.911 501.862
1049 0 46.1718 11.0457 510 107.276 132.165 499.461
1050 0 48.1756 11.8317 570 105.444 130.625 498.302
1051 0 52.1471 13.2702 692 102.208 129.487 494.789
1052 0 51.0911 11.3523 580 104.869 127.421 494.038
1053 0 55.1469 12.6752 699 101.647 126.718 491.165
1054 0 57.0732 13.1586 751 100.579 127.462 488.257
1055 0 59.1281 13.5638 802 99.5636 126.717 487.718
1056 0 60.1345 13.9022 836 100.459 127.736 481.585
1057 0 63.4361 13.0367 827 100.972 128.58 481.496
1058 0 63.5063 12.9436 822 102.713 129.139 480.107
1059 0 68.3701 14.8603 1016 98.25 130.039 478.117
1060 0 71.3749 14.1787 1012 98.3488 130.958 478.127
1061 0 74.4291 13.7849 1026 99.7934 132.01 475.472
1062 0 77.5571 15.4209 1196 97.6263 133.926 472.913
1063 0 78.4426 13.9593 1095 101.695 136.807 474.051
1064 0 83.5825 13.6033 1137 102.741 138.199 472.82
1065 0 87.558 14.9729 1311 99.5599 139.879 469.204
1066 0 91.4164 15.3802 1406 99.2454 140.516 471.03
1067 1 47.1242 9.29458 438 103.466 141.735 494.16
1068 0 52.2068 11.5311 602 99.2242 141.96 493.071
1069 0 55.1262 11.3558 626 100.609 142.075 492.355
1070 0 56.1365 13.1821 740 98.0473 141.008 491.457
1071 0 60.2014 14.0362 845 93.6994 138.792 491.843
1072 0 61.1416 12.6755 775 100.564 137.934 490.218
1073 0 66.1613 13.6031 900 97.1833 137.177 489.984
1074 0 66.1746 12.7995 847 100.397 135.673 487.615
1075 0 69.2101 13.5963 941 99.4527 134.58 485.846
1076 0 76.1749 13.7841 1050 97.8971 132.928 484.536
1077 0 78.2264 15.2762 1195 95.9021 132.233 480.31
1078 0 80.1643 13.2353 1061 100.387 130.739 478.674
1079 0 83.0973 14.2724 1186 98.1518 130.198 476.467
1080 0 86.2461 15.2123 1312 95.9688 128.949 471.177
1081 0 89.2678 15.5487 1388 95.897 129.168 466.107
1082 0 92.1451 13.2834 1224 98.7843 129.668 467.181
1083 0 96.2305 14.4653 1392 97.0661 129.059 463.172
1084 1 52.0528 11.6612 607 97.8122 128.588 484.666
1085 0 53.1134 8.94313 475 100.627 129.036 484.379
1086 0 59.1483 11.5472 683 96.2211 130.098 480.271
1087 0 58.0969 11.739 682 97.0176 131.669 479.721
1088 0 61.0801 12.3772 756 95.6958 132.28 479.671
1089 0 64.1436 13.3606 857 94.252 134.196 478.203
1090 0 68.126 14.5759 993 90.0765 136.973 477.506
1091 0 70.1804 13.5793 953 90.9087 138.475 478.431
1092 0 72.0591 12.4897 900 93 140.423 477.589
1093 0 76.0884 14.194 1080 90.7732 142.73 476.594
1094 0 79.1236 13.8265 1094 91.2495 142.411 477.835
1095 0 83.0854 13.7329 1141 91.2524 142.775 476.966
1096 0 89.1915 14.7548 1316 89.2006 143.607 477.35
1097 0 94.159 14.6667 1381 90.4359 142.768 475.653
1098 0 97.1175 14.8686 1444 91.588 140.724 474.677
1099 1 52.1528 10.9103 569 91.9526 139.814 497.93
1100 0 56.0453 11.0803 621 93.9533 138.618 497.106
1101 0 58.246 12.8764 750 91.3213 137.289 494.385
1102 0 61.0636 14.2802 872 88.6089 136.015 493.913
1103 0 64.1549 14.1377 907 89.2966 134.809 490.312
1104 0 65.079 13.5988 885 92.7548 132.052 488.521
1105 0 68.1598 14.0552 958 91.261 130.61 485.325
1106 0 71.3309 14.2996 1020 90.6265 128.609 484.907
1107 0 74.1274 13.153 975 93.4482 128.885 480.652
1108 0 75.1626 14.2225 1069 92.0168 129.797 479.391
1109 0 77.1604 14.0227 1082 92.683 130.14 476.068
1110 0 82.1704 14.4334 1186 92.6476 129.621 472.939
1111 0 85.2018 15.3166 1305 92.1701 129.967 470.625
1112 0 87.4114 14.0828 1231 94.9708 130.693 468.28
1113 1 47.2733 10.598 501 94.0479 131.238 489.367
1114 0 48.31 10.8673 525 95.4419 132.497 487.646
1115 0 50.2447 10.3096 518 96.4672 133.973 485.529
1116 0 53.1494 11.4959 611 94.5745 134.376 483.699
1117 0 53.203 12.1798 648 93.3302 136.966 484.417
1118 0 56.1046 12.8866 723 92.5048 139.808 481.853
1119 0 61.088 14.0126 856 89.2442 139.381 485.818
1120 0 63.2116 14.5227 918 88.5566 140.968 486.923
1121 0 66.191 13.4308 889 90.3926 142.244 485.745
1122 0 69.1653 14.1545 979 89.239 142.18 486.074
1123 0 71.1011 14.9083 1060 90.4104 142.613 486.25
1124 0 74.2528 13.3194 989 94.3023 141.105 485.507
1125 0 77.1654 14.4236 1113 93.4385 140.53 485.832
1126 0 80.2196 14.6473 1175 94.4043 139.563 485.801
1127 0 83.2717 14.0864 1173 96.7749 137.541 482.036
1128 1 46.2014 12.3589 571 96.599 136.741 501.636
1129 0 49.1307 12.3752 608 96.7451 134.852 500.452
1130 0 50.1157 11.5134 577 100.338 133.622 499.692
1131 0 53.2161 12.966 690 97.6841 131.629 497.484
1132 0 54.273 12.9346 702 96.953 130.943 495.57
1133 0 57.3284 13.4663 772 96.544 130.412 494.074
1134 0 58.4205 13.3686 781 99.9475 129.988 490.079
1135 0 61.1733 14.8758 910 96.1791 129.867 488.844
1136 0 62.2233 13.4998 840 100.677 130.343 487.036
1137 0 64.2193 14.5283 933 97.0707 130.412 485.771
1138 0 67.1752 14.291 960 97.374 130.785 482.46
1139 0 70.2146 14.8829 1045 95.5043 132.719 481.126
1140 0 71.1434 14.6184 1040 97.1221 133.08 479.026
1141 0 75.1064 14.6326 1099 95.7871 131.17 477.907
1142 0 77.2157 15.9553 1232 93.862 132.289 475.519
1143 0 79.2782 13.7364 1089 97.4481 133.894 477.021
1144 1 42.1188 11.3488 478 96.5669 135.023 495.215
1145 0 45.1502 10.9413 494 98.6154 136.816 493.696
1146 0 47.0619 11.8992 560 97.5304 138.036 494.141
1147 0 47.1166 11.9066 561 97.9412 140.276 495.414
1148 0 53.2338 13.9197 741 94.8097 141.516 494.232
1149 0 54.2258 14.956 811 94.2873 141.232 492.98
1150 0 58.2248 15.423 898 92.3586 141.455 496.242
1151 0 58.1982 15.1551 882 95.805 140.885 494.33
1152 0 61.081 14.6036 892 97.0404 139.972 494.494
1153 0 64.1291 15.0634 966 96.7692 138.419 492.853
1154 0 67.4123 14.7154 992 98.3458 136.986 492.357
1155 0 70.172 14.6925 1031 97.9748 136.595 491.841
1156 0 75.3768 15.5088 1169 96.7964 134.792 488.308
1157 0 77.1741 15.7825 1218 98.5706 133.163 486.805
1158 1 43.2123 11.6402 503 100.916 132.803 503.457
1159 0 43.155 11.3081 488 102.508 132.32 502.338
1160 0 45.2481 13.7022 620 98.6645 131.534 499.866
1161 0 48.3797 14.1382 684 98.2588 130.029 496.614
1162 0 48.3021 13.9539 674 101.359 129.536 494.929
1163 0 52.3305 14.9817 784 97.6607 129.438 493.515
1164 0 52.3803 14.7002 770 98.9571 129.404 491.782
1165 0 56.2315 14.8493 835 97.0359 129.905 490.241
1166 0 57.2821 13.9485 799 100.355 129.397 486.723
1167 0 61.2464 14.7437 903 97.99 129.8 486.556
1168 0 60.3597 15.242 920 98.9587 130.66 484.086
1169 0 63.3758 14.769 936 98.6154 131.728 483.793
1170 0 66.3757 16.3765 1087 95.8418 132.034 481.159
1171 0 67.5402 16.0645 1085 95.6111 133.393 481.947
1172 0 70.2876 15.3654 1080 98.4398 135.25 480.293
1173 0 71.2797 15.2919 1090 98.8651 137.612 479.716
1174 0 75.2619 15.2667 1149 98.0278 139.294 479.118
1175 0 79.3112 16.5803 1315 94.8365 140.791 478.308
1176 1 43.1703 11.0724 478 100.28 141.544 498.485
1177 0 48.462 12.8554 623 99.0851 142.302 497.047
1178 0 49.149 14.4459 710 98.0986 142.732 497.854
1179 0 52.3116 13.7445 719 100.91 142.195 496.52
1180 0 54.2797 15.807 858 99.5035 140.789 494.469
1181 0 57.1298 14.9134 852 101.944 140.568 496.235
1182 0 59.2476 15.2242 902 101.831 139.155 495.296
1183 0 59.0665 14.1705 837 106.051 138.053 494.372
1184 0 63.2726 15.4885 980 104.338 137.182 490.188
1185 0 67.3315 15.1489 1020 103.822 136.675 489.679
1186 0 71.1686 15.8778 1130 102.55 135.338 488.065
1187 0 74.4298 15.1552 1128 103.448 133.458 486.16
1188 0 75.3836 16.688 1258 101.579 132.747 481.314
1189 0 78.3322 16.1875 1268 103.129 131.855 479.212
1190 0 82.611 15.8938 1313 102.776 130.511 476.305
1191 0 85.3965 16.1131 1376 103.099 130.905 471.595
1192 1 44.3196 11.6878 518 107.714 130.832 490.564
1193 0 50.435 10.9646 553 104.007 131.548 492.474
1194 0 51.3875 12.8631 661 106.077 130.964 488.316
1195 0 51.2729 11.5461 592 109.311 131.688 486.238
1196 0 54.2077 13.1162 711 105.62 132.326 485.949
1197 0 56.306 12.4143 699 106.226 133.627 486.079
1198 0 58.2378 15.0074 874 103.061 133.561 483.584
1199 0 60.2001 13.7541 828 105.239 134.578 482.994
1200 0 62.278 14.4032 897 105.375 136.183 480.417
1201 0 66.4172 15.4327 1025 102.301 139.773 480.025
1202 0 69.3333 14.8125 1027 102.646 141.158 481.659
1203 0 73.2183 15.7338 1152 100.72 142.38 479.926
1204 0 77.4185 16.2623 1259 99.2621 142.164 478.484
1205 0 80.3256 15.0263 1207 101.151 143.238 478.008
1206 0 85.3458 15.5485 1327 99.9164 143.864 477.568
1207 0 90.27 16.3953 1480 98.9872 143.576 475.699
1208 0 92.4659 14.9677 1384 102.497 143.161 476.691
1209 0 99.2762 16.1972 1608 99.694 141.958 475.529
1210 1 55.2372 12.7269 703 102.219 140.024 496.56
1211 0 57.3122 13.1909 756 100.231 138.981 496.7
1212 0 59.1848 14.1421 837 100.131 137.841 494.314
1213 0 61.2592 13.3531 818 101.423 136.076 491.844
1214 0 66.3464 15.0875 1001 97.997 134.778 489.227
1215 0 67.3989 14.7035 991 99.8628 133.743 486.259
1216 0 70.5296 15.1426 1068 99.3605 132.24 482.596
1217 0 73.6132 14.3181 1054 100.806 132.535 480.706
1218 0 78.5099 16.482 1294 95.7233 131.798 478.444
1219 0 79.5591 14.8946 1185 100.18 131.292 476.711
1220 0 84.255 15.2869 1288 99.1801 130.926 472.687
1221 0 89.5382 17.1547 1536 94.6947 131.1 470.692
1222 0 91.5223 13.8655 1269 102.195 131.162 467.45
1223 1 51.2913 10.996 564 97.3954 133.094 490.236
1224 0 55.4886 11.7682 653 96.3415 133.124 488.129
1225 0 54.358 12.4545 677 97.8109 134.934 485.9
1226 0 57.3244 13.5893 779 97.9089 135.048 483.937
1227 0 61.3447 14.0518 862 97.1729 138.055 483.222
1228 0 64.4327 13.9991 902 97.4579 140.334 483.388
1229 0 68.3012 15.7977 1079 93.1854 142.73 483.436
1230 0 71.3643 14.9515 1067 94.3843 142.616 483.538
1231 0 75.3394 15.3174 1154 94.8345 143.693 482.94
1232 0 77.3815 14.8485 1149 98.7615 143.071 479.95
1233 0 82.5234 14.8079 1222 98.0049 142.992 482.046
1234 0 85.3811 14.6285 1249 100.445 142.392 479.42
1235 0 88.2825 13.8986 1227 103.468 141.903 479.929
1236 0 94.7361 16.0657 1522 100.045 139.769 476.432
1237 0 97.553 13.5619 1323 105.906 138.601 477.661
1238 0 101.465 13.5021 1370 107.688 136.812 472.98
1239 0 105.708 13.5467 1432 107.615 135.657 473.169
1240 0 111.587 15.2886 1706 104.365 134.133 468.193
1241 1 62.3669 10.9032 680 107.763 133.259 493.14
1242 0 65.2961 10.8276 707 107.61 131.808 491.799
1243 0 64.2322 12.8129 823 105.261 131.131 489.491
1244 0 67.3112 12.2416 824 104.71 130.181 488.933
1245 0 70.2733 14.5005 1019 101.26 129.943 483.334
1246 0 72.4151 13.5469 981 102.923 130.087 484.075
1247 0 75.5004 14.0132 1058 102.921 130.433 479.959
1248 0 77.2653 14.2755 1103 103.767 128.909 477.283
1249 0 82.4372 14.0956 1162 102.769 130.33 476.748
1250 0 85.4083 16.9773 1450 96.8221 131.118 475.698
1251 0 86.4932 14.6486 1267 103.867 132.135 473.893
1252 0 89.3977 14.8326 1326 102.804 132.827 472.527
1253 0 93.405 14.5174 1356 103.827 133.207 470.098
1254 0 96.6017 15.3414 1482 101.974 135.602 467.922
1255 0 103.455 16.1906 1675 98.9964 137.866 469.089
1256 0 106.712 15.2092 1623 102.169 139.026 465.702
1257 0 111.611 16.1454 1802 100.618 140.753 462.204
1258 1 61.3418 9.99318 613 107.39 141.264 490.108
1259 0 65.3309 11.6943 764 103.537 141.728 489.699
1260 0 68.1307 12.1971 831 102.478 141.569 488.124
1261 0 70.1786 13.5796 953 100.198 140.565 488.544
1262 0 75.2879 15.62 1176 97.5604 139.98 487.61
1263 0 79.6016 16.1931 1289 95.0559 139.009 489.69
1264 0 82.2845 14.9603 1231 98.589 137.017 489.081
1265 0 84.5389 14.727 1245 100.694 136.17 484.57
1266 0 88.3844 15.1497 1339 99.1748 133.899 486.335
1267 0 91.5535 15.8377 1450 99.2517 132.348 480.07
1268 0 93.5494 14.1529 1324 103.158 130.994 480.087
1269 0 96.6239 14.0648 1359 105.449 129.545 475.113
1270 0 100.506 16.3273 1641 99.8251 128.149 472.79
1271 0 102.669 15.1652 1557 103.766 126.97 468.556
1272 0 107.452 15.8582 1704 101.681 128.439 467.16
1273 0 111.475 16.201 1806 100.708 127.887 465.68
1274 0 112.473 15.3103 1722 103.423 128.092 462.545
1275 1 63.4846 10.4907 666 106.093 128.806 486.926
1276 0 68.494 12.7748 875 102.77 129.783 481.793
1277 0 70.3799 13.6687 962 100.423 130.739 481.974
1278 0 74.4968 14.9939 1117 98.598 131.872 480.285
1279 0 76.2177 14.5504 1109 100.105 131.474 477.563
1280 0 79.4047 14.8354 1178 99.3285 133.656 477.8
1281 0 82.3188 15.0391 1238 99.8393 136.069 475.542
1282 0 85.3399 15.3152 1307 98.6435 138.761 475.846
1283 0 89.4204 14.4822 1295 101.197 139.587 473.53
1284 0 94.3683 15.5031 1463 98.4491 141.42 472.246
1285 0 99.3354 16.3487 1624 97.2241 142.115 470.698
1286 1 54.3589 12.6934 690 101.422 142.707 493.584
1287 0 56.3841 13.3194 751 99.4421 142.513 494.121
1288 0 58.499 15.1797 888 98.2218 142.607 492.019
1289 0 62.3188 15.5812 971 96.7786 140.858 491.086
1290 0 64.3817 14.4296 929 100.293 139.587 492.538
1291 0 67.3879 15.1659 1022 99.7466 138.66 491.493
1292 0 71.7801 16.0212 1150 98.6322 137.494 489.477
1293 0 73.633 15.197 1119 101.782 135.918 487.829
1294 0 76.5348 16.2802 1246 99.4246 135.139 485.981
1295 0 78.2883 15.1491 1186 102.766 133.53 482.534
1296 0 82.508 15.9257 1314 102.166 130.327 481.368
1297 0 82.4163 15.6037 1286 104.222 131.157 477.83
1298 1 47.4881 11.5818 550 107.007 130.207 495.844
1299 0 48.4643 12.6485 613 105.499 130.054 495.266
1300 0 50.2096 14.081 707 104.778 130.296 492.059
1301 0 53.2025 14.2474 758 103.797 130.489 489.406
1302 0 53.2321 13.9953 745 106.698 130.544 487.655
1303 0 57.351 14.5072 832 107.214 130.833 485.708
1304 0 58.1071 15.11 878 106.773 131.436 484.429
1305 0 60.3595 16.0372 968 105.007 132.168 483.028
1306 0 64.536 16.8743 1089 102.394 134.465 482.585
1307 0 66.2359 16.3808 1085 103.861 136.213 482.173
1308 0 68.5932 17.2029 1180 102.403 138.633 481.781
1309 0 71.581 16.7782 1201 102.632 140.931 482.623
1310 0 74.3417 15.8592 1179 106.462 142.503 481.294
1311 0 77.2706 16.6687 1288 104.658 143.75 481.265
1312 0 80.2147 16.3062 1308 105.511 144.06 481.646
1313 0 83.4197 16.9265 1412 106.135 143.125 478.631
1314 0 88.3423 17.4322 1540 104.085 142.855 479.677
1315 0 92.1802 18.2469 1682 103.076 142.64 477.86
1316 0 96.1643 17.4181 1675 104.11 141.832 476.853
1317 0 100.217 16.544 1658 105.8 141.226 476.067
1318 1 55.1638 14.883 821 111.219 140.007 497.032
1319 0 59.4118 14.3742 854 107.587 138.607 499.388
1320 0 61.098 14.5668 890 109.717 137.975 495.567
1321 0 65.1649 17.4787 1139 106.164 136.191 491.818
1322 0 68.1797 17.1165 1167 106.59 135.602 489.817
1323 0 70.0923 17.8622 1252 106.312 134.266 487.93
1324 0 75.1318 17.6091 1323 106.143 134.039 484.675
1325 0 76.1441 17.0072 1295 108.946 132.836 482.032
1326 0 79.0907 17.6506 1396 108.488 133.155 479.637
1327 0 82.1362 17.0083 1397 111.198 132.689 476.727
1328 0 87.2054 18.4392 1608 107.488 133.052 472.527
1329 0 88.1034 18.7393 1651 107.458 132.471 472.784
1330 0 93.2089 18.4961 1724 107.337 133.518 471.202
1331 0 96.2633 18.2209 1754 108.005 134.349 469.185
1332 0 98.1876 17.3545 1704 110.874 135.488 467.381
1333 1 53.018 15.8814 842 114.829 137.034 488.99
1334 0 53.0331 15.6129 828 116.848 139.254 487.835
1335 0 55.2266 16.5138 912 116.74 142.3 487.592
1336 0 58.0627 17.6705 1026 113.924 143.261 488.405
1337 0 63.0732 18.2169 1149 111.135 144.198 488.491
1338 0 65.1473 17.8212 1161 114.047 145.419 486.909
1339 0 69.0945 17.9609 1241 113.733 145.225 487.894
1340 0 71.2337 18.8113 1340 113.83 145.32 486.152
1341 0 75.063 19.7301 1481 112.738 144.209 485.244
1342 0 79.1928 20.8479 1651 111.591 143.601 484.929
1343 0 83.1243 18.9114 1572 117.858 141.817 483.511
1344 0 86.0738 18.9372 1630 119.309 141.059 483.769
1345 0 89.2325 18.2781 1631 121.497 140.042 480.969
1346 0 94.214 18.1926 1714 122.43 138.067 478.377
1347 0 99.107 19.2923 1912 118.92 135.924 477.667
1348 0 104.215 19.5174 2034 118.637 135.231 474.068
1349 0 109.123 20.0782 2191 116.517 133.177 471.111
1350 0 113.262 20.1922 2287 118.858 132.361 467.856
1351 0 117.083 18.679 2187 123.907 131.836 463.687
1352 1 60.1869 14.6211 880 129.297 131.42 491.723
1353 0 66.0657 17.1799 1135 125.307 131.617 486.375
1354 0 66.0957 17.399 1150 128.83 131.842 482.594
1355 0 68.2256 16.3282 1114 131.214 132.544 481.061
1356 0 72.2636 17.3393 1253 129.086 133.306 478.481
1357 0 77.1863 18.4877 1427 124.851 133.807 477.509
1358 0 78.1342 17.7899 1390 129.436 133.954 474.823
1359 0 82.0855 17.7254 1455 128.95 135.247 477.302
1360 0 85.2576 17.8283 1520 130.608 136.622 471.799
1361 0 88.1812 17.7135 1562 131.228 138.684 473.937
1362 0 93.199 18.4551 1720 128.99 140.819 472.684
1363 0 98.1229 18.2934 1795 128.636 143.154 470.828
1364 0 103.095 17.3724 1791 131.747 143.842 469.596
1365 1 56.2057 16.4752 926 128.226 143.927 495.707
1366 0 59.1248 17.3024 1023 128.686 143.698 495.078
1367 0 62.0924 17.2163 1069 131.268 144.651 495.133
1368 0 63.1414 16.9778 1072 135.339 143.713 494.055
1369 0 68.1233 17.8206 1214 131.701 142.792 494.498
1370 0 72.0492 17.2243 1241 134.937 141.816 493.434
1371 0 74.0913 17.033 1262 136.948 140.129 493.178
1372 0 78.1446 17.0325 1331 138.653 138.282 490.624
1373 0 82.1184 17.9984 1478 136.712 136.545 489.641
1374 1 43.0557 15.538 669 140.067 134.879 506.865
1375 0 44.042 15.4625 681 142.535 133.517 504.924
1376 0 43.0965 15.2681 658 147.175 132.626 502.301
1377 0 47.1279 16.4234 774 143.814 131.399 500.204
1378 0 51.1968 16.7784 859 140.905 130.953 498.397
1379 0 52.1031 16.5825 864 143.362 131.104 496.119
1380 0 54.0761 17.087 924 143.964 131.08 493.785
1381 0 57.0922 16.2194 926 146.65 130.955 492.382
1382 0 57.0638 17.349 990 145.578 131.439 489.803
1383 0 60.0692 17.3633 1043 146.629 132.572 487.844
1384 0 62.052 17.3564 1077 147.876 132.796 487.262
1385 0 68.0658 15.5879 1061 148.357 133.201 487.702
1386 0 67.1721 17.1798 1154 146.98 134.406 485.919
1387 0 71.1714 16.7202 1190 147.977 135.35 485.297
1388 0 74.0997 16.6937 1237 148.211 137.709 483.632
1389 0 74.1675 16.3279 1211 150.596 140.083 484.592
1390 0 80.2482 17.9817 1443 145.17 141.591 484.313
1391 0 81.1822 16.7401 1359 151.971 141.624 483.758
1392 0 86.0696 16.6726 1435 151.295 142.654 482.96
1393 0 90.2209 17.1246 1545 150.078 142.7 483.957
1394 0 96.1275 17.1231 1646 151.086 141.64 482.363
1395 0 101.187 17.3638 1757 152.777 141.053 479.54
1396 0 108.278 17.5474 1900 151.469 139.591 478.841
1397 1 50.0337 15.7894 790 154.729 137.954 506.532
1398 0 50.0466 13.907 696 160.06 136.968 506.092
1399 0 53.094 15.0676 800 159.094 135.855 504.484
1400 0 55.0841 15.2131 838 161.197 133.734 503.173
1401 0 59.0984 14.9581 884 162.497 131.896 500.906
1402 0 62.1024 15.7321 977 161.156 131.559 498.422
1403 0 62.0572 15.1957 943 164.701 130.543 496.432
1404 0 66.1267 14.9713 990 163.91 130.426 495.386
1405 0 69.1125 16.0029 1106 162.615 129.727 491.332
1406 0 69.0624 15.6525 1081 163.004 129.625 491.572
1407 0 73.1236 15.4533 1130 163.415 130.137 489.29
1408 0 78.2208 15.4051 1205 162.037 130.38 485.739
1409 0 79.1973 16.5031 1307 157.725 131.15 485.461
1410 0 80.1643 15.069 1208 164.074 131.588 484.618
1411 0 83.1932 16.672 1387 159.307 132.301 481.973
1412 0 85.1118 15.227 1296 163.87 132.547 481.681
1413 0 89.0553 16.1473 1438 159.876 133.966 479.748
1414 0 94.1604 15.6541 1474 158.092 136.111 479.136
1415 0 101.438 15.3789 1560 157.422 138.821 476.622
1416 1 44.1009 16.1448 712 150.913 139.758 501.531
1417 0 45.0254 17.3236 780 151.785 141.069 500.453
1418 0 48.0887 17.6549 849 150.231 142.42 501.775
1419 0 51.3186 18.3169 940 145.898 142.476 502.115
1420 0 52.4342 17.5267 919 151.535 142.153 502.096
1421 0 55.1307 17.4494 962 152.895 141.666 501.891
1422 0 58.5237 16.9846 994 153.748 140.285 502.241
1423 0 59.0867 17.9397 1060 154.242 139.077 501.936
1424 0 64.2139 18.5474 1191 151.173 137.32 499.691
1425 0 68.3356 17.9116 1224 152.154 135.736 498.177
1426 0 72.1411 18.2004 1313 150.441 133.676 495.198
1427 0 76.1353 18.2964 1393 149.65 131.727 493.76
1428 0 79.2688 17.7876 1410 150.029 132.079 491.314
1429 1 40.0574 16.2767 652 151.497 130.339 508.926
1430 0 39.0191 17.2992 675 153.594 129.447 506.236
1431 0 41.0992 17.9566 738 150.52 129.354 504.523
1432 0 42.0349 19.0794 802 147.737 128.8 502.585
1433 0 43.0604 19.0895 822 149.921 129.427 500.482
1434 0 44.2122 18.9314 837 150.189 129.222 499.172
1435 0 46.0569 18.2166 839 152.275 129.572 496.777
1436 0 47.0792 19.1804 903 148.346 129.693 496.724
1437 0 49.1104 17.4505 857 154.41 130.964 495.312
1438 0 50.0837 18.2694 915 151.201 131.857 494.713
1439 0 55.1776 18.7757 1036 145.76 133.184 495.18
1440 0 56.2074 18.5563 1043 148.689 133.942 493.265
1441 0 57.3665 17.6061 1010 150.569 135.801 494.039
1442 0 59.2003 19.3242 1144 145.173 137.448 493.449
1443 0 62.1802 18.8002 1169 146.327 139.648 493.105
1444 0 64.0863 19.2865 1236 145.976 140.509 493.049
1445 0 67.2345 19.0973 1284 145.903 142.052 492.652
1446 1 33.1105 17.4869 579 150.921 141.399 510.033
1447 0 32.0813 15.5543 499 158.158 140.651 511.242
1448 0 34.1275 17.7863 607 149.527 141.158 511.611
1449 0 35.0407 18.6926 655 146.641 140.566 512.113
1450 0 38.1688 17.999 687 144.642 138.825 512.22
1451 0 37.0876 18.4428 684 145.488 137.042 511.161
1452 0 40.0668 18.5191 742 141.155 136.375 510.256
1453 0 39.1878 19.598 768 140.012 135.138 508.727
1454 0 41.148 18.8102 774 136.726 133.691 508.987
1455 0 40.1607 17.9529 721 140.326 130.861 509.011
1456 0 42.1958 19.054 804 135.724 129.382 505.774
1457 0 42.2621 18.267 772 137.519 130.093 504.615
1458 0 43.068 19.3647 834 134.745 129.902 502.506
1459 0 43.0401 19.0287 819 136.612 129.388 500.496
1460 0 44.0848 17.9881 793 137.489 129.344 499.705
1461 0 46.4957 18.1092 842 134.662 129.341 498.452
1462 0 48.2085 19.2497 928 131.119 130.123 497.289
1463 0 49.3296 18.6501 920 131.39 130.86 496.65
1464 0 46.0616 17.5417 808 134.927 131.348 496.469
1465 0 49.1971 18.9239 931 129.702 132.38 495.458
1466 0 49.1703 18.9545 932 129.512 132.91 495.533
1467 0 51.1458 17.9878 920 128.996 134.429 496.209
1468 0 51.175 18.3488 939 128.174 136.682 495.405
1469 0 53.1729 18.3176 974 127.636 138.28 496.622
1470 0 55.3534 19.8543 1099 125.135 139.615 497.135
1471 0 57.3089 18.7754 1076 128.408 140.903 496.836
1472 0 58.1124 19.5827 1138 128.142 141.56 497.503
1473 0 60.1866 19.9214 1199 127.371 141.726 497.324
1474 0 62.7551 19.6 1230 129.957 141.169 497.798
1475 0 64.1832 19.6157 1259 132.554 139.939 497.736
1476 0 64.1634 17.9697 1153 138.109 138.706 499.204
1477 0 67.3732 19.6221 1322 135.584 138.148 496.545
1478 0 72.1682 20.1474 1454 130.22 137.356 497.851
1479 0 72.4111 19.334 1400 132.913 136.896 496.023
1480 0 75.242 19.5237 1469 131.144 135.491 494.569
1481 0 79.1952 18.4986 1465 134.9 133.059 491.082
1482 0 80.1768 18.3968 1475 136.982 132.084 487.477
1483 0 84.394 19.4919 1645 134.572 131.004 484.115
1484 0 86.114 17.2214 1483 138.312 130.015 482.323
1485 0 92.6666 20.1475 1867 130.183 130.463 478.086
1486 0 94.6478 18.2994 1732 134.529 129.411 476.271
1487 0 96.5851 18.7503 1811 133.806 129.51 472.013
1488 0 100.288 17.729 1778 135.547 128.442 471.062
1489 0 105.486 18.4195 1943 131.963 128.694 468.545
1490 0 109.299 18.9938 2076 131.189 129.926 464.213
1491 0 114.424 18.2916 2093 132.397 131.234 461.971
1492 0 117.822 18.1206 2135 133.247 131.461 462.973
1493 0 122.629 18.3969 2256 133.208 132.313 458.001
1494 0 127.752 18.4655 2359 133.162 134.028 456.586
1495 0 132.552 17.7439 2352 135.541 135.746 455.485
1496 0 137.921 18.9094 2608 132.979 137.964 454.311
1497 1 68.4193 15.6242 1069 142.064 139.625 488.387
1498 0 72.5767 17.9396 1302 137.738 141.286 486.37
1499 0 75.6143 17.1396 1296 141.478 142.052 486.788
1500 0 77.5606 16.168 1254 144.696 142.474 488.043
1501 0 81.5008 16.1839 1319 144.027 142.357 487.227
1502 0 84.8335 17.7289 1504 143.128 140.967 485.693
1503 0 85.58 16.3356 1398 148.404 139.273 484.389
1504 0 90.5463 16.9306 1533 146.147 138.755 482.577
1505 1 43.5614 13.3145 580 146.85 137.036 506.569
1506 0 42.4696 15.1403 643 146.306 135.597 504.157
1507 0 45.3504 16.141 732 146.296 134.424 501.609
1508 0 47.5276 17.1269 814 145.367 133.367 500.657
1509 0 48.716 14.9848 730 151.199 132.012 498.842
1510 0 52.4746 16.8272 883 144.309 131.149 497.354
1511 0 53.3915 17.2125 919 144.952 130.421 494.62
1512 0 55.6723 16.5073 919 146.548 129.718 493.733
1513 0 58.2731 17.847 1040 142.522 129.589 490.875
1514 0 62.2985 14.9281 930 149.105 129.106 489.146
1515 0 63.1959 16.6783 1054 145.659 129.102 486.779
1516 0 64.4115 16.1151 1038 148.107 129.803 484.895
1517 0 65.3828 16.6863 1091 150.031 130.422 482.241
1518 0 68.3339 16.5218 1129 149.912 131.119 481.648
1519 0 69.2605 15.3045 1060 153.775 131.658 481.083
1520 0 72.2163 16.6721 1204 150.082 132.816 481.65
1521 0 76.6544 16.594 1272 152.59 134.219 478.886
1522 0 78.3468 16.9248 1326 152.657 136.502 478.863
1523 0 81.1738 16.4092 1332 155.255 138.264 479.651
1524 0 82.4768 16.4167 1354 157.006 139.818 478.878
1525 0 85.244 17.0335 1452 156.811 140.707 478.809
1526 0 88.4193 16.2295 1435 161.755 141.883 477.401
1527 0 94.4314 17.5577 1658 155.58 142.479 478.359
1528 0 99.3707 17.3995 1729 157.371 141.983 476.569
1529 1 54.2359 14.3079 776 154.384 141.751 499.076
1530 0 56.2969 14.5656 820 155.187 140.45 498.741
1531 0 57.2829 13.7912 790 158.227 139.157 499.357
1532 0 61.3645 13.9331 855 153.692 138.501 498.857
1533 0 66.5433 14.4567 962 151.179 137.076 495.507
1534 0 68.4176 13.7976 944 156.186 135.44 494.641
1535 1 39.1442 9.73325 381 149.517 134.394 507.772
1536 0 42.2657 11.1911 473 145.156 132.7 505.588
1537 0 43.2122 12.2651 530 143.904 131.568 504.277
1538 0 44.1764 13.7857 609 142.911 130.394 502.089
1539 0 45.0949 11.5534 521 149.111 130.349 500.685
1540 0 45.1335 12.8286 579 147.85 129.905 497.793
1541 0 45.3218 11.319 513 151.376 130.152 498.02
1542 0 49.2948 12.05 594 150.658 130.359 495.237
1543 0 51.221 12.0654 618 149.228 130.607 493.438
1544 0 52.3309 12.077 632 148.046 130.818 491.16
1545 0 54.4235 12.7702 695 149.38 131.279 489.873
1546 0 56.3586 12.1366 684 147.567 131.977 490.64
1547 0 57.4496 11.4013 655 148.415 133.391 491.177
1548 1 31.1116 9.83556 306 130.605 134.539 504.65
1549 0 31.1547 11.2664 351 128.291 136.271 504.256
1550 0 31.1752 10.7457 335 132.275 138.66 503.546
1551 0 31.2452 11.5538 361 130.263 139.809 504.554
1552 0 33.1839 11.8431 393 131.916 141.817 505.275
1553 1 65.6298 12.5553 824 148.522 140.915 490.274
1554 0 67.8904 13.7427 933 148.854 141.693 491.566
1555 0 71.9792 13.6984 986 148.136 141.814 488.813
1556 0 75.9255 10.3786 788 152.061 141.041 493.827
1557 1 41.3408 10.3772 429 136.221 141.678 507.34
1558 0 43.2643 11.9729 518 133.104 140.573 506.772
1559 0 45.3194 11.9816 543 131.576 139.849 505.709
1560 0 45.3349 10.4114 472 133.89 138.39 507.394
1561 0 49.2926 10.529 519 132.322 137.058 504.349
1562 1 26.1209 9.68574 253 125.747 133.862 514.545
1563 0 27.0474 9.5758 259 127.042 132.143 514.606
1564 0 28.0072 10.3188 289 127.917 130.73 510.782
1565 0 29.0679 10.7679 313 124.827 130.112 510.351
1566 0 29.3081 10.0655 295 127.495 130.207 508.658
1567 0 31.3533 12.2475 384 124.008 130.039 506.177
1568 0 29.2863 10.8583 318 130.305 130.201 504.814
1569 0 32.4047 10.77 349 130.072 130.986 502.049
1570 0 33.4496 12.2273 409 126.43 131.54 502.357
1571 0 36.316 13.5478 492 118.695 131.949 499.799
1572 0 35.37 12.1572 430 124.812 132.277 499.937
1573 0 36.4483 11.8799 433 125.487 131.79 497.48
1574 0 37.6006 11.7551 442 128.394 131.611 498.102
1575 0 38.4455 12.2511 471 126.408 133.204 498.597
1576 0 41.4591 12.9043 535 122.151 135.297 498.529
1577 0 43.333 13.0847 567 120.737 137.563 498.122
1578 0 42.4314 12.7971 543 124.858 139.188 498.586
1579 0 43.3301 11.8624 514 129.749 140.733 499.245
1580 0 46.3665 13.1129 608 126.339 139.439 498.562
1581 0 47.2388 12.3204 582 131.151 141.084 498.631
1582 0 48.2029 13.5469 653 126.182 141.228 501.297
1583 1 23.0954 9.95868 230 129.191 142.987 515.539
1584 0 22.0183 8.9471 197 135.985 141.868 514.645
1585 0 27.1144 9.84716 267 131.655 140.434 514.992
1586 0 28.0346 10.8437 304 132.24 139.487 514.618
1587 0 31.2621 11.9314 373 127.483 137.775 513.673
1588 0 33.1386 12.1611 403 126.677 136.308 513.278
1589 0 33.1059 12.898 427 126.607 134.321 511.192
1590 0 36.1457 13.1966 477 125.91 133.184 509.184
1591 0 36.2142 12.9507 469 130.689 131.237 507.424
1592 0 37.1929 13.8198 514 128.136 132.167 506.337
1593 0 40.1217 13.6585 548 126.786 131.383 503.956
1594 0 40.154 14.0708 565 128.248 130.952 501.881
1595 0 41.0193 16.3825 672 123.213 130.665 499.417
1596 0 44.2215 14.4952 641 127.382 130.964 497.959
1597 0 44.1995 14.6608 648 126.886 131.486 496.529
1598 0 47.3314 14.1132 668 127.9 130.9 494.591
1599 0 47.3255 14.9814 709 127.707 131.32 493.161
1600 0 48.1102 13.7809 663 131.3 132.68 492.084
1601 0 50.4086 15.0173 757 127.557 133.045 491.967
1602 0 51.3173 14.7319 756 130.77 133.766 491.868
1603 0 53.2942 15.724 838 126.327 135.678 490.885
1604 0 53.4813 14.7528 789 130.703 137.631 491.011
1605 0 55.6483 15.3464 854 127.667 138.984 490.39
1606 0 59.4581 15.944 948 124.187 140.912 487.175
1607 0 61.7229 15.0673 930 125.465 142.749 486.97
1608 0 64.4424 14.9746 965 124.862 143.195 487.456
1609 0 67.5859 15.4322 1043 121.91 143.986 486.939
1610 0 71.6366 14.8527 1064 123.612 143.98 485.772
1611 1 35.3336 11.6037 410 128.976 143.51 505.076
1612 0 38.4869 12.4978 481 129.894 141.857 501.755
1613 0 43.3133 14.9838 649 116.81 141.345 505.102
1614 0 44.1039 13.1734 581 122.652 139.046 503.165
1615 0 44.0768 13.5218 596 124.424 137.565 502.215
1616 0 46.0875 14.2121 655 120.46 136.02 501.397
1617 0 49.0761 15.1805 745 117.098 134.868 499.697
1618 0 48.0877 13.5378 651 121.876 134.101 497.716
1619 0 51.081 14.4868 740 119.176 132.931 495.132
1620 0 53.0661 14.171 752 119.938 132.116 492.935
1621 0 53.3363 16.4241 876 111.921 130.96 491.524
1622 0 52.2898 16.0261 838 121.141 130.739 488.908
1623 0 57.0772 15.7681 900 117.672 129.95 485.109
1624 0 62.2703 18.516 1153 106.996 130.173 480.651
1625 0 63.1604 16.1652 1021 113.267 130.898 481.445
1626 0 66.2617 17.8233 1181 107.297 131.088 479.596
1627 0 66.3318 17.8195 1182 108.195 131.579 478.432
1628 0 71.2119 19.6175 1397 101.115 133.4 473.334
1629 0 75.4048 18.5001 1395 102.822 134.348 473.408
1630 0 79.3572 18.423 1462 102.602 134.901 473.555
1631 0 83.3069 18.7139 1559 100.972 136.168 470.579
1632 0 84.2644 20.7086 1745 96.9788 137.656 470.507
1633 0 84.3179 17.1375 1445 105.374 139.745 472.065
1634 0 94.4317 17.8012 1681 100.341 142.209 467.791
1635 1 48.204 11.5758 558 108.443 144.233 494.789
1636 0 50.1228 11.0728 555 107.872 144.099 495.11
1637 0 51.1593 13.6632 699 105.91 143.01 495.379
1638 0 53.2161 13.6988 729 107.048 142.782 496.472
1639 0 56.2767 14.1266 795 104.357 141.72 496.6
1640 0 58.2383 12.6034 734 108.121 141.059 496.004
1641 0 62.2375 13.577 845 105.47 140.47 495.582
1642 0 66.2457 13.9934 927 104.414 139.121 494.568
1643 0 68.4197 13.9434 954 104.563 136.276 492.102
1644 0 71.2956 13.956 995 104.617 135.638 491.036
1645 0 74.1664 13.7798 1022 104.773 134.051 487.834
1646 0 78.2039 14.0019 1095 105.208 132.855 484.12
1647 0 83.4865 15.3917 1285 100.367 131.915 482.578
1648 0 86.4521 15.5924 1348 99.951 131.362 478.3
1649 1 45.1987 9.91178 448 105.152 131.955 497.911
1650 0 50.1582 11.1447 559 102.206 131.85 495.195
1651 0 50.2971 11.114 559 101.943 131.671 494.005
1652 0 50.3045 10.7744 542 101.934 131.098 491.994
1653 0 53.2949 12.14 647 99.3725 131.151 490.161
1654 0 55.1994 12.4277 686 97.6356 132.176 487.784
1655 0 58.24 12.7404 742 97.0121 132.734 487.089
1656 0 59.3973 12.8625 764 98.4921 133.097 483.99
1657 0 61.2008 11.5358 706 100.123 134.273 484.666
1658 0 66.2473 13.359 885 95.9412 134.851 483.421
1659 0 69.2612 14.0194 971 93.5705 136.902 483.095
1660 0 70.2261 11.7905 828 97.1461 138.773 482.709
1661 0 75.2998 12.7358 959 96.1668 140.824 480.052
1662 0 77.2263 12.7418 984 96.1098 141.965 481.022
1663 0 81.1693 13.3918 1087 95.0313 142.23 480.564
1664 0 85.2593 14.0161 1195 94.6151 142.458 479.11
1665 0 90.167 12.8428 1158 96.2988 142.199 480.69
1666 0 95.2211 15.0387 1432 92.081 142.665 479.658
1667 0 94.2641 13.2288 1247 99.757 140.403 475.97
1668 0 100.191 13.2747 1330 99.2 138.232 473.619
1669 1 55.0367 9.15752 504 95.5298 138.679 502.296
1670 0 58.0316 11.1319 646 93.1703 137.676 498.201
1671 0 59.0966 11.7604 695 95.154 135.564 495.734
1672 0 60.1266 12.008 722 92.0956 134.755 495.155
1673 0 63.372 12.687 804 93.8234 134.292 490.155
1674 0 66.1944 14.82 981 91.1621 132.163 490.107
1675 0 68.2052 12.1838 831 96.0457 131.106 488.345
1676 0 72.3071 14.1065 1020 91.1637 130.457 487.413
1677 0 72.3104 13.0272 942 94.8875 129.495 483.224
1678 0 76.2193 13.1069 999 94.5205 129.261 481.425
1679 0 81.2716 14.4946 1178 91.4244 129.051 476.649
1680 0 83.2305 14.3817 1197 91.914 129.481 472.779
1681 0 86.5845 14.5176 1257 91.8218 130.049 472.648
1682 0 90.578 14.4627 1310 92.1466 130.376 468.921
1683 1 43.3097 10.9444 474 95.7489 131.371 488.715
1684 0 47.5701 11.0574 526 93.4829 131.996 488.422
1685 0 50.485 12.2017 616 91.1299 133.244 488.338
1686 0 52.4704 12.0449 632 92.0649 135.046 486.318
1687 0 55.4477 13.3459 740 88.4514 136.934 487.9
1688 0 58.1471 12.8467 747 89.1874 137.96 486.181
1689 0 58.3554 13.1436 767 89.9505 139.213 485.387
1690 0 63.2218 14.4096 911 87.5016 140.312 484.148
1691 0 64.5041 12.5728 811 90.291 141.903 484.592
1692 0 67.4099 13.9445 940 88.7021 141.721 484.338
1693 0 70.5146 13.1888 930 90.0215 140.848 484.225
1694 0 74.437 13.6088 1013 89.9181 140.494 480.712
1695 0 77.7102 14.1938 1103 90.6219 140.015 481.715
1696 0 83.7462 14.723 1233 90.768 139.622 480.088
1697 1 45.5737 10.1155 461 93.5792 138.354 501.416
1698 0 46.5325 12.0776 562 92.7011 137.39 496.73
1699 0 50.3343 12.7945 644 91.9705 136.922 498.983
1700 0 51.2093 12.5368 642 94.2991 134.723 497.316
1701 0 50.3558 12.2528 617 98.3809 133.862 496.72
1702 0 54.2741 12.7317 691 97.9074 131.865 494.871
1703 0 57.3054 12.477 715 98.6895 132.345 492.867
1704 0 57.1743 13.8699 793 98.3064 130.236 488.671
1705 0 59.1902 12.0121 711 102.807 128.857 487.886
1706 0 61.2376 13.4068 821 99.6882 129.013 484.782
1707 0 65.1373 14.0626 916 97.0535 129.436 478.187
1708 0 67.2682 14.7172 990 97.0354 129.075 476.357
1709 0 70.2114 13.7869 968 98.8884 129.781 477.16
1710 0 74.098 15.466 1146 94.8316 129.801 472.716
1711 1 39.0582 10.1643 397 101.202 131.045 490.028
1712 0 41.1251 11.307 465 98.7849 132.361 491.226
1713 0 42.1148 10.8038 455 99.7209 133.908 492.411
1714 0 44.2088 11.5362 510 100.435 136.016 491.231
1715 0 44.1423 11.8027 521 101.852 138.42 491.908
1716 0 48.176 12.994 626 99.9345 140.869 491.711
1717 0 49.1672 14.0948 693 98.7215 142.714 491.491
1718 0 50.2423 13.833 695 98.7597 144.2 493.632
1719 0 52.1705 13.7242 716 101.622 145.057 493.401
1720 0 53.1225 13.4971 717 102.81 144.937 493.929
1721 0 58.0882 13.3762 777 101.927 144.407 492.539
1722 0 59.0803 14.3364 847 100.697 143.164 490.865
1723 0 61.2245 13.8017 845 102.535 141.637 491.328
1724 0 64.1388 13.7826 884 101.725 141.39 490.433
1725 0 68.0972 13.1136 893 102.106 140.027 490.148
1726 0 72.1175 14.7537 1064 98.2829 138.789 487.737
1727 0 73.1313 13.592 994 101.501 137.344 486.187
1728 0 73.1812 14.02 1026 100.938 135.464 486.01
1729 0 79.166 15.2843 1210 98.057 133.76 482.158
1730 1 40.0216 10.6443 426 103.272 131.549 500.793
1731 0 45.1011 11.8622 535 99.6972 131.497 498.041
1732 0 47.0271 12.0356 566 100.814 130.532 493.982
1733 0 50.3432 13.0703 658 98.9726 132.406 492.144
1734 0 50.3705 13.1228 661 100.8 130.549 488.95
1735 0 52.0798 13.8057 719 99.1641 131.459 486.522
1736 0 54.1276 13.0248 705 101.435 132.431 485.499
1737 0 56.0821 14.5858 818 97.3936 133.153 483.877
1738 0 57.0843 12.7355 727 102.79 133.583 484.117
1739 0 60.1554 13.9804 841 100.247 134.523 481.699
1740 0 60.1338 12.9877 781 104.35 135.132 479.828
1741 0 64.1497 13.6088 873 101.388 136.932 480.829
1742 0 67.1763 14.7522 991 98.0151 137.991 480.133
1743 0 68.0708 14.0001 953 99.9759 139.627 480.071
1744 0 73.2711 14.1256 1035 98.8203 141.151 478.968
1745 0 75.1059 13.927 1046 99.2017 143.207 479.37
1746 1 41.0783 9.93226 408 101.738 145.051 497.588
1747 0 43.0937 10.6976 461 100.438 145.809 499.718
1748 0 45.053 12.4964 563 99.1332 143.849 499.05
1749 0 47.1873 12.9272 610 98.6246 143.134 497.787
1750 0 50.2779 14.0618 707 96.2433 142.931 498.85
1751 0 50.1394 13.5223 678 99.3156 141.888 498.836
1752 0 53.1461 13.303 707 100.013 140.989 498.837
1753 0 57.2056 14.2818 817 98.142 140.021 498.712
1754 0 57.3241 14.3744 824 99.949 138.047 495.824
1755 0 61.1116 14.4163 881 99.2679 135.843 494.877
1756 0 62.1817 14.1038 877 101.107 134.444 493.397
1757 0 63.1549 14.4882 915 102.085 133.476 489.675
1758 0 67.1037 14.5297 975 102.053 132.583 486.792
1759 0 68.0677 14.2211 968 104.027 131.403 482.889
1760 0 73.0582 15.6724 1145 99.5345 131.533 482.804
1761 0 74.0712 14.2296 1054 104.062 130.78 480.511
1762 1 39.2356 9.48118 372 103.871 131.935 497.801
1763 0 42.1058 10.4736 441 103.805 132.147 495.683
1764 0 43.1685 10.4706 452 100.777 132.675 496.416
1765 0 45.182 12.505 565 98.6142 132.961 493.791
1766 0 45.2258 10.1048 457 103.184 132.842 493.427
1767 0 49.1375 12.3734 608 97.0296 133.852 491.676
1768 0 51.1472 11.6917 598 99.1037 135.4 490.913
1769 0 54.2916 12.8381 697 94.8422 137.007 490.822
1770 0 53.2791 13.1947 703 97.3329 138.828 489.649
1771 0 55.2635 12.4856 690 97.5261 140.532 490.554
1772 0 58.2138 13.605 792 95.3093 142.33 489.854
1773 0 60.3496 13.3887 808 95.8366 142.873 489.557
1774 0 64.2522 14.4275 927 91.2524 143.574 489.625
1775 0 67.3961 12.8494 866 94.821 144.602 488.507
1776 0 70.2709 13.946 980 92.7092 143.638 489.037
1777 0 74.2924 13.1911 980 93.9102 143.107 487.927
1778 1 38.136 11.2492 429 91.0093 143.037 508.918
1779 0 39.1719 9.72636 381 96.1758 141.052 506.302
1780 0 43.2277 12.1219 524 90.0592 139.643 505.702
1781 0 45.0676 11.7601 530 89.3132 137.406 506.309
1782 0 45.2267 12.36 559 88.8784 135.648 503.138
1783 0 49.2234 13.1645 648 86.2068 133.829 500.736
1784 0 48.2193 12.8165 618 87.8592 132.511 500.508
1785 0 51.1752 14.1279 723 86.5851 131.625 496.151
1786 0 52.2353 12.7691 667 88.3538 130.99 497.888
1787 0 55.1627 12.5266 691 89.6454 130.874 492.511
1788 0 56.1642 13.8522 778 87.4704 129.937 489.793
1789 0 59.097 13.977 826 87.9467 130.109 487.459
1790 0 61.2329 13.9631 855 87.014 130.325 487.088
1791 0 63.26 15.1439 958 85.6148 129.804 483.454
1792 0 63.1244 14.3843 908 87.8579 130.253 481.398
1793 0 69.1395 13.3787 925 88.0703 130.837 482.275
1794 0 68.1036 13.0683 890 90.3303 130.39 481.4
1795 0 72.0811 13.9565 1006 88.3847 131.679 479.532
1796 1 38.0732 9.95452 379 90.4776 133.902 497.219
1797 0 39.2109 9.94622 390 90.782 134.854 497.21
1798 0 43.0597 11.9834 516 86.7345 137.405 497.221
1799 0 43.021 12.0639 519 88.5106 138.933 497.094
1800 0 44.0857 11.3416 500 90.07 139.714 497.392
1801 0 46.3114 12.5023 579 89.6477 141.183 494.413
1802 0 49.1457 13.3481 656 87.4512 142.073 497.093
1803 0 51.0406 14.028 716 86.986 142.602 496.514
1804 0 51.054 13.5347 691 90.1375 141.524 496.996
1805 0 54.0626 13.7248 742 90.5458 140.889 497.513
1806 0 58.2464 13.1854 768 91.6953 138.802 496.783
1807 0 60.192 15.1349 911 89.2031 138.31 496.814
1808 0 61.2782 13.5122 828 93.6027 136.464 497.091
1809 0 62.2289 15.3626 956 93.9351 134.815 492.646
1810 0 65.1882 14.0209 914 96.9048 133.532 490.842
1811 0 70.3562 16.2459 1143 92.3517 132.454 488.878
1812 0 71.2746 14.4792 1032 97.4593 131.345 486.191
1813 0 74.2093 14.4726 1074 98.5894 130.434 482.374
1814 1 37.1558 10.7655 400 101.245 131.122 499.392
1815 0 42.2905 10.286 435 99.092 130.959 497.648
1816 0 43.1017 11.4613 494 98.9555 131.31 494.162
1817 0 42.0682 10.6969 450 100.34 132.076 493.956
1818 0 43.1307 11.8013 509 99.387 131.684 490.381
1819 0 48.2548 12.1439 586 96.3652 130.911 491.172
1820 0 49.2241 14.18 698 94.5573 132.692 488.577
1821 0 48.2533 13.4498 649 95.4422 133.86 489.473
1822 0 52.4333 13.0261 683 95.899 135.075 488.313
1823 0 51.388 12.6683 651 98.2811 136.691 487.611
1824 0 54.3142 14.0663 764 95.4149 139.044 486.373
1825 0 58.3099 14.7316 859 93.3702 140.743 487.342
1826 0 62.2829 14.0167 873 92.9129 142.17 488.333
1827 0 63.1373 14.6506 925 92.9751 143.773 487.861
1828 0 65.2079 13.664 891 95.5107 143.817 485.893
1829 0 69.2383 15.6705 1085 91.1475 144.771 485.065
1830 0 71.1382 15.5753 1108 92.6814 144.513 483.463
1831 0 76.0715 14.6704 1116 94.5986 144.376 484.927
1832 1 40.142 10.7867 433 96.3603 142.404 503.411
1833 0 43.0464 11.2437 484 95.8967 142.023 502.727
1834 0 44.0632 10.7346 473 97.6025 140.632 503.013
1835 0 46.0135 11.7574 541 94.9353 139.778 502.545
1836 0 47.0618 12.8767 606 95.2954 137.526 499.62
1837 0 49.0474 13.4156 658 94.693 136.167 498.856
1838 0 53.049 14.496 769 91.5631 134.082 497.85
1839 0 52.0668 13.8668 722 95.0803 133.584 494.681
1840 0 56.0558 14.5391 815 93.0478 131.847 493.225
1841 0 56.2366 13.8344 778 95.2442 132.76 491.544
1842 0 58.1806 14.4034 838 94.111 131.926 487.183
1843 0 60.1414 14.4659 870 94.9402 131.914 484.537
1844 0 62.1406 15.1592 942 93.156 132.183 483.308
1845 0 64.1408 14.8891 955 93.7141 132.108 479.572
1846 0 64.2593 13.5545 871 97.0241 132.856 478.165
1847 0 68.189 16.4396 1121 90.3434 134.084 478.637
1848 0 73.3174 14.0758 1032 92.7171 133.951 478.225
1849 0 73.2024 14.535 1064 93.6297 134.71 476.93
1850 0 76.1613 14.2461 1085 93.4516 135.728 474.184
1851 0 79.2269 14.3133 1134 92.3545 136.664 474.847
1852 0 83.3633 14.5628 1214 91.4432 138.422 473.129
1853 0 85.2916 13.9521 1190 93.263 140.296 471.323
1854 1 45.293 11.1276 504 93.2679 141.958 494.268
1855 0 45.1282 11.5227 520 92.6212 143.569 493.952
1856 0 48.1306 13.4426 647 88.0835 144.068 495.124
1857 0 51.1085 13.3637 683 88.3543 144.416 495.679
1858 0 53.0927 12.7701 678 89.3289 144.618 496.189
1859 0 54.1278 13.1356 711 90.1421 144.615 494.844
1860 0 55.148 13.3096 734 90.8706 143.54 494.834
1861 0 58.2052 14.2427 829 88.5537 142.557 494.258
1862 0 61.1661 13.8802 849 89.477 141.482 491.304
1863 0 63.0634 13.0504 823 92.9915 139.835 492.78
1864 0 67.1314 15.2388 1023 89.6139 138.003 488.725
1865 0 70.127 15.3151 1074 90.8985 137.173 486.207
1866 0 70.2583 13.6781 961 96.3361 136.072 485.909
1867 0 73.1148 13.2531 969 98.6894 134.82 483.257
1868 0 79.1961 14.7482 1168 94.9341 134.134 481.408
1869 0 81.1937 13.5971 1104 98.6875 133.566 475.195
1870 1 41.1705 10.663 439 100.264 133.048 495.547
1871 0 44.0748 11.4805 506 98.9941 132.458 494.423
1872 0 45.0626 10.6075 478 99.59 132.395 494.347
1873 0 45.2987 12.7818 579 98.5717 132.604 490.188
1874 0 50.095 13.674 685 95.9401 132.822 487.855
1875 0 52.287 13.445 703 96.8862 134.329 487.046
1876 0 52.1818 14.1812 740 97.4176 134.536 485.992
1877 0 54.111 13.6756 740 97.5878 134.927 486.853
1878 0 56.3144 15.5378 875 93.9451 136.649 484.307
1879 0 58.1624 15.1128 879 95.3891 137.845 485.272
1880 0 59.166 14.8734 880 94.8364 139.488 483.486
1881 0 63.2182 13.9675 883 94.308 140.743 486.721
1882 0 64.1477 15.0434 965 94.0414 142.583 483.715
1883 0 67.1745 14.0678 945 96.3492 144.425 484.803
1884 0 71.5212 15.5618 1113 93.7601 145.002 484.693
1885 0 71.3922 15.3098 1093 97.7155 145.601 484.516
1886 1 34.3004 10.9328 375 100.043 145.6 504.251
1887 0 38.2575 11.501 440 100.223 144.748 503.909
1888 0 38.2288 11.5358 441 99.7347 144.048 505.417
1889 0 42.3826 12.8826 546 98.7033 142.392 504.095
1890 0 45.2946 12.8051 580 98.1603 140.945 504.074
1891 0 45.4117 13.3226 605 100.114 139.443 502.835
1892 0 46.1565 14.7325 680 100.066 138.888 500.832
1893 0 48.1829 13.0544 629 102.509 137.095 501.199
1894 0 50.1146 13.9879 701 100.765 136.33 497.378
1895 0 53.1508 15.8229 841 97.5565 134.589 495.199
1896 0 55.1281 15.0014 827 99.3785 133.792 494.103
1897 0 56.1512 14.2294 799 104.026 132.451 491.617
1898 0 58.1599 14.1678 824 102.755 132.183 488.228
1899 0 60.1697 14.1932 854 102.776 131.581 484.033
1900 0 62.1071 15.3606 954 99.6583 131.864 484.016
1901 0 65.0945 13.9643 909 102.136 132.381 480.293
1902 0 67.1063 15.6915 1053 98.415 132.803 478.541
1903 0 70.1263 15.2867 1072 98.3675 133.056 476.993
1904 0 71.2924 14.3634 1024 100.504 133.738 475.999
1905 0 74.0678 13.7442 1018 101.265 134.177 475.971
1906 1 42.0249 13.0875 550 97.4873 134.691 492.398
1907 0 43.0445 11.3836 490 103.624 137.298 490.318
1908 0 44.161 11.7072 517 100.3 139.573 493.48
1909 0 44.0898 11.6127 512 103.217 140.1 492.822
1910 0 48.1681 12.8924 621 100.47 140.96 492.05
1911 0 48.0194 12.4533 598 102.866 142.791 492.543
1912 0 51.1525 14.662 750 96.9667 145.135 494.391
1913 0 53.2362 14.1257 752 99.3404 145.58 492.154
1914 0 54.1669 14.5292 787 98.2808 145.285 494.346
1915 0 59.1806 14.2614 844 97.0498 144.724 494.235
1916 0 62.2701 15.1277 942 95.5234 144.313 491.956
1917 0 64.1715 12.9029 828 100.761 143.03 490.498
1918 0 68.1686 15.8577 1081 94.9815 141.343 490.478
1919 0 71.191 14.2012 1011 98.0969 140.356 489.708
1920 1 39.0854 11.1295 435 102.124 138.037 504.74
1921 0 42.1436 12.1015 510 98.0941 136.992 504.543
1922 0 41.109 10.6789 439 102.023 134.797 503.624
1923 0 44.1321 11.5335 509 100.071 133.931 501.625
1924 0 46.2143 12.204 564 99.5461 133.514 499.067
1925 0 49.258 12.5462 618 99.3236 132.728 496.835
1926 0 49.2497 13.2793 654 98.448 131.538 494.916
1927 0 52.0801 13.4984 703 97.1707 131.532 491.828
1928 0 50.2192 12.1866 612 101.026 131.582 490.23
1929 0 55.2572 14.4054 796 94.9585 132.176 489.134
1930 0 57.2164 13.58 777 95.7864 132.3 488.435
1931 0 59.266 14.2578 845 94.7811 132.433 485.922
1932 0 63.2504 15.6679 991 91.111 133.112 485.481
1933 0 64.0381 13.9761 895 95.4726 133.255 485.354
1934 0 67.1335 14.8659 998 93.5721 133.969 483.211
1935 0 69.0712 14.2751 986 95.2647 134.898 481.055
1936 1 34.0738 10.1544 346 99.2514 136.876 501.457
1937 0 37.043 11.8511 439 96.6173 139.408 500.355
1938 0 37.0758 10.5729 392 95.4209 140.084 505.11
1939 0 41.0429 13.7661 565 92.6885 141.673 502.434
1940 0 41.0374 12.379 508 96.7756 142.305 503.348
1941 0 42.0716 12.0033 505 100.564 142.941 503.162
1942 0 45.1483 13.5775 613 97.1354 142.524 503.998
1943 0 48.0229 14.8263 712 94.4368 140.876 505.157
1944 0 47.2451 14.012 662 98.994 139.547 505.104
1945 0 49.1133 14.6193 718 97.9944 138.316 505.55
1946 0 52.1469 14.5359 758 97.438 137.393 505.548
1947 0 55.1432 14.7616 814 97.9889 135.887 504.263
1948 0 57.1191 14.0233 801 100.014 134.634 502.463
1949 0 61.1084 14.8261 906 97.9294 132.582 499.971
1950 0 63.1521 15.8031 998 96.9579 131.676 495.978
1951 0 66.1849 16.4841 1091 94.714 130.587 494.192
1952 0 69.0733 15.3171 1058 97.7032 129.77 494.331
1953 0 70.1171 15.4028 1080 99.7583 128.752 489.878
1954 0 73.216 15.1333 1108 99.1309 128.034 487.455
1955 1 37.0424 12.6072 467 102.559 127.998 503.531
1956 0 40.0403 11.3136 453 104.435 127.389 502.715
1957 0 39.0915 11.7929 461 104.948 127.341 499.92
1958 0 41.056 13.8591 569 103.086 127.603 498.295
1959 0 45.0421 13.7871 621 101.161 129.246 497.312
1960 0 45.021 14.2822 643 102.386 129.219 494.599
1961 0 47.1794 14.2859 674 102.255 129.776 494.016
1962 0 48.1316 15.5615 749 99.502 130.892 493.035
1963 0 51.1237 15.3549 785 99.9325 132.111 492.099
1964 0 52.0624 14.8668 774 101.36 134.115 491.506
1965 0 55.1083 15.7871 870 98.4 137.102 492.547
1966 0 56.1903 14.9848 842 102.014 137.875 491.095
1967 0 61.161 16.6773 1020 98.1774 138.338 490.862
1968 0 64.1216 16.0164 1027 99.2464 138.949 492.148
1969 0 67.2466 16.67 1121 99.1757 139.129 490.507
1970 0 70.1848 16.4423 1154 100.557 139.457 489.891
1971 0 72.1421 16.1625 1166 102.325 137.506 489.28
1972 0 77.2313 16.224 1253 102.154 137.446 489.99
1973 0 79.3676 16.0267 1272 103.844 136.62 488.237
1974 0 84.1533 16.7789 1412 102.136 135.788 488.184
1975 0 85.2863 15.9815 1363 105.524 134.667 484.911
1976 1 42.0828 12.9031 543 111.812 132.983 505.015
1977 0 47.0975 15.4361 727 107.025 131.806 501.818
1978 0 51.1354 16.4856 843 102.498 130.897 500.888
1979 0 52.1815 15.9827 834 106.782 129.147 498.064
1980 0 54.2628 15.6461 849 107.883 129.591 495.67
1981 0 57.1968 16.5394 946 105.804 128.561 493.423
1982 0 60.0962 16.5568 995 105.783 128.449 490.341
1983 0 61.2312 17.2951 1059 105.034 127.986 488.614
1984 0 63.0742 15.5373 980 110.146 128.16 484.547
1985 0 65.095 16.0688 1046 108.148 129.631 484.071
1986 0 68.0757 17.1427 1167 106.594 128.999 480.958
1987 0 70.0789 17.1093 1199 106.385 130.627 481.398
1988 0 74.1908 17.6572 1310 105.197 131.491 479.274
1989 0 77.1269 19.1503 1477 101.354 133.064 478.513
1990 0 79.169 17.4437 1381 104.553 134.38 476.849
1991 1 39.3153 13.6588 537 107.419 136.322 498.858
1992 0 38.1104 12.5425 478 110.747 137.791 499.536
1993 0 41.1263 14.881 612 108.961 139.998 497.407
1994 0 46.2572 16.9055 782 101.339 140.994 498.532
1995 0 45.1304 15.3112 691 107.253 141.59 498.679
1996 0 48.1222 16.7282 805 104.256 141.837 498.247
1997 0 51.12 16.6276 850 104.629 142.073 498.033
1998 0 53.0879 18.0079 956 101.844 141.383 498.2
1999 0 56.2286 17.8735 1005 104.033 140.106 496.458
2000 0 55.1409 16.1949 893 110.764 139.952 496.948
2001 0 61.193 16.5215 1011 108.445 138.253 496.694
2002 0 62.1738 17.2581 1073 109.751 137.042 493.449
2003 0 66.1142 17.6513 1167 109.24 135.565 491.954
2004 0 68.1325 16.3065 1111 112.865 133.992 490.144
2005 0 71.1769 17.5759 1251 110.428 132.779 489.23
2006 0 73.2097 17.1016 1252 113.464 131.473 485.577
2007 0 76.1956 17.3763 1324 113.084 130.966 482.526
2008 1 37.1154 12.5824 467 121.478 130.722 500.715
2009 0 37.1166 12.9053 479 118.971 130.48 499.338
2010 0 37.0436 13.2547 491 121.12 130.057 497.25
2011 0 42.0419 14.8661 625 117.451 129.952 494.411
2012 0 44.1214 15.956 704 112.384 130.45 492.916
2013 0 43.0392 15.6137 672 115.894 130.917 492.299
2014 0 45.0646 15.7774 711 115.423 131.24 491.527
2015 0 46.0992 14.7942 682 119.37 132.403 490.74
2016 0 49.0628 17.6916 868 111.992 132.836 490.38
2017 0 50.0449 16.2454 813 115.209 133.91 491.225
2018 0 50.0428 16.7656 839 117.43 135.872 489.753
2019 0 52.1177 16.7889 875 116.45 138.104 489.875
2020 0 54.1056 15.8763 859 117.967 139.438 490.667
2021 0 54.1038 15.9878 865 116.509 140.963 491.218
2022 0 55.0467 16.4042 903 116.075 142.029 491.266
2023 0 56.2069 16.5994 933 116.156 142.244 492.574
2024 0 60.0706 17.6792 1062 113.959 142.363 491.738
2025 0 60.1439 17.4083 1047 115.965 142.497 491.417
2026 0 62.1553 17.3758 1080 115.035 141.93 491.685
2027 0 62.2011 16.5592 1030 117.916 140.506 493.271
2028 0 66.0719 17.9653 1187 114.623 140.291 492.176
2029 0 68.2597 17.8729 1220 114.738 138.882 492.337
2030 0 67.2096 17.2148 1157 118.122 137.806 490.833
2031 0 72.1338 18.327 1322 113.735 135.791 490.667
2032 0 73.1561 18.6451 1364 114.674 134.394 487.629
2033 0 72.1494 17.7548 1281 117.905 133.087 486.371
2034 0 75.0576 17.5199 1315 119.018 131.27 482.006
2035 0 75.3372 17.0036 1281 118.38 129.715 482.081
2036 0 77.492 17.3179 1342 118.484 129.671 480.89
2037 0 78.2857 16.7974 1315 119.859 130.017 478.424
2038 0 81.1271 17.035 1382 118.186 130.88 476.768
2039 0 81.1518 17.3748 1410 117.318 130.21 473.986
2040 0 83.366 16.9014 1409 118.398 131.123 473.755
2041 0 86.2725 18.4648 1593 113.502 131.758 473.692
2042 0 86.2257 17.2454 1487 117.214 132.141 472.265
2043 0 86.1838 18.7506 1616 113.442 132.796 471.125
2044 0 88.3503 18.0418 1594 114.359 134.186 473.042
2045 0 91.2114 18.4845 1686 112.561 135.677 472.004
2046 0 92.2486 17.8865 1650 113.75 136.993 472.338
2047 0 93.2822 16.5412 1543 115.056 139.17 474.497
2048 1 48.1763 11.9146 574 117.462 140.744 497.599
2049 0 49.291 14.2623 703 111.431 142.478 499.431
2050 0 50.4145 13.8055 696 113.313 143.8 498.898
2051 0 50.1603 15.1714 761 111.999 143.514 500.273
2052 0 53.175 15.6841 834 108.962 144.374 502.076
2053 0 51.1059 14.2841 730 112.385 142.405 503.205
2054 0 54.1415 14.9608 810 111.51 140.789 503.188
2055 0 52.3837 15.4628 810 112.793 139.778 504.079
2056 0 54.049 15.93 861 111.519 138.635 503.076
2057 0 56.1221 14.9674 840 111.998 137.355 503.86
2058 0 56.0778 17.8502 1001 107.126 135.096 502.37
2059 0 57.2182 16.6031 950 108.643 133.267 501.928
2060 0 58.1254 16.4816 958 107.756 132.518 500.547
2061 0 58.3202 16.358 954 108.212 130.373 498.486
2062 0 58.1265 16.034 932 107.883 129.456 499.219
2063 0 60.1828 16.616 1000 106.331 129.546 496.856
2064 0 61.2499 16.7837 1028 105.025 128.322 494.66
2065 0 60.1188 16.2345 976 106.942 128.016 493.851
2066 0 63.1111 16.7324 1056 104.733 128.283 491.83
2067 0 62.1764 16.7266 1040 104.094 129.256 491.231
2068 0 62.1026 16.4566 1022 105.107 130.471 490.383
2069 0 63.2238 16.8924 1068 103.343 130.163 489.725
2070 0 62.115 17.0007 1056 103.809 131.83 489.294
2071 0 65.1439 16.1028 1049 102.51 131.511 491.015
2072 0 64.2096 14.9355 959 104.776 133.072 491.787
2073 0 64.1704 15.9731 1025 102.754 132.986 492.056
2074 0 67.129 17.9058 1202 99.1057 135.889 490.262
2075 0 66.1392 16.4804 1090 101.167 136.895 492.075
2076 0 68.3511 17.5857 1202 97.02 137.364 493.067
2077 0 66.1373 16.239 1074 100.304 138.353 495.092
2078 0 68.1884 17.4956 1193 97.3462 139.37 495.193
2079 0 69.1594 15.298 1058 100.761 139.631 496.382
2080 0 69.1591 16.368 1132 99.0071 139.008 496.935
2081 0 69.1066 17.104 1182 98.5076 138.149 496.623
2082 0 71.0716 16.0824 1143 99.2135 137.096 498.974
2083 0 71.2358 16.6349 1185 97.8211 135.181 500.127
