time division length width area intensity CMx CMy
0 0 35.0383 11.9298 418 129.476 886.565 487.911
1 0 37.1165 13.8752 515 119.742 887.406 488.668
2 0 37.0767 12.7574 473 125.774 887.677 487.469
3 0 40.0582 14.2043 569 120.032 888.112 485.74
4 0 38.3885 13.4676 517 123.758 888.294 486.946
5 0 39.2415 12.7671 501 125.754 887.982 485.543
6 0 41.1915 13.8135 569 122.796 887.729 484.728
7 0 40.4265 14.0254 567 120.755 886.785 485.138
8 0 43.2036 12.8693 556 124.755 886.924 485.572
9 0 43.3631 14.0673 610 119.966 887.756 483.923
10 0 44.3883 14.3056 635 116.191 887.876 484.098
11 0 43.2826 13.2617 574 122.871 887.467 482.627
12 0 47.3245 14.8126 701 114.943 888.302 484.769
13 0 45.3777 13.3987 608 120.317 887.574 482.09
14 0 46.3522 13.7858 639 119.418 888.31 482.754
15 0 47.3687 13.2366 627 125.072 887.246 481.402
16 0 47.4367 14.4614 686 121.759 887.891 481.708
17 0 50.2974 14.4938 729 119.754 888.263 480.465
18 0 51.2558 13.8716 711 121.615 888 481.554
19 0 52.2158 15.2061 794 118.63 888.569 479.932
20 0 52.2122 13.1962 689 122.637 888.06 479.922
21 0 56.2347 14.2439 801 118.116 887.729 478.267
22 1 31.0224 11.1855 347 119.669 888.994 491.957
23 0 30.1095 12.222 368 118.103 889.231 491.519
24 0 31.0407 10.5668 328 123.738 888.594 489.622
25 0 33.0756 12.4563 412 118.383 889.284 489.544
26 0 34.0345 12.311 419 120.339 890.957 488.539
27 0 34.171 10.9742 375 121.341 891.056 488.973
28 0 36.2018 12.3751 448 120.431 890.935 485.196
29 0 39.1561 14.2251 557 113.901 889.504 484.969
30 0 39.1395 13.7968 540 117.774 889.694 483.528
31 0 42.0377 14.3919 605 115.674 889.615 483.557
32 0 43.1035 14.8016 638 115.843 889.516 483.414
33 0 43.089 14.2496 614 119.059 890.697 481.314
34 0 46.141 16.6446 768 112.064 890.954 481.74
35 0 45.0645 14.2241 641 121.053 890.265 482.011
36 0 47.0765 16.6325 783 115.939 890.275 479.902
37 0 49.1505 15.5848 766 118.829 891.36 478.909
38 0 50.1173 14.9449 749 121.367 890.981 478.478
39 0 50.1173 15.0048 752 158.258 889.993 478.439
40 0 53.0965 14.5961 775 123.351 891.582 478.569
41 0 53.0758 15.4873 822 121.376 891.101 478.337
42 0 56.1249 14.1114 792 122.875 892.408 478.562
43 0 57.1314 13.5127 772 124.067 891.452 477.722
44 0 60.1143 14.2728 858 121.787 891.387 476.681
45 0 63.0902 16.5002 1041 116.594 890.946 474.887
46 0 64.1356 14.75 946 120.937 891.794 474.349
47 0 68.2026 15.5419 1060 117.812 891.792 473.624
48 0 71.0709 16.4202 1167 115.987 891.748 474.14
49 0 72.1286 16.1378 1164 116.986 891.592 473.679
50 0 74.1571 15.6829 1163 116.031 892.724 471.752
51 0 78.2974 15.1346 1185 116.824 892.185 469.898
52 0 82.1093 18.3658 1508 108.875 892.567 469.365
53 0 84.1314 17.021 1432 112.939 892.702 466.526
54 1 40.034 11.1405 446 116.789 892.774 489.529
55 0 42.0753 12.7866 538 116.292 893.355 488.05
56 0 44.0576 13.5958 599 117.307 892.394 486.362
57 0 47.0351 13.5218 636 117.132 892.898 484.791
58 0 48.1314 14.6889 707 116.143 892.703 484.383
59 0 49.1131 15.5559 764 114.92 893.13 482.815
60 0 51.1457 15.1528 775 114.36 893.134 482.604
61 0 52.1011 14.0496 732 117.504 893.404 480.557
62 0 54.0737 15.1275 818 114.62 894.016 480.383
63 0 56.0974 14.974 840 117.045 894.588 476.858
64 0 60.0576 15.0689 905 113.548 894.939 478.23
65 0 60.0191 14.5454 873 115.835 895.551 476.162
66 0 62.0281 14.2032 881 115.033 896 475.173
67 0 65.0488 15.204 989 113.401 896.342 472.513
68 0 66.0758 14.438 954 113.93 896.567 471.388
69 0 67.0914 15.4267 1035 152.747 897.5 470.686
70 0 74.1029 15.2761 1132 111.927 895.784 469.135
71 0 75.1395 15.571 1170 111.386 896.475 469.547
72 0 77.1566 15.0732 1163 113.604 894.762 466.054
73 0 79.1695 15.7384 1246 112.337 895.31 465.197
74 0 81.1142 15.1022 1225 114.451 895.836 463.117
75 0 85.3548 15.1485 1293 113.028 895.91 464.005
76 0 87.1268 15.4028 1342 112.722 894.06 464.186
77 0 92.2792 15.6048 1440 111.935 893.925 459.666
78 1 49.182 11.4473 563 110.094 894.703 482.993
79 0 50.1299 10.4528 524 111.616 896.454 483.126
80 0 53.0271 12.1824 646 109.802 895.203 481.385
81 0 53.1005 15.4424 820 102.943 894.946 480.923
82 0 53.1144 13.2356 703 109.191 894.869 479.718
83 0 57.1076 13.5884 776 106.354 895.825 479.813
84 0 55.216 12.3515 682 109.198 895.733 478.617
85 0 59.1089 13.8389 818 106.714 896.143 476.659
86 0 62.1245 14.9216 927 105.271 896.045 473.963
87 0 65.2319 14.5788 951 105.837 895.291 473.719
88 0 68.3543 14.1176 965 105.242 895.481 474.192
89 0 67.1568 14.1311 949 108.027 895.055 470.093
90 0 71.0996 14.768 1050 106.368 894.216 469.833
91 0 71.1345 14.0719 1001 109.173 894.736 467.539
92 0 77.2583 15.377 1188 105.031 894.359 467.338
93 0 79.2261 15.8029 1252 105.355 895.156 468.085
94 1 43.0603 11.2633 485 106.371 895.476 484.627
95 0 43.1243 11.7799 508 108.539 896.089 481.461
96 0 47.11 11.8234 557 107.763 895.4 481.151
97 0 46.0814 12.1524 560 104.736 896.309 483.761
98 0 48.0582 12.7137 611 106.532 896.499 480.365
99 0 50.0362 12.9306 647 106.804 896.734 480.943
100 0 52.1121 14.1234 736 104.916 896.643 480.678
101 0 54.1661 13.3848 725 106.499 897.412 480.779
102 0 52.1472 12.5031 652 109.002 897.179 480.937
103 0 55.0396 11.9187 656 110.831 897.509 481.422
104 0 57.0168 13.4346 766 107.337 897.048 478.619
105 0 59.0419 13.6174 804 106.843 897.117 478.856
106 0 62.0906 14.7848 918 105.446 897.057 476.867
107 0 65.0293 13.3786 870 107.03 896.838 476.813
108 0 65.0715 13.8617 902 109.253 897.033 474.651
109 0 65.0715 13.9078 905 158.706 898.024 474.639
110 0 71.0696 14.0989 1002 108.449 896.803 473.503
111 0 74.0595 13.6782 1013 109.888 896.796 471.066
112 0 78.0564 13.6184 1063 108.77 896.937 471.852
113 1 40.0391 11.1141 445 107.728 897.079 488.553
114 0 42.0641 11.6727 491 107.862 897.126 488.069
115 0 45.0452 12.6984 572 103.663 897.505 488.874
116 0 45.0262 12.5038 563 105.302 895.943 487.895
117 0 47.0518 13.262 624 106.288 897.149 484.979
118 0 48.1486 13.1676 634 105.817 895.792 485.599
119 0 48.193 11.9727 577 111.243 895.068 483.305
120 0 52.1761 13.9336 727 105.506 895.004 482.769
121 0 53.1196 13.592 722 106.036 894.166 482.943
122 0 55.1583 14.1955 783 104.743 894.094 480.323
123 0 54.1141 12.9356 700 107.389 893.621 481.151
124 0 57.163 13.6627 781 105.333 893.072 480.544
125 0 60.1409 13.3187 801 105.366 893.774 478.629
126 0 62.1575 14.6081 908 103.312 893.544 476.752
127 0 63.117 13.7364 867 105.796 893.593 474.691
128 0 65.1295 14.1257 920 104.713 894.187 473.259
129 0 68.1076 12.9795 884 107.759 894.129 472.715
130 0 68.3158 13.4083 916 108.172 894.444 471.908
131 1 37.053 11.2002 415 105.13 895.024 488.19
132 0 39.2106 11.2214 440 104.968 895.22 488.491
133 0 40.0908 11.2994 453 103.245 895.863 489.046
134 0 41.078 12.6102 518 102.961 895.857 486.237
135 0 44.1421 13.0035 574 101.697 895.436 485.777
136 0 46.2356 11.874 549 102.583 896.056 485.636
137 0 45.1659 11.5574 522 103.854 895.782 484.385
138 0 46.1222 11.9899 553 103.676 896.179 483.993
139 0 46.1222 11.9682 552 146.283 895.176 483.953
140 0 49.1462 13.1037 644 100.708 896.224 484.702
141 0 50.2863 11.6732 587 103.55 896.746 484.629
142 0 52.2294 12.9812 678 103.792 895.428 483.173
143 0 53.154 13.4703 716 102.144 896.335 483.655
144 0 54.2463 13.3281 723 103.331 895.638 483.055
145 0 55.2397 12.4367 687 105.22 895.833 481.114
146 0 58.2387 14.6466 853 100.878 895.212 478.818
147 0 61.1942 13.9066 851 102.216 894.234 479.309
148 0 60.1126 13.325 801 104.823 892.8 478.152
149 0 64.1959 14.3467 921 101.25 893.187 478.381
150 0 66.093 13.0725 864 104.938 893.091 474.753
151 0 67.1396 13.956 937 102.971 893.24 473.813
152 1 34.0678 10.3617 353 103.833 893.3 491.47
153 0 37.0938 10.6487 395 101.443 892.342 491.278
154 0 37.2696 11.4839 428 102.904 893.974 488.334
155 0 39.312 11.1162 437 104.247 893.581 487.391
156 0 41.0885 11.9255 490 102.169 893.31 487.455
157 0 39.1524 11.4425 448 104.967 892.926 486.185
158 0 44.1335 13.074 577 100.218 893.645 483.738
159 0 44.3092 13.2478 587 103.572 894.262 482.693
160 0 46.1934 12.426 574 104.223 894.343 482.728
161 0 48.3182 14.3217 692 100.789 894.837 482.766
162 0 49.2844 14.8729 733 101.007 894.69 480.618
163 0 50.2833 13.2449 666 104.76 894.626 481.215
164 0 51.3185 14.1859 728 102.842 894.37 479.856
165 0 51.1932 12.9119 661 106.802 894.935 480.536
166 0 53.1036 13.3701 710 106.355 895.563 477.624
167 0 57.1241 13.5495 774 104.323 896.186 479.11
168 0 58.2036 13.2638 772 104.57 896.952 479.212
169 0 61.1159 15.2006 929 100.712 896.966 477.455
170 0 61.3144 12.917 792 107.205 896 477.077
171 0 63.1575 13.2526 837 106.454 896.108 476.149
172 0 66.072 14.6356 967 103.854 896.011 476.006
173 0 67.1482 13.4777 905 106.844 895.909 475.236
174 0 70.1279 14.3452 1006 105.626 895.564 473.975
175 1 35.169 10.35 364 105.679 895.028 492.223
176 0 36.1549 9.62524 348 107.33 894.753 491.845
177 0 41.1665 10.6397 438 104.477 894.906 492.153
178 0 42.1995 13.5784 573 101.723 894.417 489.778
179 0 42.1551 12.6912 535 105.742 893.927 488.688
180 0 45.0647 13.758 620 104.218 893.368 487.769
181 0 46.0741 13.7387 633 105.615 894.025 486.234
182 0 48.0273 14.7208 707 102.888 894.422 486.206
183 0 47.0742 13.7867 649 107.025 893.787 485.39
184 0 50.0222 14.8534 743 103.186 893.953 484.766
185 0 50.0224 13.9738 699 107.213 893.469 482.933
186 0 51.0699 13.7263 701 106.501 893.133 484.093
187 0 53.0298 14.275 757 112.694 893.527 480.913
188 0 55.0602 15.6738 863 103.93 893.638 480.579
189 0 55.067 13.8014 760 109.83 893.295 478.268
190 0 58.1144 14.0585 817 107.594 893.651 478.203
191 0 60.1332 14.7173 885 105.331 893.208 478.574
192 0 62.2255 14.2707 888 108.001 892.747 475.05
193 0 64.392 13.2936 856 108.102 893.057 476.555
194 0 67.2183 14.9513 1005 105.037 893.076 474.387
195 0 67.2802 14.0309 944 108.951 893.758 472.771
196 0 70.1127 15.0044 1052 106.914 894.228 472.253
197 1 36.1064 10.8845 393 107.812 895.27 488.583
198 0 36.245 12.112 439 108.264 895.681 487.795
199 0 36.0118 11.3296 408 110.809 895.958 487.654
200 0 40.0637 13.0292 522 106.347 894.682 487.759
201 0 39.0236 11.9927 468 111.043 895.036 487.536
202 0 41.065 12.7359 523 109.807 893.704 486.358
203 0 43.0811 13.9504 601 106.757 892.98 487.453
204 0 44.051 14.5286 640 107.022 893.488 487.383
205 0 44.062 13.8441 610 112.636 893.625 485.156
206 0 45.04 13.4769 607 114.405 893.474 485.85
207 0 46.1777 12.257 566 117.784 893.868 484.936
208 0 48.0596 14.1699 681 113.269 893.392 484.05
209 0 48.1117 12.9698 624 117.425 892.918 483.748
210 0 52.0661 13.9054 724 113.479 893.213 484.898
211 0 53.1139 14.2147 755 114.082 892.872 482.715
212 0 55.0749 14.5801 803 112.504 892.743 482.565
213 0 57.0701 14.964 854 111.238 892.134 482.28
214 0 56.0422 14.1501 793 115.985 891.995 479.955
215 0 62.2046 14.6452 911 112.39 892.276 478.123
216 0 62.2095 14.7244 916 162.138 893.3 478.107
217 0 63.1528 13.9661 882 115.331 890.378 477.434
218 0 66.1375 15.4829 1024 112.02 890.826 476.678
219 0 67.2744 14.1361 951 116.713 890.537 475.015
220 0 71.1062 14.4432 1027 115.176 891.256 473.207
221 1 41.1123 11.0916 456 113.656 892.145 488.967
222 0 40.1226 10.4679 420 115.681 892.5 488.679
223 0 39.059 10.9066 426 116.246 892.094 487.906
224 0 43.157 12.6747 547 111.905 892.249 486.656
225 0 44.0324 13.2402 583 109.612 893.043 486.599
226 0 45.0228 12.2604 552 113.214 892.79 485.203
227 0 46.0306 14.3383 660 109.07 893.564 483.402
228 0 46.0486 13.616 627 111.207 893.641 484.171
229 0 49.0827 14.7099 722 108.288 893.838 482.803
230 0 49.0832 13.0391 640 113.778 893.88 481.125
231 0 52.0203 13.7062 713 111.167 894.561 482.359
232 0 52.0894 13.6304 710 112.669 894.428 480.017
233 0 53.0463 14.2517 756 111.827 894.635 480.804
234 0 55.1012 13.0124 717 113.946 893.809 480.499
235 0 59.0256 13.7059 809 112.371 894.706 479.195
236 0 59.1076 14.8035 875 110.823 894.323 479.557
237 0 61.182 13.9584 854 114.813 894.348 477.21
238 0 64.0895 15.5876 999 110.322 894.221 478.368
239 0 63.0846 13.8386 873 117.119 894.253 477.953
240 0 67.1388 15.0732 1012 114.044 894.352 476.269
241 0 68.1133 14.0942 960 117.816 893.974 476.564
242 0 71.2244 15.2616 1087 114.69 892.807 475.601
243 1 37.062 10.9546 406 116.892 893.032 491.323
244 0 39.1022 11.3804 445 116.276 893.097 490.746
245 0 40.1894 11.6697 469 117.1 892.955 489.923
246 0 42.0624 12.5052 526 113.717 891.998 490.597
247 0 44.0674 12.7078 560 114.996 891.675 488.307
248 0 45.1768 12.4179 561 116.041 891.447 486.959
249 0 45.0989 12.7498 575 115.857 890.593 487.257
250 0 48.1121 12.8242 617 114.524 890.786 485.898
251 0 49.0786 14.4055 707 111.914 891.068 484.795
252 0 50.1044 12.7534 639 116.357 891.377 484.346
253 0 51.1026 13.9328 712 114.91 891.291 481.796
254 0 54.0908 14.1614 766 112.915 890.816 482.121
255 0 52.0475 13.3532 695 116.976 890.781 480.577
256 0 56.2825 13.5033 760 115.392 891.351 479.942
257 0 59.1473 14.9627 885 110.722 890.838 478.675
258 0 59.1313 14.9836 886 140.879 890.833 478.647
259 0 62.1003 13.8325 859 114.312 891.853 475.985
260 0 65.0998 14.762 961 111.835 892.071 475.377
261 0 67.0685 15.0443 1009 111.486 892.345 476.079
262 0 68.0605 14.0904 959 116.58 892.934 470.992
263 0 73.1338 16.0254 1172 110.84 894.067 470.938
264 0 75.0411 15.125 1135 113.941 893.958 469.21
265 1 40.1286 10.89 437 115.975 894.135 487.478
266 0 40.0772 11.8771 476 111.563 894.229 489.168
267 0 40.0731 11.8284 474 154.641 895.198 489.167
268 0 42.0428 12.2256 514 114.996 894.858 487.259
269 0 43.0824 13.9964 603 112.609 895.292 485.441
270 0 46.0713 13.1535 606 111.358 895.696 486.696
271 0 45.1786 12.3731 559 114.762 894.399 486.998
272 0 46.2241 12.4178 574 115.328 894.101 486.664
273 0 48.193 13.7364 662 112.754 894.648 485.769
274 0 50.0942 13.1752 660 112.871 894.838 485.87
275 0 52.1172 13.5848 708 111.592 894.287 484.84
276 0 53.1342 12.9672 689 111.9 893.965 486.238
277 0 55.2165 13.6191 752 109.4 894.298 484.879
278 0 56.1628 14.2977 803 108.394 893.621 484.58
279 0 59.0977 14.6876 868 106.715 892.578 483.123
280 0 60.1002 13.9434 838 108.488 891.969 480.932
281 0 63.099 14.8497 937 106.9 892.746 478.571
282 0 63.1575 15.6751 990 106.079 892.503 476.657
283 0 65.1185 13.7595 896 110.364 892.413 476.049
284 0 68.2639 15.777 1077 106.274 891.635 474.114
285 0 69.2552 13.6163 943 111.574 891.388 473.525
286 1 38.1605 8.25462 315 110.102 891.673 491.549
287 0 38.1605 8.12359 310 157.984 889.664 491.452
288 0 39.1725 10.6963 419 109.06 893.002 488.427
289 0 42.2161 12.7439 538 104.84 893.175 487.348
290 0 41.167 10.761 443 110.357 893.677 486.605
291 0 43.1282 11.6165 501 108.954 894.407 485.934
292 0 44.1136 13.3745 590 106.302 894.464 484.554
293 0 45.1166 12.5453 566 108.924 895.127 484.829
294 0 46.3059 13.3892 620 107.887 894.929 483.89
295 0 48.2878 14.0615 679 107.552 895.641 483.096
296 0 48.1778 12.6407 609 111.135 896.883 482.297
297 0 50.1045 13.5517 679 108.897 897.398 482.919
298 0 52.0585 13.5233 704 109.31 896.381 481.298
299 0 55.1402 14.6717 809 107.367 896.438 480.916
300 0 54.1249 12.8776 697 110.082 897.644 482.096
301 0 55.1575 13.8694 765 109.122 896.404 480.139
302 0 57.25 13.2926 761 108.965 896.838 480.456
303 0 61.2522 14.2199 871 104.901 897.51 480.862
304 0 62.1911 13.8927 864 106.867 896.117 479.976
305 0 66.2296 14.9329 989 104.022 894.819 477.374
306 0 66.1667 14.796 979 106.509 895.15 476.988
307 0 69.1698 14.7029 1017 106.405 894.474 476.88
308 0 73.1451 15.2573 1116 105.135 894.07 475.338
309 0 73.3174 14.7987 1085 107.65 893.835 474.161
310 0 77.1454 13.6366 1052 109.76 894.075 472.486
311 0 77.2778 13.6391 1054 110.208 893.525 471.578
312 1 44.1808 10.1402 448 107.333 893.627 490.397
313 0 45.0419 12.3441 556 101.281 893.173 490.02
314 0 46.0393 12.3156 567 102.407 892.903 487.78
315 0 47.111 11.6321 548 105.002 891.593 485.783
316 0 50.121 13.3876 671 101.511 891.301 486.003
317 0 51.0796 12.4316 635 104.238 890.819 484.205
318 0 51.019 13.3284 680 101.313 890.963 485.306
319 0 53.0843 12.3954 658 104.228 891.315 482.333
320 0 54.0784 14.0167 758 102.673 891.993 480.416
321 0 56.1371 13.1998 741 102.83 892.119 479.448
322 0 58.0994 14.0965 819 100.188 892.159 479.349
323 0 59.1608 13.9958 828 101.915 893.029 478.413
324 0 62.1455 13.5328 841 102.537 893.438 476.902
325 0 64.0756 14.2332 912 101.629 894.366 475.476
326 0 68.2094 13.2973 907 102.438 895.026 475.341
327 0 71.1958 13.9755 995 101.42 895.482 475.183
328 0 73.0907 14.4752 1058 102.324 896.01 471.734
329 1 36.0868 10.9181 394 100.84 894.868 490.594
330 0 39.0797 11.1823 437 99.9863 895.213 489.481
331 0 40.1476 11.657 468 99.594 894.524 489.942
332 0 41.209 13.8805 572 97.3584 894.76 488.633
333 0 44.1662 12.1813 538 97.7454 895.528 490.628
334 0 45.1991 13.9383 630 96.5905 896.551 489.04
335 0 46.1518 13.1306 606 98.9984 895.757 488.201
336 0 49.3392 13.3971 661 97.0106 896.106 489.238
337 0 49.1684 14.6436 720 97.0264 895.835 487.479
338 0 49.2868 12.762 629 99.5533 895.736 488.571
339 0 53.3022 14.4834 772 95.0531 895.057 486.736
340 0 55.2032 14.2021 784 93.963 895.074 487.189
341 0 56.2618 13.7749 775 94.231 893.748 486.24
342 0 54.195 12.8425 696 143.284 891.593 484.711
343 0 57.1725 13.1707 753 96.7769 891.485 483.303
344 0 60.0753 13.766 827 94.3688 891.473 482.588
345 0 61.1385 12.4308 760 96.1921 891.286 482.42
346 0 65.4302 13.0674 855 95.6456 891.993 479.764
347 0 67.2441 13.7559 925 93.9686 891.736 479.123
348 0 68.3463 12.4952 854 96.0398 892.388 478.096
349 0 72.4464 13.7895 999 95.5005 891.935 474.522
350 0 73.2243 13.5611 993 96.0644 891.705 472.512
351 1 37.0856 11.0825 411 92.2555 891.956 492.122
352 0 40.081 11.5267 462 92.8766 892.452 489.381
353 0 42.0782 12.4055 522 92.023 892.452 487.01
354 0 43.1285 12.0106 518 92.5232 892.817 486.71
355 0 47.0771 13.1486 619 88.8982 893.346 488.309
356 0 47.0771 13.1274 618 139.314 893.364 488.244
357 0 47.1394 12.9828 612 90.567 894.209 486.123
358 0 51.3012 13.8008 708 89.8164 895.391 483.282
359 0 54.179 14.2121 770 88.3338 895.952 483.843
360 0 55.1807 13.5917 750 90.5373 897.089 481.905
361 0 55.3253 13.1224 726 91.4105 897.971 481.788
362 0 61.3443 13.8236 848 88.3868 897.907 482.478
363 0 62.1143 12.638 785 91.5885 897.274 480.748
364 0 67.2427 15.1392 1018 86.3183 897.06 480.708
365 0 67.2427 15.0797 1014 148.444 897.056 480.688
366 0 70.3862 13.8379 974 89.2279 896.398 478.487
367 1 37.3616 11.7233 438 85.5068 896.011 497.094
368 0 36.11 10.6896 386 90.3834 896.272 495.58
369 0 38.3877 12.3737 475 88.979 895.139 492.787
370 0 39.2279 12.1852 478 88.5063 895.556 494.356
371 0 41.2707 13.1086 541 133.444 895.617 493.272
372 0 43.0939 13.459 580 89.2431 896.062 490.197
373 0 47.094 15.4584 728 83.2376 895.545 492.041
374 0 48.0922 12.8711 619 88.6672 894.737 487.987
375 0 47.0651 13.6619 643 89.2535 893.77 487.589
376 0 50.0945 13.235 663 88.7798 892.882 486.662
377 0 48.238 12.7907 617 91.6629 892.306 484.608
378 0 51.22 14.4865 742 89.7952 892.314 483.323
379 0 53.0765 13.9233 739 90.3045 890.675 482.865
380 0 56.1284 13.576 762 90.8399 892.05 480.642
381 0 56.1272 13.024 731 92.9699 891.38 479.661
382 0 57.251 13.5019 773 92.2911 891.554 477.314
383 0 60.1008 13.5938 817 92.131 892.677 477.179
384 0 61.2704 13.0895 802 94.1085 893.242 477.557
385 0 64.2101 13.5025 867 92.812 893.441 477.298
386 0 65.2051 13.1125 855 94.1123 893.588 475.195
387 0 67.2257 13.358 898 93.9187 894.325 474.055
388 0 68.2014 13.6507 931 94.7078 895.357 471.197
389 0 71.3815 13.0286 930 96.2882 896.09 469.057
390 0 75.2515 14.033 1056 94.4555 896.623 469.618
391 0 78.5118 14.6093 1147 94.8413 897.154 468.428
392 0 81.429 13.9754 1138 96.4974 897.496 467.206
393 1 42.3959 9.15184 388 96.8737 898.655 490.108
394 0 45.2804 12.4336 563 93.4068 898.06 487.529
395 0 47.1417 12.2397 577 92.8978 897.82 491.553
396 0 48.103 12.3277 593 94.683 897.73 490.916
397 0 47.1103 11.6111 547 137.514 897.74 490.148
398 0 52.0621 13.5991 708 96.7034 897.359 489.329
399 0 52.1248 13.3909 698 97.7407 897.532 489.314
400 0 53.0549 13.3635 709 97.8195 896.855 486.372
401 0 56.0907 13.7991 774 97.0904 895.943 484.005
402 0 58.1471 14.1881 825 96.7927 894.815 483.389
403 0 61.2512 14.3018 876 95.7386 894.733 483.387
404 0 60.1481 13.2839 799 98.8698 893.262 482.915
405 0 64.1552 13.9194 893 96.935 893.671 481.017
406 0 67.1562 14.5184 975 95.5005 892.718 479.961
407 0 68.395 14.6794 1004 96.6763 891.991 477.86
408 0 69.4043 14.0625 976 98.0809 891.914 474.863
409 0 73.3807 15.331 1125 95.1911 892.27 474.82
410 0 73.5074 13.0735 961 101.974 891.591 470.233
411 0 77.2754 14.8301 1146 98.6274 891.823 467.634
412 1 40.1299 13.6307 547 94.1828 892.762 488.512
413 0 39.1098 10.5089 411 99.438 893.294 488.319
414 0 44.1589 12.0248 531 96.7872 893.866 486.776
415 0 45.0424 11.4115 514 99.5681 895.759 486.21
416 0 46.0699 12.8717 593 97.0202 895.57 486.096
417 0 48.0136 13.4962 648 98.75 896.389 483.682
418 0 49.0599 12.8211 629 100.199 897.129 482.518
419 0 51.2237 14.2707 731 96.3899 898.936 483.14
420 0 51.1371 13.8451 708 99.7655 898.024 482.133
421 0 53.1605 13.2053 702 101.272 898.9 482.919
422 0 54.1068 14.2866 773 101.169 899.463 481.349
423 0 60.0804 15.4127 926 96.9708 899.787 482.646
424 0 62.0693 15.8532 984 97.812 899.381 481.475
425 0 65.2494 15.0193 980 99.4163 899.518 480.796
426 0 65.1489 14.8276 966 101.271 898.829 480.067
427 0 67.1817 14.2598 958 103.809 898.143 480.015
428 0 70.1467 15.6957 1101 102.076 898.262 479.168
429 0 73.0981 14.4737 1058 105.207 897.598 477.992
430 0 74.0894 14.2666 1057 107.495 897.02 477.261
431 0 79.2019 15.9213 1261 104.738 896.739 475.841
432 0 81.1375 16.7863 1362 103.645 896.776 472.15
433 0 82.2462 14.8335 1220 109.653 894.245 471.464
434 1 46.0098 12.5408 577 109.96 893.922 489.958
435 0 47.0925 11.8702 559 111.052 893.508 489.71
436 0 50.2278 13.0406 655 109.185 892.832 487.279
437 0 51.0768 13.4699 688 108.641 891.823 486.644
438 0 53.0981 12.9383 687 111.384 893.316 484.846
439 0 55.0654 16.0536 884 103.331 891.691 483.9
440 0 53.1869 13.0107 692 112.26 891.799 481.828
441 0 57.1787 14.5159 830 107.424 891.229 481.112
442 0 58.2337 14.0297 817 111.2 891.868 478.803
443 0 60.1942 13.689 824 111.444 891.621 476.393
444 0 65.2022 14.8615 969 107.576 893.095 478.388
445 0 64.1685 16.4723 1057 107.039 893.433 474.071
446 0 69.2311 14.7477 1021 109.525 893.806 476.185
447 0 70.1729 14.792 1038 111.061 894.849 475.483
448 0 73.1939 15.1925 1112 111.752 896.606 472.406
449 0 74.2077 14.1495 1050 115.865 897.333 472.33
450 0 77.0898 15.203 1172 114.436 898.486 470.828
451 0 80.1022 13.5577 1086 118.429 898.472 471.727
452 1 46.091 12.1933 562 114.605 899.452 488.744
453 0 46.073 11.6337 536 116.642 900.134 490.116
454 0 49.2319 11.5169 567 119.942 898.316 489.122
455 0 50.2566 12.2969 618 117.306 897.565 489.008
456 0 52.1083 13.2225 689 116.689 897.431 488.527
457 0 53.0477 12.9506 687 118.547 897.607 487.192
458 0 56.1047 12.4054 696 119.149 897.805 486.497
459 0 60.1878 13.6406 821 113.725 897.324 485.251
460 0 60.0903 13.746 826 114.63 896.507 484.403
461 0 63.1084 14.8475 937 112.561 895.995 482.864
462 0 63.1416 13.7785 870 115.982 894.512 481.764
463 0 68.2213 14.2038 969 112.713 893.625 480.125
464 0 68.1022 13.8615 944 115.074 893.159 476.708
465 1 37.1128 10.266 381 114.021 891.772 492.882
466 0 40.1359 11.2867 453 112.185 892.34 491.841
467 0 40.1348 10.0412 403 114.581 892.668 491.861
468 0 41.209 11.0898 457 113.254 892.948 489.328
469 0 44.1769 13.129 580 110.231 891.152 486.553
470 0 45.1354 12.4736 563 109.968 891.133 487.123
471 0 46.1425 13.4583 621 110.541 890.585 484.254
472 0 46.1308 13.3317 615 112.003 890.832 483.006
473 0 49.1312 13.7998 678 110.503 891.524 482.03
474 0 51.2038 13.7685 705 110.759 892.235 481.743
475 0 54.3643 15.065 819 108.753 893.065 481.046
476 0 53.2403 12.6972 676 115.891 894.256 479.954
477 0 56.1186 14.6297 821 109.921 895.393 479.393
478 0 58.2009 14.8451 864 107.938 897.088 479.473
479 0 59.1624 15.449 914 108.772 899.846 477.153
480 0 62.1617 13.851 861 110.879 899.384 479.829
481 0 64.1389 14.0632 902 111.312 900.539 479.282
482 0 65.086 14.0583 915 113.169 900.866 477.77
483 0 68.1162 15.0331 1024 111.542 900.226 478.027
484 0 71.2553 14.6094 1041 113.674 899.819 477.171
485 0 72.1865 13.6591 986 117.33 898.49 476.52
486 0 78.2135 15.7901 1235 109.655 898.57 476.308
487 0 79.3893 14.5989 1159 114.625 897.541 474.992
488 0 83.2382 14.9811 1247 113.512 896.981 473.426
489 1 44.1964 11.9693 529 114.367 896.522 492.076
490 0 45.1603 12.3781 559 112.569 895.669 493.19
491 0 47.1862 13.4573 635 112.186 894.298 489.961
492 0 48.3312 12.3729 598 114.179 893.488 488.176
493 0 50.1724 13.912 698 110.159 892.145 487.46
494 0 52.0218 14.1095 734 109.917 892.334 484.73
495 0 53.1436 13.266 705 113.315 891.959 484.013
496 0 56.0837 14.7636 828 108.588 891.499 483.99
497 0 55.2016 13.0974 723 114.173 891.444 481.75
498 0 56.1607 13.6751 768 112.984 890.803 479.581
499 0 59.1697 14.6697 868 111.229 891.386 477.554
500 0 61.1653 13.5534 829 114.06 891.54 476.331
501 0 63.279 15.5976 987 109.514 892.116 475.109
502 0 64.2572 13.8039 887 114.468 893.089 473.959
503 0 67.3174 14.4539 973 113.41 893.337 472.703
504 0 69.2644 15.8234 1096 111.272 895.048 471.823
505 0 70.1821 14.9611 1050 114.486 895.611 471.872
506 0 73.4651 15.4087 1132 114.095 896.516 468.154
507 0 76.3412 16.2167 1238 112.361 898.674 469.605
508 1 39.1191 12.6025 493 113.481 900.578 490.619
509 0 41.1234 10.2132 420 117.267 901.793 491.117
510 0 43.1585 12.8596 555 113.962 901.732 490.838
511 0 44.0224 12.2438 539 115.15 901.282 491.505
512 0 47.0958 12.9523 610 115.633 901.702 490.09
513 0 48.019 13.578 652 114.273 900.848 492.445
514 0 49.1096 15.5774 765 112.618 899.807 490.476
515 0 50.1341 13.2445 664 118.622 899.172 491.688
516 0 52.1042 14.8932 776 119.409 898.147 491.071
517 0 55.0913 14.2309 784 114.828 896.837 491.946
518 0 56.0865 14.228 798 114.432 895.4 490.711
519 0 57.0726 14.9809 855 112.218 894.33 488.814
520 0 59.107 14.0254 829 114.011 892.525 487.826
521 0 61.0381 13.3523 815 115.285 890.848 486.725
522 0 64.1451 14.3581 921 112.89 889.38 484.827
523 0 66.1652 14.887 985 113.062 888.785 481.698
524 0 66.1652 14.9474 989 156.552 887.802 481.686
525 0 71.1066 14.5134 1032 114.506 887.425 479.082
526 0 75.1072 14.8454 1115 114.091 886.695 474.644
527 0 78.1017 15.1725 1185 113.381 886.625 475.112
528 0 80.0964 15.0319 1204 114.893 885.569 472.604
529 1 41.0453 12.9369 531 113.578 885.525 489.395
530 0 43.1018 10.7188 462 113.253 886.24 492.052
531 0 45.0271 12.1927 549 112.29 886.144 489.335
532 0 47.0608 13.1107 617 110.919 886.627 487.775
533 0 50.0855 14.5751 730 106.418 888.433 488.118
534 0 51.107 14.2642 729 108.519 889.782 485.42
535 0 52.1425 13.3864 698 109.347 891.673 487.115
536 0 55.2236 13.8166 763 107.577 893.748 488.211
537 0 57.0906 13.2421 756 111.242 895.726 486.471
538 0 60.0561 13.3542 802 109.385 896.983 487.734
539 0 62.1397 13.9685 868 108.59 898.112 488.139
540 0 64.0893 13.6684 876 109.954 898.397 487.032
541 0 65.1482 13.7379 895 110.454 897.831 489.418
542 0 69.036 14.7459 1018 107.857 894.493 485.508
543 0 72.1208 14.7114 1061 107.257 893.074 485.297
544 0 76.0854 13.9186 1059 107.312 892.287 486.236
545 1 40.0445 11.9367 478 105.577 890.253 503.155
546 0 42.0825 12.4517 524 105.414 888.45 499.143
547 0 43.0797 10.4457 450 107.016 887.273 501.089
548 0 43.0797 10.4457 450 152.909 885.273 501.089
549 0 47.1529 13.8698 654 102.56 884.39 494.297
550 0 48.1152 12.5948 606 104.777 883.663 494.099
551 0 51.1826 14.2822 731 101.658 883.718 492.044
552 0 54.0575 14.2441 770 100.926 883.047 489.862
553 0 55.1302 12.8605 709 104.519 883.245 486.908
554 0 57.0771 14.6118 834 100.077 883.277 486.109
555 0 57.0223 13.8367 789 102.522 884.091 484.352
556 0 60.0336 13.3925 804 102.68 883.603 481.825
557 0 62.0748 13.3871 831 102.947 883.685 480.555
558 0 64.1184 14.2705 915 102.417 883.765 476.773
559 0 66.1176 13.7482 909 103.788 883.945 475.331
560 0 69.104 14.0079 968 103.14 884.507 473.358
561 1 33.0163 9.02586 298 106.97 885.201 488.446
562 0 37.0089 11.3486 420 101.648 887.26 489.971
563 0 39.0165 12.3281 481 101.304 889.586 488.798
564 0 40.0311 10.1421 406 103.732 891.527 491.084
565 0 40.1484 11.9058 478 103.684 894.515 488.322
566 0 41.0454 11.5969 476 104.826 896.693 490.349
567 0 43.118 12.7093 548 104.106 898.12 489.084
568 0 45.035 11.3245 510 105.002 898.974 492.378
569 0 47.0399 12.4363 585 103.795 898.588 491.672
570 0 48.0586 11.7149 563 106.444 897.972 492.693
571 0 49.0365 13.5817 666 103.324 896.818 492.054
572 0 50.0398 12.3502 618 106.571 894.429 492.328
573 0 53.0528 13.2321 702 104.477 894.852 492.738
574 0 57.0234 13.7663 785 102.632 894.261 493.411
575 0 58.0412 14.0418 815 103.439 893.108 490.569
576 0 61.0686 14.9995 916 101.94 891.507 489.136
577 0 61.0987 13.6828 836 105.629 889.163 488.434
578 0 66.0501 14.3527 948 104.322 887.666 484.932
579 0 70.1354 15.0423 1055 102.365 887.022 484.136
580 0 70.0757 14.1704 993 107.223 885.638 481.382
581 0 74.2558 14.8002 1099 105.742 885.349 479.741
582 0 74.2091 13.9471 1035 109.434 884.701 476.691
583 0 78.1428 14.9598 1169 105.494 883.88 473.931
584 1 37.1133 10.3197 383 107.684 884.444 494.496
585 0 40.0527 12.2339 490 106.127 884.739 492.778
586 0 41.0444 9.01464 370 111.87 884.965 492.276
587 0 42.0203 11.2803 474 108.93 885.084 490.086
588 0 43.0245 10.1803 438 110.537 886.491 489.934
589 0 46.0525 12.6812 584 106.856 887.098 487.798
590 0 48.0599 12.8589 618 105.984 888.002 485.838
591 0 50.0866 13.8959 696 104.3 888.661 485.583
592 0 50.1136 14.8064 742 102.546 889.388 486.732
593 0 53.1774 14.4798 770 106.221 892.582 486.588
594 0 56.097 14.1362 793 107.945 895.174 486.29
595 0 58.1555 15.0115 873 106.158 896.635 485.81
596 0 59.1228 13.7172 811 111.666 898.224 485.012
597 0 61.1672 13.2751 812 114.143 897.225 486.091
598 0 64.0894 14.589 935 112.463 897.818 486.892
599 0 66.1874 14.3079 947 114.81 897.077 484.08
600 0 70.1215 14.3038 1003 114.771 896.258 485.876
601 0 74.1964 14.4347 1071 116.195 893.423 486.917
602 0 77.4129 15.4625 1197 113.677 893.792 486.607
603 0 81.33 15.8736 1291 113.61 892.557 487.616
604 0 83.3601 14.8392 1237 114.03 890.463 484.683
605 0 87.2609 15.1156 1319 113.442 888.607 484.162
606 0 89.3455 14.9196 1333 114.396 887.367 485.289
607 0 92.1724 15.4602 1425 114.808 886.222 481.547
608 0 96.384 16.1645 1558 112.205 885.066 482.658
609 0 101.257 15.8508 1605 113.416 883.602 479.323
610 0 101.218 14.6022 1478 119.626 883.28 476.718
611 0 107.257 15.4489 1657 118.043 882.206 474.454
612 0 110.225 16.421 1810 117.124 881.993 471.539
613 0 116.221 19.5146 2268 110.985 881.388 471.567
614 0 117.198 16.519 1936 120.07 881.496 469.178
615 0 122.221 18.041 2205 114.373 881.088 466.269
616 0 123.31 16.2274 2001 122.235 880.547 461.941
617 1 59.1745 11.8801 703 126.044 882.289 494.014
618 0 59.1206 11.9417 706 126.64 881.854 493.347
619 0 61.1145 11.8957 727 127.927 882.491 491.527
620 0 62.2185 12.9544 806 126.29 882.674 490.356
621 0 65.3565 14.0001 915 125.287 883.846 488.807
622 0 68.219 15.333 1046 122.327 884.793 487.124
623 0 69.2635 14.7552 1022 123.879 885.875 489.498
624 0 69.1786 14.1662 980 126.148 887.412 487.383
625 0 72.3116 15.2119 1100 123.825 887.797 488.009
626 0 75.3646 15.1795 1144 123.267 887.678 487.944
627 0 75.3826 16.2372 1224 120.449 888.302 487.989
628 0 77.5044 14.9669 1160 124.736 887.723 486.337
629 0 80.4406 15.7508 1267 121.222 887.874 487.861
630 0 82.6624 14.8798 1230 122.515 885.86 489.119
631 0 82.4991 15.1032 1246 123.386 885.892 490.025
632 0 86.3551 14.9962 1295 120.059 884.93 491.171
633 0 87.5541 15.5332 1360 119.265 883.599 489.279
634 0 89.4483 14.5671 1303 121.342 883.628 489.993
635 0 90.5996 14.8014 1341 121.162 883.6 488.167
636 0 93.3243 15.7087 1466 117.555 880.598 487.7
637 0 93.315 14.6707 1369 121.307 879.762 486.518
638 0 94.3592 15.229 1437 119.365 876.933 484.394
639 0 96.7797 15.7781 1527 116.226 876.312 484.674
640 0 96.5908 14.5252 1403 120.226 876.331 480.76
641 0 98.4135 16.1462 1589 114.888 876.033 479.526
642 0 99.4274 15.5289 1544 116.55 876.409 475.772
643 0 101.609 16.0715 1633 113.614 876.359 473.173
644 0 101.546 14.624 1485 118.691 876.538 472.8
645 0 104.712 14.602 1529 117.769 877.402 471.335
646 0 105.451 15.0307 1585 116.502 878.104 470.415
647 0 104.432 15.9242 1663 113.969 879.187 469.768
648 0 108.617 14.2704 1550 115.87 879.995 469.916
649 0 106.525 13.4804 1436 119.136 880.756 467.974
650 0 108.594 14.7798 1605 115.751 882.219 465.855
651 0 109.411 13.7555 1505 117.639 884.597 466.168
652 0 112.675 14.5818 1643 114.013 885.714 467.111
653 0 113.552 13.888 1577 114.464 887.115 467.071
654 0 113.527 13.6179 1546 115.371 888.602 467.459
655 0 115.513 14.3707 1660 113.181 889.843 466.546
656 0 116.471 15.6777 1826 110.494 890.107 466.329
657 0 116.53 13.7646 1604 113.668 890.024 467.301
658 0 118.728 13.3414 1584 114.479 889.804 469.275
659 0 121.652 15.3717 1870 109.796 889.301 468.006
