time division length width area intensity CMx CMy
0 0 39.083 13.1003 512 116.164 1344.38 484.945
1 0 38.1217 12.8273 489 118.91 1344.27 485.211
2 0 41.0919 14.7961 608 111.092 1344.62 484.859
3 0 42.0348 14.488 609 109.56 1343.95 485.077
4 0 40.1261 14.8283 595 110.687 1343.6 483.013
5 0 41.3466 14.2212 588 112.524 1342.85 484.536
6 0 42.1391 15.4489 651 110.598 1342.58 482.038
7 0 42.1114 14.1767 597 115.38 1341.69 481.961
8 0 44.1497 13.9752 617 113.483 1342.21 482.149
9 0 45.1116 14.3644 648 111.954 1342.74 482.389
10 0 44.149 13.8848 613 112.463 1342.71 480.734
11 0 47.1688 14.5859 688 111.182 1342.67 480.727
12 0 47.1337 15.9971 754 109.16 1343.21 481.375
13 0 47.1975 14.344 677 113.845 1343.41 479.151
14 0 53.2391 16.1723 861 105.053 1344.06 480.533
15 0 52.1612 16.4106 856 107.287 1342.63 479.231
16 0 52.1398 15.0557 785 110.284 1342.78 479.415
17 0 53.2599 15.7905 841 109.595 1343.22 477.457
18 0 53.2138 14.0001 745 114.094 1343.14 478.365
19 0 54.1171 14.561 788 113.476 1343.78 478.26
20 0 58.113 17.0014 988 107.295 1343.13 476.314
21 0 60.0846 14.9123 896 110.674 1342.87 475.462
22 0 62.2626 15.9807 995 107.227 1343.32 476.21
23 0 63.1356 16.0448 1013 107.183 1343.35 474.62
24 0 65.1387 17.3937 1133 104.859 1343.55 474.241
25 1 33.0272 11.7176 387 110.966 1345.48 489.214
26 0 35.0267 11.5911 406 113.884 1346.75 488.025
27 0 36.0165 10.634 383 114.684 1347.63 487.162
28 0 37.0938 12.5897 467 112.636 1347.35 485.527
29 0 39.0289 12.068 471 110.975 1346.03 486.157
30 0 39.0665 11.2372 439 112.565 1346.41 486.075
31 0 42.0755 12.9054 543 110.006 1345.89 483.895
32 0 41.0582 12.9329 531 110.721 1345.56 484.324
33 0 44.0618 13.6853 603 107.313 1346.96 483.537
34 0 45.0507 14.2728 643 107.566 1346.86 481.132
35 0 47.0229 16.056 755 105.666 1346.55 481.11
36 0 47.0229 16.0773 756 140.688 1346.56 481.127
37 0 51.1325 14.6482 749 107.35 1347.43 479.083
38 0 52.0853 15.4362 804 104.878 1346.88 479.821
39 0 52.0853 15.4746 806 145.54 1345.88 479.873
40 0 53.164 14.8032 787 109.132 1347.35 477.695
41 0 57.2357 16.5107 945 104.366 1346.74 474.658
42 0 58.1065 15.6781 911 105.942 1348.08 474.359
43 0 62.1187 17.3056 1075 100.941 1347.39 475.994
44 0 63.196 16.4567 1040 103.136 1347.21 473.609
45 0 66.0716 16.24 1073 103.104 1346.67 474.442
46 0 67.1897 17.3092 1163 102.359 1347.45 472.365
47 0 70.0963 16.8625 1182 103.616 1347.55 471.412
48 0 72.1802 17.0545 1231 104.013 1347.31 471.476
49 0 73.1524 15.2558 1116 108.155 1347 470.211
50 0 77.1574 17.4578 1347 102.113 1348.16 469.871
51 0 78.1238 16.1154 1259 106.397 1347.66 469.199
52 0 82.2266 17.0991 1406 103.275 1347.97 468.817
53 1 44.1014 10.7706 475 106.867 1348.32 488.312
54 0 46.0743 11.3512 523 109.417 1348.09 484.849
55 0 46.1472 12.6335 583 109.184 1348.54 484.118
56 0 49.1106 13.5205 664 106.693 1347.44 483.691
57 0 50.056 14.1442 708 106.883 1347.72 482.867
58 0 51.0696 14.5879 745 107.42 1347.43 481.478
59 0 51.1339 13.8264 707 110.004 1347.92 481.799
60 0 55.1504 17.2619 952 102.586 1348.02 479.917
61 0 58.189 16.6526 969 103.472 1348.38 477.701
62 0 57.0846 15.9763 912 105.184 1348.85 476.371
63 0 61.2102 15.847 970 105.105 1349.42 476.219
64 0 63.1468 16.8338 1063 102.874 1349.78 475.777
65 0 63.1018 15.0233 948 106.822 1350.52 474.259
66 0 67.1623 16.2442 1091 102.306 1351.14 473.6
67 0 68.1768 16.1492 1101 103.493 1351.45 470.944
68 0 72.1148 17.5554 1266 100.336 1351.55 468.265
69 0 71.1096 17.691 1258 153.141 1351.54 468.188
70 0 77.1667 16.2635 1255 103.857 1350.79 467.727
71 0 78.1275 16.4603 1286 105.258 1351.35 466.859
72 0 81.1676 16.854 1368 105.891 1349.54 463.844
73 0 86.149 17.1099 1474 103.057 1350.21 466.884
74 0 89.1295 17.3456 1546 104.536 1350.64 461.827
75 0 90.2758 16.0951 1453 108.159 1350.91 461.624
76 1 48.1496 13.2919 640 107.953 1349.23 482.389
77 0 50.1496 14.377 721 105.87 1349.25 481.836
78 0 53.0951 14.5776 774 104.488 1349.44 481.205
79 0 53.146 15.2787 812 105.315 1350.95 480.181
80 0 56.1775 16.2876 915 102.487 1349.97 481.28
81 0 58.1918 15.8785 924 103.305 1350 479.262
82 0 59.122 13.3622 790 110.037 1349.92 477.804
83 0 61.1032 16.3494 999 103.411 1350.6 476.282
84 0 64.0846 15.0582 965 104.01 1350.5 475.215
85 0 64.1311 15.3592 985 104.308 1350.84 475.187
86 0 68.2299 15.609 1065 104.073 1350.73 473.164
87 0 71.1012 14.8239 1054 106.276 1349.95 471.667
88 0 73.203 15.3409 1123 104.728 1350.11 470.907
89 0 77.312 16.4011 1268 102.09 1349.6 470.059
90 0 78.2497 16.8691 1320 101.978 1348.76 469.382
91 0 82.0908 19.8926 1633 97.2174 1349.47 464.68
92 0 82.2077 14.8405 1220 107.219 1348.86 464.356
93 0 87.3478 18.8328 1645 100.455 1349.82 462.353
94 0 90.5241 15.4765 1401 105.867 1350.27 461.842
95 1 48.2075 13.3797 645 102.299 1350.48 481.313
96 0 50.1343 13.4638 675 102.877 1350.23 479.942
97 0 52.1172 15.5611 811 96.3736 1351.68 481.121
98 0 53.0551 14.1363 750 99.656 1351.87 480.052
99 0 56.1246 14.2362 799 98.6033 1351.72 479.871
100 0 54.1618 13.7551 745 101.569 1351.19 478.89
101 0 59.0672 14.9322 882 99.1088 1351.63 477.356
102 0 59.1792 14.4645 856 99.8259 1351.41 476.305
103 0 62.1306 14.5017 901 100.05 1351.67 475.105
104 0 65.0811 15.1811 988 96.6943 1351.35 474.639
105 0 68.1657 15.4476 1053 96.6078 1351.46 472.746
106 0 70.0549 16.0588 1125 96.6302 1351.63 471.736
107 0 73.2013 14.7812 1082 98.1627 1351.53 471.005
108 0 74.1332 14.6358 1085 100.065 1351.5 470.399
109 0 74.1332 14.6088 1083 148.645 1352.51 470.161
110 0 79.092 15.1596 1199 100.589 1351.15 466.304
111 0 82.1597 15.5064 1274 100.151 1351.06 463.715
112 0 85.2811 15.6072 1331 99.2983 1351.17 464.701
113 0 88.1548 16.3576 1442 98.9383 1351.32 463.521
114 0 90.187 14.9689 1350 102.151 1351.16 461.91
115 0 94.103 16.4076 1544 98.4929 1351.77 462.78
116 1 47.109 9.9981 471 98.8684 1350.66 486.83
117 0 49.2043 12.9257 636 96.489 1351.88 484.549
118 0 50.0819 13.6377 683 94.7277 1351.73 483.223
119 0 54.0967 12.5886 681 95.0646 1351.69 482.461
120 0 55.1313 13.622 751 95.3316 1350.53 480.326
121 0 57.1126 12.9919 742 95.8154 1349.84 480.551
122 0 58.1653 13.2381 770 95.0831 1349.85 478.891
123 0 59.2146 13.6115 806 95.0409 1349.32 477.828
124 0 61.2207 13.5575 830 96.2024 1348.93 475.508
125 0 63.2704 13.9876 885 95.6158 1349.53 473.95
126 0 66.1714 15.4447 1022 92.5978 1349.47 474.332
127 0 69.3491 15.4724 1073 92.4772 1348.97 473.153
128 0 70.2318 14.3952 1011 95.5529 1349.36 469.978
129 0 74.3875 13.5103 1005 98.0169 1349.54 469.26
130 0 76.2952 14.2604 1088 97.0671 1350.11 467.829
131 0 78.2273 13.1028 1025 99.3707 1351.2 468.714
132 0 82.2769 13.7706 1133 98.9126 1351.02 466.425
133 0 84.229 13.487 1136 100.143 1351.58 462.955
134 0 88.2343 14.6542 1293 96.8507 1351.74 463.37
135 1 48.0953 11.997 577 95.6794 1351.99 481.596
136 0 50.0923 10.9198 547 94.3035 1351.95 484.976
137 0 52.1284 11.8745 619 96.8433 1351.98 482.021
138 0 52.1371 11.5081 600 97.6333 1352.23 481.69
139 0 52.1371 11.5273 601 137.278 1354.22 481.749
140 0 52.1371 11.5657 603 136.62 1356.24 481.765
141 0 57.2184 12.9678 742 98.0957 1351.42 479.604
142 0 61.219 15.1424 927 93.4617 1350.42 479.507
143 0 63.2893 14.8366 939 93.8339 1351.27 479.062
144 0 63.2333 12.9995 822 98.399 1350.24 477.848
145 0 65.2131 13.2335 863 98.6674 1350.63 476.341
146 0 65.2131 13.1875 860 141.107 1350.63 476.324
147 0 71.2837 15.7399 1122 93.951 1350.25 473.478
148 0 73.1309 14.5356 1063 96.9821 1349.23 472.645
149 0 74.2252 14.2 1054 97.8292 1348.88 471.558
150 0 78.3229 17.4151 1364 92.4216 1348.79 468.95
151 0 79.3107 14.4243 1144 98.3619 1348.99 467.198
152 0 82.3944 14.0908 1161 99.1163 1348.97 466.973
153 0 83.3273 15.7811 1315 97.057 1348.01 463.93
154 0 83.3273 15.6491 1304 148.295 1346.02 463.886
155 0 91.4903 14.7775 1352 100.044 1348.93 461.693
156 0 91.4135 14.2102 1299 102.499 1348.48 459.935
157 1 53.1546 9.42534 501 102.661 1348 480.401
158 0 54.3928 11.0309 600 102.105 1348.79 477.962
159 0 57.2278 12.3367 706 100.208 1349.51 476.14
160 0 60.2778 13.3217 803 95.9352 1349.57 477.655
161 0 62.2447 15.3105 953 94.5803 1350.4 473.386
162 0 64.4281 12.5566 809 98.3659 1350.3 474.857
163 0 65.5112 12.578 824 100.603 1350.24 472.589
164 0 69.4998 14.2303 989 96.1132 1349.87 472.981
165 0 72.4331 16.2909 1180 91.4932 1350.46 472.606
166 0 70.8964 13.5409 960 99.0771 1349.95 469.684
167 0 75.4558 14.9227 1126 94.738 1350.74 470.015
168 0 78.6555 16.3116 1283 92.1668 1351.64 468.198
169 0 79.6302 15.1199 1204 94.5166 1351.37 467.081
170 0 80.6791 15.6546 1263 96.004 1350.44 464.066
171 0 82.7085 15.6332 1293 95.5623 1350.47 463.913
172 0 85.7102 15.1091 1295 96.4378 1350.36 463.548
173 0 87.8175 13.8697 1218 99.4475 1350.16 462.807
174 0 89.8786 14.6086 1313 98.3382 1349.84 462.633
175 0 93.627 15.7967 1479 96.449 1349.33 460.141
176 0 97.651 16.2825 1590 96.3377 1348.85 458.589
177 0 100.678 18.1172 1824 93.0938 1349.19 457.414
178 0 104.675 17.1196 1792 95.6998 1348.73 455.156
179 0 106.472 16.3047 1736 98.0461 1348.48 454.931
180 0 109.835 15.2957 1680 101.26 1347.72 453.102
181 0 112.653 18.3661 2069 96.1392 1347.68 448.305
182 0 115.521 16.0058 1849 101.218 1347.92 446.929
183 0 120.587 15.6734 1890 101.677 1347.23 447.29
184 0 122.611 15.276 1873 102.495 1347.56 443.195
185 0 130.501 17.5708 2293 97.8016 1347.13 442.943
186 0 134.642 15.5078 2088 101.999 1346.74 440.503
187 0 137.275 17.2574 2369 104.745 1347.24 441.206
188 0 140.371 17.2756 2425 100.84 1347.4 435.308
189 0 144.363 16.2992 2353 103.19 1347.16 432.468
190 1 76.3578 10.8175 826 102.386 1347.99 464.554
191 0 77.252 12.3362 953 101.256 1347.68 462.761
192 0 80.2395 12.8864 1034 101.319 1347.39 462.171
193 0 81.2706 15.9344 1295 94.4154 1347.67 464.302
194 0 84.2763 14.2745 1203 99.9643 1347.53 460.685
195 0 90.453 15.4224 1395 95.7706 1348.05 462.626
196 0 92.398 14.5133 1341 99.6182 1348.3 459.21
197 0 95.2478 14.7615 1406 99.4523 1348.71 457.098
198 0 97.4362 14.5121 1414 100.458 1349.1 456.554
199 0 101.279 15.1067 1530 98.2608 1349.35 455.384
200 0 105.341 13.9737 1472 100.632 1348.13 452.183
201 0 105.296 14.0461 1479 101.844 1348.48 448.952
202 0 111.339 14.8734 1656 98.7482 1348.04 450.264
203 0 114.368 14.0774 1610 101.041 1347.19 448.309
204 0 117.527 14.4563 1699 102.148 1347.68 444.471
205 0 121.111 15.2753 1850 102.178 1347.55 442.312
206 0 124.419 15.0137 1868 102.419 1347.36 438.197
207 0 132.354 15.5417 2057 100.223 1347.82 440.114
208 0 135.367 16.3408 2212 98.7961 1347.44 435.759
209 0 139.622 15.3558 2144 101.479 1347.05 438.233
210 0 142.499 16.9685 2418 100.103 1347.63 430.227
211 0 149.43 16.7704 2506 99.9621 1347.43 430.828
212 0 152.387 15.9397 2429 101.169 1347.36 430.874
213 0 159.4 14.5169 2314 102.341 1347.05 431.706
214 0 163.486 16.3011 2665 99.7227 1347.04 425.048
215 0 168.674 16.3689 2761 99.8863 1347.35 419.975
216 0 168.674 16.3274 2754 157.883 1348.37 420.168
217 1 148.411 8.11936 1205 103.67 1346.04 450.598
218 0 149.416 11.1032 1659 169.855 1342.89 436.678
219 0 150.625 9.52032 1434 103.427 1345.76 445.126
220 0 151.618 10.3682 1572 101.139 1346.6 445.81
221 0 149.449 12.9141 1930 99.9896 1346.68 436.683
222 0 154.469 13.6014 2101 100.753 1346.85 431.595
223 0 160.525 17.0316 2734 94.2937 1346.55 428.064
224 0 162.5 14.7015 2389 98.4751 1346.46 424.175
225 0 168.482 14.3101 2411 98.1593 1347.06 423.024
226 0 175.391 16.8367 2953 93.8659 1346.89 416.713
227 0 181.442 16.2532 2949 94.2876 1347.96 417.105
228 0 186.651 14.9905 2798 96.4478 1347.92 410.751
229 0 193.543 17.8875 3462 91.4544 1348.15 409.54
230 0 193.51 16.4798 3189 95.1126 1348.04 410.244
231 0 196.364 16.3014 3201 96.6398 1348.67 408.213
232 0 199.526 15.186 3030 98.6937 1348.69 406.959
233 0 205.546 16.3175 3354 97.0668 1348.88 405.154
234 1 151.263 12.3229 1864 102.298 1347.84 429.232
235 0 157.703 13.0308 2055 100.994 1348.54 429.571
236 0 160.758 13.9713 2246 100.996 1348.27 425.329
237 0 166.567 15.5013 2582 98.9551 1348.36 421.854
238 1 65.2199 12.1435 792 91.9987 1348.31 473.352
239 0 65.3478 13.6347 891 90.5612 1348.51 471.753
240 0 66.2972 11.8406 785 94.2828 1348.91 472.15
241 0 66.1848 13.1148 868 93.5864 1348.45 472.838
242 0 70.1751 13.0531 916 92.7183 1348.46 473.967
243 0 69.1173 14.8733 1028 92.1897 1348.74 475.226
244 0 70.1586 13.0704 917 95.0316 1349.62 474.229
245 0 68.1258 13.7099 934 97.6906 1349.75 474.088
246 0 70.2495 14.1923 997 98.1765 1347.83 473.548
247 0 72.2474 13.8413 1000 95.557 1347.88 473.305
248 0 73.1927 13.7855 1009 95.2834 1347.62 473.612
249 0 73.1108 13.1718 963 100.066 1347.05 471.266
250 0 75.0923 13.0506 980 99.2765 1347.2 469.456
251 0 78.142 13.8978 1086 96.2643 1347.46 468.577
252 0 79.2522 13.2488 1050 97.3581 1347.61 466.78
253 0 81.3452 13.3628 1087 95.6918 1346.77 465.345
254 0 83.1339 13.9534 1160 93.2181 1346.68 467.456
255 0 86.0712 13.6515 1175 92.3523 1346.84 466.335
256 0 89.1158 14.9581 1333 90.5461 1346.86 460.617
257 0 91.1773 13.1941 1203 92.3084 1346.19 461.692
258 1 48.0542 8.74013 420 133.743 1345.69 483.586
259 0 49.0923 11.896 584 86.1284 1347.17 482.295
260 0 50.1007 12.5747 630 85.2889 1347.53 481.195
261 0 50.0801 11.9209 597 86.2178 1347.99 481.352
262 0 49.1106 11.4843 564 87.9273 1348.72 481.729
263 0 49.1974 11.0372 543 89.7606 1350.39 480.293
264 0 50.063 10.5667 529 89.7032 1350.19 481.909
265 0 49.1704 11.5517 568 89.0775 1350.54 480.87
266 0 52.1157 13.0095 678 84.9484 1350.81 482.894
267 0 52.1157 13.1246 684 122.694 1350.85 482.848
268 0 50.2448 11.5634 581 88.8933 1350.16 482.874
269 0 52.3334 12.9554 678 86.7743 1350.28 481.767
270 0 52.2389 13.0363 681 86.768 1350.21 482.367
271 0 49.26 12.5051 616 89.6185 1349.9 483.086
272 0 50.3912 12.7602 643 88.6454 1349.46 483.02
273 0 50.2592 12.6544 636 88.5928 1350.05 483.77
274 0 49.3061 12.5137 617 89.1313 1350.03 483.929
