time division length width area intensity CMx CMy
0 0 42.2402 14.4412 610 116.246 514.992 499.318
1 0 44.1665 14.9887 662 114.34 515.796 499.048
2 0 43.2442 14.2216 615 120.563 517.132 498.237
3 0 44.2077 15.6534 692 115.587 517.293 496.574
4 0 45.2011 15.5306 702 116.261 517.39 497.91
5 0 45.2266 15.4555 699 118.338 516.512 497.469
6 0 48.3271 16.0572 776 116.18 516.323 498.149
7 0 48.2203 15.0974 728 118.316 516.755 495.978
8 0 48.2608 15.4991 748 119.778 515.992 496.106
9 0 52.2864 15.4725 809 117.554 516.684 494.89
10 0 52.1937 15.4425 806 119.862 516.304 494.996
11 0 53.2289 14.6725 781 121.136 516.557 495.166
12 0 54.2519 14.5617 790 122.019 517.396 493.459
13 0 57.2661 16.9385 970 112.977 517.266 493.7
14 0 58.2002 15.567 906 119.818 517.434 491.407
15 0 60.3297 15.4153 930 117.986 516.347 491.919
16 0 62.191 16.3689 1018 113.979 516.574 491.297
17 0 62.3416 16.2171 1011 116.441 516.428 490.084
18 0 62.2247 15.7172 978 119.337 516.419 490.049
19 0 66.1071 15.6564 1035 117.692 516.736 488.583
20 0 68.2134 15.9499 1088 116.95 516.122 487.401
21 1 35.018 11.9082 417 121.906 517.995 503.372
22 0 36.0325 12.4887 450 121.676 519.54 501.66
23 0 38.0256 12.1497 462 122.13 519.219 501.939
24 0 39.1314 12.0619 472 121.299 519.496 502.244
25 0 40.1015 12.219 490 120.504 519.473 501.329
26 0 40.0526 12.2838 492 123.152 520.287 500.596
27 0 40.146 12.7285 511 124.07 520.295 500.149
28 0 45.116 14.3852 649 118.063 520.276 498.263
29 0 45.08 14.5519 656 116.627 519.101 499.64
30 0 44.1143 13.805 609 120.182 518.652 496.998
31 0 46.089 13.973 644 119.43 518.677 496.014
32 0 50.1291 15.2805 766 113.569 518.324 496.523
33 0 50.1404 15.0777 756 115.39 519.116 494.824
34 0 52.1314 14.2141 741 118.513 518.87 493.698
35 0 54.235 14.6953 797 117.509 518.934 493.586
36 0 55.104 14.155 780 119.622 519.247 493.776
37 0 56.145 13.5186 759 121.561 519.343 492.535
38 0 60.1286 14.9679 900 118.584 519.682 491.406
39 0 63.1788 15.749 995 115.236 519.871 492.056
40 0 63.2271 14.8829 941 118.569 520.385 489.589
41 0 65.1119 14.6671 955 120.041 520.139 488.524
42 0 66.3321 13.5379 898 121.979 520.484 488.067
43 0 71.1858 15.6773 1116 116.062 520.315 487.807
44 0 73.1824 16.3427 1196 115.508 520.191 486.733
45 0 75.3392 16.5784 1249 115.088 520.705 485.222
46 0 78.134 15.9086 1243 116.601 521.134 484.632
47 0 81.1696 14.8701 1207 120.161 521.425 483.123
48 0 81.2466 15.0652 1224 121.873 521.22 480.596
49 1 41.1069 12.1391 499 119.253 521.082 502.006
50 0 45.0676 12.1817 549 114.743 520.133 501.871
51 0 45.1281 12.3205 556 117.741 520.567 500.743
52 0 45.0916 12.1974 550 118.122 520.2 500.602
53 0 48.0553 12.8394 617 114.835 520.522 499.071
54 0 51.1586 13.507 691 112.35 520.718 498.968
55 0 50.1969 14.0845 707 112.525 520.917 498.461
56 0 53.1634 15.0668 801 110.981 520.69 497.549
57 0 55.1509 15.0496 830 112.113 520.952 496.018
58 0 55.2139 14.4167 796 115.354 520.32 494.83
59 0 55.0929 13.9401 768 117.695 520.546 493.527
60 0 58.078 14.2223 826 115.942 521.139 493.489
61 0 62.1566 15.2196 946 112.665 521.186 492.008
62 0 61.0665 14.1485 864 116.317 521.361 489.462
63 0 63.1509 14.7108 929 117.888 522.186 488.868
64 0 68.0956 15.9335 1085 114.648 521.567 488.45
65 0 69.0635 16.1156 1113 115.056 521.757 487.485
66 0 71.0924 16.9216 1203 111.766 522.075 486.825
67 0 73.172 15.7301 1151 116.644 522.354 483.304
68 0 76.0821 16.2982 1240 115.726 522.373 483.073
69 0 79.165 15.6635 1240 118.173 521.342 483.106
70 0 81.0556 16.1371 1308 117.11 521.689 481.961
71 0 84.2276 14.9832 1262 120.395 522.187 480.895
72 0 85.1257 15.201 1294 120.679 519.882 478.719
73 1 47.0257 12.3124 579 119.233 521.003 498.974
74 0 47.0972 11.8903 560 122.023 520.939 497.884
75 0 48.0225 12.6191 606 119.995 522.096 498.312
76 0 51.0131 13.4083 684 117.545 522.44 498.582
77 0 53.0474 13.5162 717 118.114 522.876 495.999
78 0 56.0612 13.9312 781 114.178 522.778 497.125
79 0 57.0862 14.119 806 114.385 523.628 496.748
80 0 58.1601 13.1877 767 117.909 523.85 494.786
81 0 61.0713 14.0164 856 114.746 522.738 495.014
82 0 61.0733 13.6721 835 118.714 522.29 493.365
83 0 64.1423 16.3387 1048 112.485 523.516 491.54
84 0 67.2327 15.6918 1055 111.911 523.901 491.287
85 0 68.1977 14.0181 956 116.956 523.449 491.343
86 0 70.2231 12.6881 891 122.917 522.937 488.517
87 0 72.1809 13.7571 993 120.589 522.57 486.25
88 0 74.1926 13.9367 1034 120.571 522.663 485.604
89 1 40.0263 10.2183 409 118.462 523.423 502.963
90 0 41.1028 11.7997 485 116.773 523.93 501.79
91 0 42.0583 12.982 546 113.509 523.918 500.65
92 0 42.0575 10.7234 451 157.701 524.058 502.725
93 0 45.0284 13.2361 596 113.815 524.094 499.503
94 0 47.0923 13.5054 636 113.332 524.388 497.981
95 0 47.2434 12.1922 576 117.229 523.335 498.394
96 0 50.1047 14.1504 709 111.372 523.983 497.587
97 0 50.1859 13.0714 656 115.869 524.081 496.183
98 0 53.0996 14.388 764 111.757 524.356 495.546
99 0 51.0838 14.5252 742 114.991 523.468 495.516
100 0 56.1749 14.2234 799 113.479 523.339 494.791
101 0 56.2002 14.0391 789 114.664 523.648 493.395
102 0 56.1684 13.05 733 117.038 523.424 493.688
103 0 59.1711 13.4694 797 116.261 524.611 491.558
104 0 62.1897 14.311 890 113.951 524.808 490.233
105 0 63.1975 13.4024 847 116.999 524.538 490.211
106 0 66.1662 13.058 864 117.096 524.858 490.207
107 0 66.1973 13.8223 915 116.121 523.451 486.26
108 1 35.0951 9.4885 333 116.982 524.598 503.36
109 0 37.209 10.0245 373 114.759 525.373 504.788
110 0 40.103 10.7723 432 113.042 524.697 503.637
111 0 41.2331 12.6355 521 107.328 524.624 503.299
112 0 41.1237 11.5505 475 110.078 525.189 502.998
113 0 42.0345 11.9188 501 111.112 525.242 501.036
114 0 42.0565 12.3881 521 111.198 524.374 500.808
115 0 42.1138 11.2315 473 112.452 524.805 501.945
116 0 47.1609 12.3195 581 107.069 523.978 502.85
117 0 46.1299 11.2292 518 110.429 524.089 502.68
118 0 48.0725 13.126 631 108.086 523.377 499.712
119 0 48.1368 13.7732 663 107.596 523.418 498.855
120 0 51.0821 12.5876 643 110.204 524.641 497.806
121 0 50.1385 13.7818 691 109.311 522.812 496.284
122 0 52.1284 14.0231 731 108.995 522.744 494.94
123 0 56.1316 14.0028 786 108.45 523.282 495.533
124 0 55.1552 13.7249 757 110.851 522.774 496.132
125 0 58.097 14.4069 837 110.398 522.487 494.22
126 0 59.1217 14.6139 864 110.227 522.141 493.904
127 0 60.0786 14.0649 845 114.658 522.089 492.038
128 0 63.1088 15.6714 989 111.806 521.95 490.924
129 0 64.1511 14.5594 934 116.157 523.186 490.107
130 0 66.0437 15.414 1018 114.583 523.423 489.01
131 0 67.1124 14.5279 975 117.583 524.499 487.664
132 0 71.0735 15.3222 1089 114.567 523.608 487.502
133 0 71.1242 14.5801 1037 115.894 524.008 486.788
134 0 75.1745 13.9941 1052 114.909 524.24 486.708
135 0 77.1479 14.1157 1089 114.79 525.106 485.173
136 1 38.0224 11.2565 428 113.666 524.159 504.178
137 0 39.1015 11.7131 458 112.507 524.059 503.775
138 0 42.1392 12.6011 531 109.416 523.699 502.964
139 0 43.0132 11.7406 505 110.23 523.776 502.752
140 0 43.1198 13.219 570 107.904 523.798 503.207
141 0 44.0166 13.3359 587 107.605 524.93 502.899
142 0 47.1621 13.549 639 106.992 524.443 501.313
143 0 47.1459 13.893 655 106.711 525.191 500.118
144 0 47.1955 12.7131 600 109.067 524.288 500.998
145 0 49.1339 13.107 644 108.205 524.427 498.859
146 0 52.1508 12.6556 660 107.008 523.792 499.414
147 0 53.0635 13.9267 739 104.696 522.871 498.265
148 0 54.1416 14.4067 780 104.053 522.251 496.314
149 0 55.115 12.229 674 108.743 521.969 496.779
150 0 56.1137 12.7776 717 107.166 522.191 495.603
151 0 60.1659 14.6595 882 103.274 521.938 493.5
152 0 60.1036 13.8594 833 106.168 521.784 492.234
153 0 64.2361 13.5749 872 106.24 521.393 492.046
154 0 65.2213 14.8724 970 104.654 521.274 489.254
155 0 67.1611 14.2493 957 105.807 520.695 489.263
156 1 36.0194 9.68922 349 106.352 520.112 505.284
157 0 38.031 11.9902 456 103.732 520.36 502.3
158 0 38.1002 10.4986 400 106.99 520.773 501.51
159 0 37.0441 9.82611 364 107.25 521.456 501.973
160 0 41.1664 12.6074 519 103.025 522.206 500.667
161 0 42.0688 10.7681 453 106.4 522.055 501.713
162 0 42.0484 12.0337 506 106.042 522.099 498.727
163 0 44.051 11.3732 501 106.695 522.856 499.836
164 0 47.026 12.8652 605 102.547 524.54 498.174
165 0 49.1547 12.5929 619 103.228 524.616 495.952
166 0 48.1339 11.655 561 105.421 525.556 497.118
167 0 50.0896 11.9785 600 104.958 525.15 496.377
168 0 53.1843 12.7481 678 102.391 524.376 497.779
169 0 54.1077 12.586 681 104.583 524.416 493.791
170 0 55.1923 14.2773 788 101.622 523.992 491.872
171 0 58.0726 13.7242 797 102.871 524.179 493.593
172 0 60.2421 12.5826 758 103.789 524.427 493.059
173 0 61.105 12.814 783 104.483 524.223 492.602
174 0 63.0722 13.3022 839 103.762 523.57 492.048
175 0 66.1352 13.5329 895 103.609 523.389 491.571
176 0 66.2686 12.5701 833 107.082 523.107 489.121
177 0 69.1047 12.633 873 106.403 522.979 490.128
178 0 72.1755 13.3841 966 104.52 523.497 487.858
179 0 76.1752 14.2829 1088 103.214 522.675 486.966
180 0 79.2054 15.1884 1203 101.636 522.163 486.583
181 0 80.1683 13.6837 1097 104.583 521.362 483.636
182 0 83.169 14.224 1183 104.018 521.478 484.523
183 1 44.1061 12.4473 549 97.8233 520.714 504.056
184 0 43.0524 10.3362 445 102.216 521.218 503.013
185 0 45.1344 11.6762 527 101.361 521.522 501.188
186 0 49.1921 12.7053 625 99.7264 521.795 499.382
187 0 50.2287 12.1843 612 101.709 521.054 500.716
188 0 51.2555 12.9547 664 101.22 521.102 497.182
189 0 51.1542 12.9217 661 101.964 521.017 496.437
190 0 52.2355 13.1328 686 101.832 520.968 496.832
191 0 57.2386 14.4134 825 98.3309 521.542 494.093
192 0 56.2661 13.0807 736 103.401 521.436 491.874
193 0 59.1793 13.383 792 102.346 521.715 493.106
194 0 61.1631 14.4695 885 101.572 522.179 490.893
195 0 61.1227 12.2377 748 107.436 523.392 488.803
196 0 65.1271 13.8652 903 104.588 522.709 488.236
197 0 68.2264 14.4372 985 103.634 522.447 487.439
198 0 68.2249 13.7926 941 106.023 523.359 488.227
199 0 73.153 14.5312 1063 104.072 522.581 486.235
200 0 74.3165 14.0749 1046 106.142 522.87 484.847
201 0 75.2884 13.5878 1023 107.969 521.891 485.094
202 1 40.0794 10.7537 431 103.524 521.515 504.51
203 0 41.1526 11.8097 486 104.85 521.27 503.451
204 0 43.079 12.0012 517 105.501 521.731 502.352
205 0 45.1506 12.4029 560 104.766 522.13 503.086
206 0 45.2231 13.7761 623 103.9 522.848 501.62
207 0 47.1645 12.9335 610 104.839 522.877 502.764
208 0 48.1629 12.7069 612 105.26 522.106 500.191
209 0 48.125 13.2987 640 106.098 522.572 500.912
210 0 51.0775 12.6279 645 106.287 522.682 501.668
211 0 52.1056 12.8009 667 108.31 521.645 500.969
212 0 54.1843 14.3584 778 105.383 521.019 498.675
213 0 55.0901 13.2873 732 108.015 520.578 498.724
214 0 55.1264 13.6051 750 109.188 520.429 497.689
215 0 59.2124 12.8858 763 109.782 519.92 496.979
216 0 60.2059 14.4338 869 107.648 519.534 496.91
217 0 62.2166 14.996 933 109.001 519.639 492.752
218 0 64.1904 14.2545 915 111.319 518.877 492.766
219 0 66.2173 13.8634 918 113.328 519.379 491.363
220 0 67.2124 14.2682 959 114.144 519.831 491.711
221 0 68.1671 15.3886 1049 112.781 520.369 489.62
222 0 69.1479 13.6085 941 116.69 520.106 491.94
223 0 70.1911 13.9904 982 117.341 519.699 489.215
224 0 71.2254 13.9978 997 117.852 520.171 488.233
225 0 74.1685 15.303 1135 115.711 520.09 486.003
226 0 74.2046 15.7537 1169 116.146 520.055 484.508
227 0 77.2515 15.9867 1235 115.679 520.305 484.572
228 0 78.1604 15.6729 1225 117.179 520.493 484.344
229 0 78.26 14.8479 1162 119.022 520.54 484.126
230 0 80.1578 15.6192 1252 117.438 521.207 482.911
231 0 80.158 15.5318 1245 118.168 521.225 483.757
232 0 82.1821 15.2953 1257 116.74 521.421 484.773
233 0 80.2863 16.3415 1312 120.145 521.657 484.001
234 1 41.1729 11.6581 480 126.581 523.446 502.715
235 0 44.0952 13.3574 589 120.723 523.102 501.535
236 0 43.0318 11.5496 497 124.541 523.201 503.65
237 0 45.0395 12.922 582 121.366 522.997 502.541
238 0 45.062 13.204 595 120.21 522.672 503.645
239 0 45.049 12.0757 544 125.456 522.737 503.017
240 0 46.1482 13.565 626 121.904 522.502 502.12
241 0 46.1236 11.8811 548 125.748 521.42 503.35
242 0 45.1852 13.1459 594 121.121 521.13 504.753
243 0 45.0646 12.8482 579 125.332 521.25 501.708
244 0 47.2055 13.24 625 120.837 521.565 502.501
245 0 47.2185 13.1728 622 120.148 521.201 502.214
246 0 46.1223 12.6186 582 123.067 520.574 501.318
247 0 48.1736 12.538 604 121.632 520.581 501.776
248 0 48.2027 13.3395 643 119.07 519.504 501.86
249 0 47.2088 11.375 537 113.369 519.056 501.974
250 0 48.0985 14.0545 676 115.5 518.925 501.559
251 0 48.1866 13.8213 666 116.986 519.264 501.252
252 0 48.1866 13.842 667 156.982 520.252 501.253
253 0 48.1313 13.2554 638 121.259 518.87 499.169
254 0 49.1251 12.3359 606 120.158 518.493 501.135
255 0 49.1604 12.6728 623 120.079 519.101 499.711
256 0 48.0977 12.7865 615 120.754 519.231 498.956
257 0 49.1415 14.5498 715 115.891 519.151 498.099
258 0 49.2914 13.9172 686 115.745 520.061 497.873
259 0 47.1205 12.2452 577 120.165 520.184 497.849
260 0 47.1621 12.6797 598 119.604 520.057 497.783
261 0 49.2777 13.6979 675 115.129 520.404 497.945
262 0 48.2393 13.4745 650 117.415 521.185 496.782
263 0 48.2144 13.6059 656 118.091 520.387 496.657
264 0 48.2337 12.5845 607 117.241 521.781 498.512
265 0 50.1663 13.1762 661 116.378 521.177 498.362
266 0 49.2148 13.9998 689 114.415 521.985 498.29
267 0 51.1937 13.2243 677 114.886 522.334 498.817
268 0 50.1842 13.3508 670 116.206 522.9 497.497
269 0 49.1377 13.3502 656 116.021 522.799 498.546
270 0 48.2091 12.6739 611 116.591 522.599 500.419
271 0 51.1652 14.3848 736 111.325 522.455 501.075
272 0 51.132 13.0447 667 116.264 522.549 499.999
273 0 50.2127 13.2038 663 114.994 522.876 502.015
274 0 51.0913 13.8771 709 113.031 523.262 500.805
275 0 51.19 14.5927 747 111.632 522.898 501.137
276 0 51.1657 14.4628 740 110.735 522.295 500.651
277 0 50.3057 14.3125 720 111.168 522.211 501.338
278 0 49.1239 13.9647 686 112.897 521.484 500.131
279 0 51.1249 14.9829 766 108.324 520.764 499.493
280 0 49.1152 13.621 669 112.568 520.227 499.704
281 0 52.0854 15.417 803 106.042 520.045 499.964
282 0 50.1111 12.9712 650 113.286 519.938 499.74
283 0 51.1253 13.8288 707 109.924 519.409 499.837
284 0 50.071 13.5008 676 112.345 519.135 498.919
285 0 50.162 13.7554 690 111.025 519.722 498.542
286 0 50.1582 13.5771 681 112.245 519.877 496.765
287 0 52.0859 14.4761 754 108.873 520.086 496.959
288 0 51.1753 14.1474 724 108.801 519.37 496.648
289 0 52.1692 13.3987 699 108.9 519.921 496.903
290 0 52.0944 14.4545 753 106.352 520.614 497.147
291 0 52.1811 13.3382 696 108.46 521.065 496.746
292 0 52.1141 13.5664 707 107.144 521.223 497.699
293 0 52.0707 13.8081 719 107.663 522.085 495.668
294 0 53.2351 14.7835 787 104.986 523.137 496.018
295 0 52.1243 14.2928 745 106.711 523.074 495.366
296 0 51.0612 12.8278 655 109.595 524.376 497.324
297 0 53.1293 14.8506 789 104.792 524.959 495.613
298 0 53.089 13.9012 738 106.592 523.886 496.888
299 0 53.0401 14.3853 763 104.794 524.383 497.693
300 0 52.106 13.9715 728 105.602 524.092 498.297
301 0 51.0767 13.3525 682 107.886 522.695 499.739
302 0 51.1393 14.0205 717 108.63 522.515 500.091
303 0 53.0928 14.2581 757 106.462 523.6 501.831
304 0 51.1453 13.3737 684 110.246 521.738 500.484
305 0 52.131 13.6963 714 107.857 522.013 501.741
306 0 53.3375 13.5177 721 106.193 522.092 502.447
307 0 53.098 15.2548 810 102.031 521.691 501.088
308 0 52.1246 13.6212 710 105.81 521.203 501.446
309 0 52.2001 14.0804 735 105.107 521.427 501.184
310 0 51.2326 13.2923 681 106.269 520.869 503.209
311 0 51.1909 13.9282 713 108.314 519.745 500.264
312 0 51.1799 13.2865 680 108.822 519.447 500.197
313 0 51.2237 13.1384 673 106.805 519.163 501.724
314 0 51.3754 14.7541 758 104.338 519.036 499.321
315 0 53.1327 12.7605 678 107.114 518.22 499.723
316 0 52.1399 13.1569 686 161.596 516.175 499.603
