time division length width area intensity CMx CMy
0 0 39.0416 15.0609 588 135.668 1045.42 470.855
1 0 39.0416 15.0096 586 135.369 1046.45 470.846
2 0 39.0416 15.0096 586 135.068 1047.45 470.846
3 0 39.0416 15.0096 586 134.951 1048.45 470.846
4 0 39.0416 15.0096 586 134.886 1049.45 470.846
5 0 44.0977 14.1957 626 136.398 1039.37 470.545
6 0 46.2762 16.6608 771 131.917 1039.03 468.257
7 0 47.2548 15.8714 750 136.709 1037.75 469.587
8 0 46.2061 13.3532 617 139.028 1038.1 471.188
9 0 46.2061 13.2883 614 157.075 1038.14 471.174
10 0 52.1367 16.6294 867 137.962 1036.58 467.045
11 0 53.0338 15.8578 841 138.778 1035.77 466.734
12 0 55.1568 16.8429 929 136.491 1035.44 465.705
13 0 54.2111 15.2367 826 138.432 1034.08 463.262
14 0 57.1857 16.3677 936 138.567 1034.76 462.302
15 0 59.0472 18.0534 1066 131.609 1034.85 461.463
16 0 60.2148 16.2751 980 135.252 1035.22 456.213
17 0 60.2148 16.2751 980 156.472 1036.22 456.213
18 0 65.224 16.497 1076 140.337 1034.48 454.233
19 0 66.1956 15.6355 1035 141.395 1035.2 451.697
20 0 72.1572 18.0994 1306 130.52 1034.66 453.213
21 0 71.4035 16.0776 1148 136.514 1035.82 449.085
22 0 73.2869 18.5299 1358 134.997 1035.3 444.728
23 0 76.2462 18.3353 1398 135.909 1037.14 443.861
24 0 77.6831 16.0395 1246 140.908 1037.15 442.113
25 0 81.4469 19.2518 1568 133.798 1037.37 437.17
26 0 83.4807 16.4469 1373 138.932 1038.31 439.677
27 0 87.5706 18.0198 1578 135.802 1038.45 436.191
28 0 90.345 16.9683 1533 137.279 1039.45 432.882
29 1 45.2251 12.6478 572 142.093 1039.97 456.126
30 0 44.3622 12.5332 556 143.453 1039.53 454.784
31 0 49.2637 15.2445 751 137.726 1041.39 455.063
32 0 49.2225 12.6974 625 141.56 1041.89 453.539
33 0 53.4096 17.5811 939 132.089 1042.86 451.408
34 0 53.6103 16.0417 860 135.203 1043.09 452.381
35 0 57.3966 13.9381 800 136.47 1043.69 452.631
36 0 59.4393 15.663 931 133.323 1045.34 450.409
37 0 63.3356 18.5362 1174 122.71 1046.25 452.119
38 0 64.4973 16.1557 1042 125.799 1047.25 451.686
39 0 67.3242 15.7447 1060 128.281 1046.97 450.064
40 0 71.2906 18.4877 1318 119.03 1047.1 451.901
41 0 72.2561 17.8116 1287 124.614 1046.85 450.671
42 0 73.3371 16.5537 1214 122.653 1047.01 453.694
43 0 78.1931 17.4056 1361 121.724 1046.66 450.148
44 0 81.4491 17.9744 1464 117.445 1046.31 447.182
45 0 82.5681 14.4729 1195 123.121 1045.98 450.419
46 0 87.577 16.6825 1461 134.213 1046.01 447.722
47 0 88.3293 16.0309 1416 135.154 1045.59 449.015
48 0 90.5093 15.004 1358 134.636 1043.98 444.454
49 0 94.3922 15.9759 1508 134.757 1043.63 443.006
50 0 98.5207 14.1696 1396 136.302 1042.28 443.621
51 1 46.4131 12.7981 594 134.126 1041.37 465.347
52 0 48.1934 12.9478 624 134.633 1041 463.343
53 0 51.2192 13.6082 697 129.22 1039.5 464.927
54 0 52.1874 12.1677 635 132.052 1038.92 463.85
55 0 56.1484 14.2836 802 126.89 1038.4 461.833
56 0 57.2986 12.8101 734 128.92 1037.8 462.199
57 0 60.3016 12.7692 770 128.17 1037.95 461.59
58 0 63.2247 15.0258 950 124.209 1037.57 459.194
59 0 64.1216 12.4607 799 130.727 1038.04 450.686
60 0 68.3978 13.8016 944 128.162 1036.58 451.057
61 0 71.1774 16.9717 1208 120.387 1036.17 451.556
62 0 75.2326 14.5416 1094 124.654 1037.2 449.85
63 0 77.2671 14.5469 1124 123.849 1037.93 448.306
64 0 78.2066 12.5693 983 126.753 1037.04 446.058
65 0 81.1861 10.4205 846 130.292 1037.95 442.498
66 0 86.169 12.4175 1070 126.755 1037.62 439.968
67 1 45.105 11.2848 509 122.281 1037.97 460.395
68 0 47.2554 13.5223 639 117.621 1037.57 456.831
69 0 49.2188 12.2108 601 119.642 1038 456.874
70 0 52.0937 11.7865 614 120.435 1038.66 456.213
71 0 53.0598 11.308 600 121.268 1040.16 455.088
72 0 55.1712 13.7209 757 117.573 1040.22 454.42
73 0 57.2033 12.1846 697 119.657 1040.77 452.191
74 0 58.2567 13.3719 779 118.05 1040.72 449.875
75 0 62.279 16.0407 999 112.374 1041.45 449.829
76 0 63.2507 13.7706 871 115.256 1040.8 449.129
77 0 65.1766 12.9034 841 117.208 1042.27 445.017
78 0 67.342 12.6518 852 117.479 1041.98 448.919
79 0 68.1131 13.0959 892 117.117 1042.94 445.987
80 0 72.1792 13.9652 1008 114.769 1044.03 449.9
81 0 75.1677 14.1816 1066 115.144 1044.29 448.625
82 0 76.0495 11.5714 880 119.988 1043.45 448.582
83 0 79.1025 12.1109 958 119.828 1043.4 445.089
84 0 84.0942 13.7227 1154 116.883 1044.19 445.566
85 0 85.3235 11.4154 974 121.332 1042.69 444.607
86 0 89.231 13.4034 1196 118.038 1043.46 448.665
87 0 92.1665 14.1917 1308 118.33 1042.52 444.927
88 1 48.1493 12.4613 600 117.097 1042.43 469.418
89 0 49.1898 9.75812 480 121.315 1041.86 469.662
90 0 53.0966 14.9539 794 113.671 1041.47 468.089
91 0 53.1545 13.3009 707 117.215 1041.1 468.621
92 0 55.0585 14.0214 772 116.277 1040.2 466.68
93 0 56.1069 10.9434 614 120.093 1039.9 467.121
94 0 58.2677 11.962 697 119.446 1039.19 466.984
95 0 60.0755 14.9978 901 114.982 1038.68 465.543
96 0 62.1465 12.3418 767 117.97 1038.57 467.497
97 0 64.0669 14.8751 953 115.088 1038.21 463.952
98 0 66.2315 15.2948 1013 115.305 1037.49 459.431
99 0 68.1901 15.6181 1065 114.31 1037.31 460.069
100 0 71.0919 14.2351 1012 115.635 1036.53 460.105
101 0 73.1507 16.4865 1206 112.743 1036.33 456.934
102 0 75.0784 13.7989 1036 118.233 1034.72 450.83
103 0 76.0574 10.4658 796 122.131 1034.65 454.513
104 0 79.0988 15.8789 1256 114.13 1034.94 448.443
105 0 82.2522 15.8294 1302 113.761 1034.68 449.294
106 0 83.2628 12.4305 1035 118.881 1034.43 444.516
107 0 84.208 13.5735 1143 117.286 1035.4 439.675
108 0 89.2122 11.7024 1044 118.685 1035.07 443.338
109 0 92.2206 14.0207 1293 116.416 1035.88 436.444
110 0 98.393 15.743 1549 113.194 1034.92 437.42
111 1 55.5015 11.8375 657 115.511 1034.26 453.33
112 0 54.1957 12.2888 666 115.03 1035.06 455.242
113 0 56.1552 12.0559 677 115.349 1035.85 452.183
114 0 57.1948 10.9625 627 112.887 1035.26 456.59
115 0 59.2262 13.2543 785 110.673 1037.22 450.648
116 0 62.0974 15.6045 969 105.48 1038.68 453.798
117 0 62.2321 11.5375 718 111.561 1038.36 453.255
118 0 64.2071 12.7245 817 112.142 1039.57 448.202
119 0 67.0908 13.042 875 111.519 1039.96 448.53
120 0 69.1126 14.3679 993 108.918 1040.84 451.518
121 0 71.228 14.587 1039 108.015 1041.91 449.688
122 0 74.1128 15.1526 1123 107.162 1042.37 445.229
123 0 78.2927 12.6065 987 109.865 1042.73 448.302
124 0 80.2739 12.3577 992 110.494 1041.8 449.076
125 0 83.2383 13.2391 1102 109.94 1042.21 441.75
126 0 85.2138 14.9976 1278 107.813 1041.81 446.968
127 0 87.0831 11.4488 997 112.515 1042.35 446.634
128 0 90.1339 11.2055 1010 113.666 1043.49 443.713
129 0 92.1561 11.8929 1096 113.296 1042.26 445.537
130 0 95.2296 12.9582 1234 112.62 1042.76 443.902
131 0 100.287 13.8901 1393 110.925 1041.91 438.316
132 0 104.441 12.9356 1351 112.507 1041.84 443.089
133 1 55.2939 13.5277 748 107.461 1040.12 463.545
134 0 57.246 11.9659 685 109.801 1039.64 462.693
135 0 62.1521 16.2987 1013 102.721 1040.39 465.493
136 0 65.208 14.7528 962 103.509 1037.17 465.979
137 0 65.0897 15.1791 988 104.451 1038.87 462.01
138 0 64.0824 12.2811 787 108.404 1037.36 464.842
139 0 64.0824 12.3903 794 127.453 1036.36 464.921
140 0 69.1649 13.3305 922 107.255 1035.49 460.471
141 0 71.1041 12.7981 910 109.385 1036.06 460.398
142 0 73.1144 12.7335 931 110.31 1035.7 453.883
143 0 76.172 14.1916 1081 107.503 1035.45 452.796
144 0 78.2821 13.809 1081 106.443 1034.33 455.734
145 0 84.341 16.2199 1368 103.233 1033.77 452.651
146 0 88.2697 14.8862 1314 104.712 1035 451.588
147 0 86.2102 12.7131 1096 108.243 1035.35 446.209
148 0 91.1417 12.0911 1102 108.601 1034.81 446.673
149 1 48.1109 10.8292 521 108.294 1035.52 466.455
150 0 48.1109 10.8499 522 131.751 1035.52 466.293
151 0 51.3775 10.2379 526 104.779 1034.36 462.827
152 0 52.1245 12.5469 654 108.04 1036.42 457.722
153 0 55.2593 14.2239 786 105.496 1036.8 455.588
154 0 58.176 13.9748 813 104.647 1036.17 457.292
155 0 57.073 10.7932 616 110.682 1037.28 454.149
156 0 62.2283 12.8559 800 107.715 1037.73 454.018
157 0 61.0791 13.1796 805 108.361 1037.89 449.075
158 0 65.3106 16.3679 1069 102.847 1038.86 452.445
159 0 66.0924 12.4825 825 109.608 1040.47 449.961
160 0 68.1399 12.2542 835 112.529 1040.38 444.766
161 0 70.2902 13.43 944 110.672 1041.41 447.156
162 0 74.7101 17.4943 1307 103.26 1039.76 451.322
163 0 75.2001 13.0718 983 112.748 1041.92 446.654
164 0 76.4036 11.7795 900 115.819 1042.07 445.628
165 0 79.4785 12.041 957 115.187 1042.73 444.782
166 0 83.1369 14.9633 1244 110.196 1043.67 445.588
167 0 85.3583 13.7304 1172 114.427 1044.05 444.361
168 0 85.7484 17.2481 1479 109.613 1044 444.085
169 0 85.7484 17.2715 1481 134.606 1043.99 444.024
170 1 49.0915 13.3628 656 107.826 1043.91 466.264
171 0 48.1611 9.32287 449 114.002 1044.21 467.479
172 0 51.1744 11.7246 600 108.608 1042.43 467.268
173 0 54.075 15.0347 813 103.694 1043.76 470.91
174 0 55.1067 14.5354 801 107.491 1043.03 467.343
175 0 55.4434 11.904 660 111.667 1042.52 467.868
176 0 59.1112 15.7331 930 105.938 1042.28 467.809
177 0 59.1283 11.7203 693 111.518 1041.9 466.635
178 0 60.253 11.3189 682 108.304 1040.62 470.739
179 0 63.1741 18.6786 1180 100.461 1040.73 468.777
180 0 65.1242 15.9848 1041 105.208 1039.5 464.533
181 0 67.1292 13.0644 877 107.571 1038.43 465.221
182 0 71.2222 13.8159 984 106.602 1037.92 462.354
183 0 73.2924 15.2267 1116 104.94 1037.2 460.782
184 0 74.092 13.4697 998 108.248 1036.17 455.403
185 0 74.2194 10.8462 805 112.066 1036.61 455.64
186 0 80.1894 14.3036 1147 106.85 1036.45 453.398
187 0 83.1748 17.2769 1437 101.511 1034.85 455.663
188 0 86.3216 15.3843 1328 106.518 1035.01 447.556
189 1 44.0658 9.1908 405 113.657 1033.89 470.351
190 0 44.1612 12.9299 571 110.729 1034.73 465.97
191 0 47.0201 10.7826 507 113.55 1035.39 466.116
192 0 51.0442 12.5382 640 109.512 1033.97 464.384
193 0 49.1633 10.2109 502 115.295 1034.43 463.538
194 0 51.1405 14.6264 748 108.003 1033.85 462.94
195 0 53.1038 14.5376 772 109.443 1034.6 456.93
196 0 56.05 13.3274 747 111.299 1034.99 456.826
197 0 54.0537 11.6551 630 115.835 1035.51 457.298
198 0 58.1136 12.2691 713 115.16 1036.1 456.474
199 0 59.0873 13.0146 769 114.3 1037.59 451.938
200 0 61.1266 12.4987 764 114.898 1038.04 452.804
201 0 63.1642 15.1351 956 110.962 1038.15 451.221
202 0 64.1222 14.4568 927 112.406 1038.15 448.471
203 0 65.2275 14.3191 934 113.063 1038.58 446.747
204 0 66.0834 13.8461 915 113.358 1038.74 447.422
205 0 68.0606 11.9452 813 116.583 1040.04 445.421
206 0 70.2321 12.6153 886 114.598 1040.59 448.187
207 0 70.2253 11.933 838 143.165 1041.61 447.364
208 0 77.1462 14.0901 1087 114.409 1040.99 450.129
209 0 80.1913 14.3033 1147 114.232 1041.82 449.643
210 0 81.2274 14.8718 1208 113.844 1042.07 449.538
211 0 82.2446 12.3777 1018 119.124 1042.37 446.752
212 1 45.0989 13.3928 604 112.694 1041.84 465.308
213 0 46.1396 12.8957 595 112.487 1041.35 466.114
214 0 47.0281 12.2055 574 111.972 1041.12 467.735
215 0 47.0607 11.1771 526 115.129 1040.42 468.346
216 0 50.1427 13.7209 688 109.25 1042.14 470.378
217 0 50.0786 10.5634 529 114.792 1041.51 470.611
218 0 54.1388 16.8825 914 104.425 1040.7 466.93
219 0 54.1562 10.1743 551 113.773 1039.44 471.704
220 0 56.2253 12.7523 717 111.153 1038.54 470.587
221 0 56.1157 12.9197 725 110.749 1038.25 470.487
222 0 61.3309 14.2832 876 108.058 1037.66 469.361
223 0 61.2391 14.9741 917 107.83 1037.32 468.826
224 0 61.2436 12.5401 768 111.273 1036.5 469.43
225 0 63.0977 12.758 805 111.896 1034.92 467.906
226 0 66.1864 14.0512 930 110.06 1034.79 456.88
227 0 69.5162 13.9967 973 108.956 1032.84 460.245
228 0 69.3168 11.6711 809 113.155 1032.44 460.503
229 0 69.1725 10.4088 720 117.021 1032.11 459.239
230 0 74.4397 14.0651 1047 109.748 1030.94 458.304
231 0 72.1012 12.3438 890 113.111 1030.63 456.839
232 0 78.1764 19.0211 1487 103.077 1030.14 455.645
233 0 83.2328 17.0366 1418 104.896 1031 457.938
234 0 84.1829 12.9361 1089 111.986 1029.82 451.568
235 0 85.3494 13.0054 1110 111.767 1030.23 453.586
236 0 91.1645 15.1375 1380 108.172 1030.29 448.959
237 0 87.3117 17.8441 1558 106.585 1029.34 445.279
238 0 84.4222 12.5322 1058 112.709 1029.17 448.571
239 1 49.1535 9.70429 477 115.763 1028.79 464.952
240 0 48.274 12.7812 617 113.775 1030.77 460.721
241 0 53.227 11.2349 598 110.93 1030.19 461.431
242 0 53.1528 14.9569 795 106.06 1031.3 459.816
243 0 56.1087 15.3452 861 105.992 1031.66 457.97
244 0 56.0938 12.4969 701 110.74 1031.47 456.699
245 0 56.143 12.7531 716 111.641 1033.6 453.951
246 0 61.3436 15.3724 943 106.909 1034.61 457.041
247 0 65.2037 20.2596 1321 99.3914 1035.03 457.606
248 0 61.1176 13.5149 826 132.344 1035.43 452.036
249 0 67.1536 12.4937 839 110.328 1037.1 452.535
250 0 67.2783 15.0271 1011 108.621 1038.5 450.341
251 0 69.1029 15.4841 1070 108.328 1038.53 450.808
252 0 73.257 13.6233 998 110.301 1039.62 450.566
253 0 76.2064 13.0829 997 113.416 1038.3 446.765
254 0 79.158 14.4268 1142 110.651 1040.1 447.597
255 0 78.145 10.4421 816 117.86 1041.26 447.243
256 0 83.253 13.5851 1131 113.012 1040.11 444.721
257 0 88.1745 13.065 1152 112.413 1041.76 450.795
258 0 88.1608 15.9028 1402 109.954 1040.34 448.008
259 0 94.3534 14.6789 1385 111.295 1040.68 443.773
260 1 49.0674 10.6181 521 115.722 1041.51 468.299
261 0 49.0923 12.5274 615 112.424 1039.3 468.203
262 0 51.2136 12.2233 626 112.819 1035.92 466.685
263 0 53.096 12.581 668 113.09 1036.72 468.296
264 0 54.1599 13.2201 716 112.841 1038.13 465.952
265 0 54.1072 11.8099 639 115.851 1036.72 467.471
266 0 57.156 13.6819 782 112.298 1036.59 466.21
267 0 61.0473 15.5453 949 108.621 1035.59 467.399
268 0 62.1466 13.4681 837 112.692 1035.19 463.676
269 0 64.1708 15.0068 963 110.295 1033.74 461.389
270 0 64.1692 13.106 841 114.485 1033.6 461.747
271 0 67.2001 14.8214 996 110.466 1033.11 462.674
272 0 68.0967 12.1004 824 116.43 1032.63 457.824
273 0 73.2688 15.0542 1103 111.166 1032.11 455.926
274 0 71.1187 13.372 951 116.012 1032.31 453.049
275 0 75.1499 14.7306 1107 112.745 1032.11 450.698
276 0 78.0899 18.6836 1459 104.941 1031.59 456.112
277 0 83.1697 17.819 1482 105.192 1031.48 451.401
278 0 82.221 15.9692 1313 108.142 1031.38 452.195
279 0 87.2898 14.1826 1238 110.279 1031.5 444.188
280 0 90.1565 15.8169 1426 107.188 1031.29 442.578
281 1 48.0254 11.3898 547 112.645 1029.88 463.325
282 0 49.0382 12.0518 591 110.355 1030.77 463.423
283 0 49.0382 12.0111 589 144.606 1031.77 463.384
284 0 51.0989 13.5032 690 105.3 1033.31 457.614
285 0 54.1704 13.956 756 104.995 1033.21 455.963
286 0 56.211 14.7124 827 103.093 1034.17 455.041
287 0 57.1639 14.7296 842 103.938 1035.31 449.91
288 0 58.0969 18.1249 1053 98.9079 1034.86 455.052
289 0 60.0687 14.7997 889 104.836 1035.99 449.403
290 0 62.1139 13.9421 866 105.402 1037.17 452.434
291 0 65.2232 16.4052 1070 100.105 1037.84 450.493
292 0 65.135 13.0652 851 105.673 1038.5 446.596
293 0 66.2643 12.5709 833 107.193 1040.26 447.485
294 0 71.0582 17.366 1234 100.645 1040.57 447.442
295 0 73.2363 17.5869 1288 99.6762 1041.84 447.619
296 0 73.2363 17.4094 1275 121.493 1042.87 447.549
297 0 76.3292 14.8174 1131 104.046 1041.47 447.52
298 0 79.2859 13.9747 1108 105.745 1042.79 442.051
299 0 80.2917 14.8334 1191 105.417 1041.85 443.952
300 0 83.2694 13.2942 1107 107.31 1042.77 447.845
301 0 88.1715 17.8176 1571 101.425 1042.85 447.982
302 0 87.1087 15.429 1344 105.748 1042.73 441.813
303 0 91.1127 18.4058 1677 100.97 1042.82 448.132
304 0 96.2735 14.2407 1371 106.795 1041.96 445.73
305 0 100.335 17.591 1765 103.339 1041.7 443.456
306 1 52.1024 9.90358 516 113.562 1040.15 464.44
307 0 51.6841 9.86764 510 114.627 1039.97 464.137
308 0 55.0966 12.1968 672 108.577 1040.41 463.868
309 0 59.1028 14.1956 839 104.358 1039.27 467.201
310 0 56.0993 11.444 642 110.458 1038.65 465.354
311 0 62.1296 17.3025 1075 101.444 1037.75 462.675
312 0 64.2052 13.3946 860 105.676 1037.05 465.091
313 0 65.1207 15.0797 982 104.948 1036.58 460.659
314 0 68.1025 12.863 876 106.779 1035.4 466.267
315 0 64.0664 13.5953 871 108.691 1034.7 461.451
316 0 72.2552 13.2032 954 106.928 1034.67 461.292
317 0 74.1946 15.1089 1121 106.165 1033.41 456.654
318 0 77.0559 14.2234 1096 107.27 1033.03 451.791
319 0 80.1685 13.4841 1081 108.055 1032.92 449.263
320 0 79.1015 12.3386 976 110.651 1032.78 448.476
321 0 86.0815 13.1387 1131 108.386 1032.72 449.561
322 0 87.1528 12.3347 1075 110.662 1033.12 446.069
323 0 91.2279 12.1673 1110 111.293 1031.6 443.482
324 0 93.1737 14.5642 1357 109.463 1032.33 439.037
325 0 96.2336 12.7814 1230 109.059 1032.7 444.911
326 0 98.1914 12.9747 1274 110.348 1032.72 430.114
327 0 103.35 14.6202 1511 108.59 1033.31 433.976
328 0 105.299 12.1273 1277 111.289 1033.75 433.482
329 0 111.196 11.6821 1299 112.312 1033.82 430.654
330 1 60.0632 15.2839 918 102.947 1034.97 453.318
331 0 62.1464 12.8085 796 107.471 1035.55 449.82
332 0 64.1826 13.2123 848 107.246 1036.77 447.498
333 0 66.1985 15.801 1046 102.775 1036.62 444.109
334 0 71.0881 13.6028 967 105.293 1037.25 446.059
335 0 73.1707 13.8717 1015 103.954 1038.43 443.577
336 0 77.2335 15.4596 1194 103.564 1038.98 442.108
337 0 78.171 12.0249 940 108.52 1038.89 446.014
338 0 78.273 12.2392 958 108.575 1040.16 447.223
339 0 82.1527 21.5939 1774 97.5919 1041.53 446.079
340 0 84.2984 15.5993 1315 105.249 1042.34 441.705
341 0 87.3257 18.9291 1653 101.912 1041.6 440.717
342 0 91.2473 14.0826 1285 108.749 1042.87 441.852
343 0 92.1978 12.8636 1186 109.653 1043.69 441.623
344 0 96.2454 19.6789 1894 99.8896 1043.84 443.865
345 0 98.4532 15.4794 1524 105.811 1044.69 440.644
346 1 54.128 12.3781 670 107.521 1043.88 461.627
347 0 55.4017 14.5663 807 106.772 1043.66 461.874
348 0 57.3242 12.7171 729 106.372 1043.43 454.815
349 0 58.1868 13.3707 778 102.703 1042.84 459.526
350 0 60.135 14.9164 897 108.003 1042.09 455.239
351 0 62.4586 12.088 755 110.866 1041.58 461.485
352 0 66.127 14.3965 952 107.784 1040.81 461.347
353 0 69.4166 15.4718 1074 105.033 1040.24 463.432
354 0 70.1045 12.838 900 109.956 1040 460.032
355 0 70.2744 14.2726 1003 106.943 1038.94 461.711
356 0 72.182 14.1032 1018 108.578 1039.07 457.66
357 0 75.231 12.4683 938 109.89 1038.82 459.032
358 0 79.4245 11.5959 921 110.659 1038.19 456.884
359 0 82.3269 17.8071 1466 102.001 1037.47 453.542
360 0 85.2294 13.4695 1148 108.815 1036.72 448.051
361 0 88.2129 11.4722 1012 106.542 1037.03 445.851
362 0 93.212 17.015 1586 100.953 1038.2 441.751
363 0 97.2346 15.8483 1541 102.15 1037.06 444.784
364 1 49.0542 13.0672 641 104.602 1035.84 465.457
365 0 51.2177 16.5958 850 100.228 1035.11 463.265
366 0 54.1145 14.7096 796 103.504 1034.86 460.039
367 0 55.2007 18.4056 1016 99.1201 1035.37 456.098
368 0 54.0961 13.4945 730 107.038 1035.21 458.444
369 0 57.1108 13.6927 782 107.157 1035.06 456.88
370 0 58.1056 15.73 914 105.02 1035.5 456.548
371 0 61.0648 12.9862 793 107.411 1036.02 455.863
372 0 63.2019 16.8666 1066 102.204 1036.2 453.594
373 0 65.2113 18.0644 1178 100.234 1036.47 454.415
374 0 66.169 17.2891 1144 102.623 1037.66 445.514
375 0 69.1531 19.5942 1355 99.1602 1038.42 449.72
376 0 73.4015 14.7 1079 105.982 1038.23 438.021
377 0 74.1588 14.9409 1108 99.9134 1039.83 446.713
378 0 75.2052 13.1906 992 103.483 1040.72 443.231
379 0 75.2376 13.1317 988 104.176 1041.79 444.005
380 0 78.1186 12.8907 1007 105.678 1043.78 438.475
381 0 81.2175 16.2527 1320 101.951 1043.89 436.841
382 0 84.1223 15.1565 1275 102.279 1045.07 443.841
383 0 87.1617 11.9548 1042 106.852 1045.88 440.002
384 0 89.2321 10.5455 941 110.268 1045.95 436.79
385 0 93.4676 15.1282 1414 104.756 1045.49 432.202
386 1 48.1216 12.7178 612 99.969 1044.36 460.855
387 0 50.1417 12.345 619 101.053 1044.66 456.218
388 0 55.2413 14.5905 806 103.929 1045.3 459.206
389 0 54.2742 21.8704 1187 95.9427 1044.39 459.597
390 0 54.1772 11.7023 634 110.196 1043.61 461.035
391 0 61.2914 18.1918 1115 100.239 1043.88 460.544
392 0 58.2307 12.5363 730 110.488 1044.26 460.19
393 0 63.2317 11.4658 725 110.698 1041.88 461.657
394 0 63.4567 12.9852 824 107.636 1042.46 462.086
395 0 67.1948 13.5427 910 108.309 1041.3 460.981
396 0 65.2533 15.1104 986 106.265 1041.05 464.244
397 0 69.338 13.0376 904 111.184 1041.4 458.15
398 0 71.3021 13.2815 947 110.367 1039.41 457.969
399 0 73.2662 13.8263 1013 109.68 1039.22 460.512
400 0 76.1904 11.6025 884 113.443 1038.39 454.954
401 0 76.3226 12.7354 972 114.033 1037.84 454.274
402 0 83.4316 20.0763 1675 103.203 1037.66 451.98
403 0 84.2251 13.832 1165 114.61 1036.98 449.451
404 0 86.3072 17.1365 1479 108.764 1036.63 444.691
405 0 93.3837 15.356 1434 108.536 1035.98 449.446
406 0 92.3124 16.1733 1493 108.401 1035.02 444.053
407 0 96.4914 13.2965 1283 111.725 1034.24 440.293
408 0 99.3235 12.2831 1220 111.166 1035.6 434.825
409 1 51.2971 12.028 617 108.057 1037.04 459.747
410 0 55.0933 13.2503 730 106.619 1035.95 455.559
411 0 56.1748 15.3628 863 103.691 1036.1 460.67
412 0 58.1918 16.9096 984 103.081 1036.15 457.368
413 0 59.33 15.0346 892 106.362 1035.71 455.826
414 0 63.2354 14.1535 895 106.618 1036.41 456.397
415 0 63.1376 20.099 1269 100.612 1036.92 448.816
416 0 65.2124 16.2393 1059 107.03 1037.4 447.06
417 0 65.1888 12.7169 829 111.16 1037.21 449.074
418 0 69.1735 13.8492 958 109.312 1037.24 446.837
419 0 71.1592 13.1255 934 110.923 1038.28 447.126
420 0 77.435 15.936 1234 106.627 1039.78 448.799
421 0 77.3675 14.8771 1151 110.718 1040.04 444.587
422 0 77.3748 15.147 1172 112.234 1040.31 437.981
423 0 81.4687 20.7073 1687 100.712 1040.63 437.925
424 0 83.3536 13.1488 1096 110.528 1040.15 435.307
425 0 86.1499 12.989 1119 111.108 1041.63 433.65
426 0 87.4214 12.1938 1066 112.046 1042.18 436.056
427 1 41.2092 9.58523 395 109.41 1043.1 454.319
428 0 48.1672 10.8165 521 106.641 1043.45 456.981
429 0 50.2471 13.0953 658 112.365 1046.01 460.018
430 0 52.2769 13.9067 727 109.421 1046.76 461.334
431 0 52.2063 12.7188 664 110.764 1044.88 461.419
432 0 57.3991 13.9201 799 108.228 1045.19 460.976
433 0 54.1565 11.3744 616 113.18 1045.33 462.977
434 0 60.401 12.7813 772 110.285 1045.98 463.723
435 0 61.2839 12.4829 765 111.596 1045.71 462.923
436 0 63.2153 12.5761 795 112.504 1045.01 461.405
437 0 64.142 14.7173 944 109.851 1043.77 459.04
438 0 68.2522 13.3915 914 109.092 1043.91 462.764
439 0 70.29 13.5154 950 110.038 1042.21 460.374
440 0 73.4596 14.6475 1076 109.155 1041.41 458.09
441 0 73.4791 14.6028 1073 123.55 1040.44 458.02
442 0 75.2806 13.0445 982 112.206 1040.58 454.678
443 0 79.4775 12.8967 1025 112.233 1039.93 454.058
444 0 82.2851 14.4011 1185 109.787 1039.65 455.288
445 0 84.2637 12.7338 1073 114.266 1038.53 450.783
446 1 49.1186 13.0093 639 110.056 1040.02 469.848
447 0 48.1573 12.1892 587 112.274 1039.43 470.22
448 0 54.1749 13.2534 718 109.301 1038.63 468.673
449 0 54.0972 13.5867 735 111.129 1037.76 464.732
450 0 55.1348 15.5075 855 111.871 1037.36 462.07
451 0 56.2045 13.0417 733 115.924 1037.97 464.292
452 0 56.2045 12.9883 730 147.934 1038.96 464.3
453 0 58.2237 11.4215 665 119.764 1037.25 456.344
454 0 61.1414 12.8718 787 117.56 1037.13 455.573
455 0 63.1156 12.0572 761 115.97 1036.95 455.892
456 0 68.0991 13.7887 939 112.169 1037.1 453.685
457 0 69.0763 14.3175 989 112.349 1037.13 450.6
458 0 70.1033 13.5942 953 113.387 1038.01 449.084
459 0 73.1069 13.364 977 113.986 1037.75 448.44
460 0 75.1662 15.1132 1136 111.631 1038.31 447.4
461 0 76.1165 14.5829 1110 113.537 1038.73 443.882
462 0 80.1622 14.9198 1196 112.982 1039.08 442.411
463 0 84.1996 13.9906 1178 113.756 1039.16 443.624
464 0 86.166 17.2922 1490 108.181 1039.12 443.091
465 0 90.2608 16.4745 1487 110.119 1039.69 426.124
466 0 90.5002 14.1326 1279 115.111 1040.4 431.124
467 0 93.3879 16.7688 1566 110.522 1039.42 437.871
468 0 96.3172 13.9124 1340 114.815 1039.56 436.74
469 0 99.417 12.2313 1216 116.779 1040.84 439.258
470 0 104.48 15.5628 1626 112.7 1041.57 436.153
471 0 106.664 13.6222 1453 112.187 1042.01 431.535
472 0 107.523 11.765 1265 119.113 1042.77 424.077
473 0 112.286 12.1298 1362 117.506 1042.68 428.347
474 0 119.388 13.1336 1568 113.894 1043.26 438.251
475 1 61.0885 13.8488 846 110.052 1042.85 464.521
476 0 65.219 13.6003 887 110.026 1042.82 464.052
477 0 67.2535 16.4452 1106 106.345 1041.78 464.448
478 0 69.1578 16.3105 1128 108.194 1041.56 461.708
479 0 70.0998 16.5621 1161 107.848 1041.13 461.904
480 0 74.1477 12.9876 963 111.995 1038.61 462.782
481 0 75.1496 14.0254 1054 110.721 1037.28 463.509
482 0 79.1356 13.5337 1071 109.635 1037.41 468.406
483 0 81.2162 13.5318 1099 109.447 1036.62 467.91
484 0 85.2284 17.6232 1502 104.391 1036.61 464.33
485 0 90.2843 19.9813 1804 100.778 1034.53 464.456
486 0 89.2688 15.2797 1364 108.831 1034.67 461.187
487 0 92.3231 15.5107 1432 109.005 1034.43 455.115
488 0 96.4952 14.2701 1377 109.597 1033.86 456.885
489 0 98.496 15.229 1500 108.784 1032.83 453.645
490 0 101.387 24.6778 2502 97.5715 1032.78 454.127
491 0 103.612 14.0524 1456 109.722 1031.22 453.877
492 0 107.205 16.7343 1794 107.503 1031.49 446.84
493 0 108.376 12.9825 1407 112.553 1031.45 431.937
494 0 112.26 14.5556 1634 110.395 1029.91 441.494
495 1 58.1219 14.5728 847 114.213 1028.78 465.279
496 0 61.3553 13.3974 822 114.85 1029.09 466.536
497 0 63.1841 12.5506 793 112.188 1028.93 461.419
498 0 63.3325 12.9791 822 112.431 1029.41 456.633
499 0 66.1076 14.2041 939 110.124 1030.19 458.207
500 0 68.3709 12.988 888 111.051 1030.55 455.72
501 0 67.2353 15.2003 1022 110.315 1030.91 452.42
502 0 72.3648 13.5148 978 113.495 1031.6 419.283
503 0 77.2599 17.6159 1361 104.492 1032.52 445.817
504 0 80.2447 14.1442 1135 111.118 1032.37 446.839
505 0 80.107 15.0798 1208 110.978 1033.53 440.848
506 0 80.107 15.0673 1207 131.911 1033.51 440.629
507 0 83.2936 13.1463 1095 114.914 1034.27 441.025
508 0 85.4418 13.0147 1112 115.783 1036.56 437.123
509 0 90.3883 13.2097 1194 116.08 1037.04 436.484
510 0 93.2796 13.154 1227 117.002 1037.34 436.682
511 0 97.645 15.8226 1545 112.395 1039.02 439.399
512 0 98.4018 14.0241 1380 117.136 1039.99 439.02
513 0 102.579 13.8333 1419 117.382 1041.09 440.304
514 0 107.72 14.8069 1595 117.682 1040.54 432.36
515 0 111.638 15.4607 1726 116.878 1040.84 432.897
516 0 114.731 14.8085 1699 117.928 1039.27 435.557
517 1 61.3695 11.2923 693 117.009 1040.5 463.059
518 0 64.351 14.1567 911 112.717 1040.11 464.115
519 0 65.2213 13.5692 885 114.242 1040.79 467.112
520 0 67.6533 13.4805 912 117.559 1037.34 461.399
521 0 69.4044 15.0855 1047 117.006 1039.75 460.308
522 0 72.181 14.8931 1075 117.996 1039.6 456.901
523 0 73.3734 15.6869 1151 115.347 1039.22 460.799
524 0 77.2056 13.3151 1028 118.985 1038.74 460.191
525 0 77.2666 12.9293 999 120.646 1037.77 458.33
526 0 82.2056 13.0405 1072 120.104 1037.8 459.181
527 0 85.236 18.8183 1604 110.034 1036.2 457.474
528 0 87.2949 15.6481 1366 115.052 1036.09 455.003
529 0 87.2949 15.6481 1366 141.691 1036.1 455.063
530 0 91.2076 15.1742 1384 116.858 1034.94 452.344
531 0 96.2871 16.3781 1577 114.669 1034.34 449.16
532 1 48.1294 14.0662 677 110.665 1034.35 474.158
533 0 49.4318 11.2276 555 115.045 1033.14 472.432
534 0 49.2263 12.8793 634 109.793 1032.09 472.415
535 0 53.1609 15.4249 820 106.282 1031.87 470.322
536 0 55.2445 14.7164 813 106.737 1029.69 462.823
537 0 55.2064 12.7884 706 110.591 1030.04 468.071
538 0 60.1789 12.5958 758 108.831 1029.3 466.769
539 0 54.16 10.192 552 110.85 1031.5 460.418
540 0 59.1764 11.7445 695 109.281 1030.98 454.534
541 0 62.098 11.1759 694 109.379 1031 455.154
542 0 62.0772 10.7769 669 110.719 1029.97 451.481
543 0 66.3028 15.6404 1037 103.716 1030.67 454.049
544 0 69.2283 15.1816 1051 104.665 1030.9 451.25
545 0 69.2283 15.2105 1053 119.406 1030.89 451.386
546 0 69.2252 15.1679 1050 118.996 1030.88 451.423
547 0 76.3716 13.9319 1064 112.941 1034.53 447.493
548 0 82.1406 15.51 1274 109.88 1033.58 447.354
549 0 84.0922 16.3273 1373 106.421 1034.2 449.822
550 0 86.1487 13.8598 1194 110.83 1035.25 446.65
551 1 47.1437 11.8786 560 112.821 1034.34 463.011
552 0 50.1223 11.9907 601 112.745 1035.78 462.697
553 0 52.3038 10.8405 567 114.078 1035.69 462.448
554 0 52.1319 13.1781 687 110.399 1036.87 462.202
555 0 52.1747 10.9248 570 114.923 1036.91 462.684
556 0 57.102 13.0293 744 109.815 1038.31 462.237
557 0 57.1826 11.8043 675 113.662 1039.78 461.732
558 0 60.1079 11.4461 688 113.128 1039.73 465.499
559 0 60.063 12.5368 753 113.559 1040.19 459.59
560 0 60.063 12.6367 759 138.729 1040.16 459.582
561 0 65.0656 11.8342 770 113.925 1040.06 463.135
562 0 69.1716 15.7724 1091 108.412 1040.65 456.291
563 0 69.1716 15.7868 1092 126.778 1041.64 456.316
564 0 74.2494 14.6668 1089 108.508 1039.92 463.66
565 0 76.5041 14.0646 1076 110.714 1038.91 460.932
566 0 76.1047 13.3763 1018 112.087 1038.53 462.4
567 0 76.106 13.4418 1023 135.006 1038.55 462.34
568 0 84.3831 15.3704 1297 108.373 1037.34 457.152
569 0 85.128 12.2169 1040 113.457 1037.31 457.45
570 1 44.1806 10.5023 464 113.256 1036.11 478.05
571 0 48.1758 12.9941 626 107.802 1035.65 479.502
572 0 48.4156 13.3635 647 101.476 1034.26 471.904
573 0 50.2101 9.26108 465 106.684 1034.47 471.129
574 0 50.2101 9.32082 468 124.224 1033.48 471.1
575 0 52.2914 10.5754 553 105.857 1032.57 470.061
576 0 53.1243 13.5343 719 102.229 1032.16 470.473
577 0 52.1951 10.8248 565 107.055 1031.7 466.692
578 0 55.3168 12.0759 668 104.916 1030.68 464.747
579 0 60.3351 12.5466 757 105.164 1031.49 459.547
580 0 59.4215 13.0424 775 105.672 1030.65 462.978
581 0 60.296 12.9694 782 107.345 1031.21 459.082
582 0 61.1444 13.6726 836 105.477 1030.49 461.736
583 0 62.2163 12.3119 766 108.885 1031.15 454.884
584 0 65.5713 11.4227 749 108.507 1030.39 459.901
585 0 64.4062 13.0577 841 109.37 1031.67 454.216
586 0 72.5205 14.8096 1074 105.875 1032.2 454.452
587 0 71.2395 15.6233 1113 105.181 1033.18 454.556
588 0 73.3056 14.5009 1063 107.075 1033.15 451.446
589 0 76.4568 13.1316 1004 109.952 1033.46 446.124
590 0 79.4619 13.3901 1064 110.051 1033.02 444.934
591 0 79.2988 11.8035 936 119.446 1035.42 441.147
592 0 85.151 14.1631 1206 117.784 1036.12 442.387
593 1 44.1768 11.9067 526 113.361 1035.93 462.143
594 0 47.3181 11.7503 556 113.558 1035.78 460.318
595 0 48.308 12.4203 600 113.243 1035.67 458.858
596 0 49.2573 12.4855 615 115.343 1037.07 458.551
597 0 52.3475 14.2318 745 114.689 1036.78 464.373
598 0 55.1393 17.0659 941 109.66 1037.25 462.165
599 0 55.077 13.926 767 115.635 1037.38 462.63
600 0 57.1003 14.3432 819 113.794 1037.9 457.44
601 0 60.0616 16.0502 964 110.608 1037.67 463.519
602 0 62.0329 19.9572 1238 105.603 1038.09 463.927
603 0 62.134 13.9859 869 114.29 1038.36 466.183
604 0 64.1287 13.7068 879 116.451 1038.64 461.504
605 0 66.4364 15.624 1038 114.028 1038.18 461.986
606 0 66.131 11.9309 789 119.833 1038.53 462.489
607 0 70.1026 17.6456 1237 110.903 1039.29 460.673
608 0 75.0903 14.2495 1070 115.772 1037.61 462.894
609 0 75.1059 18.7735 1410 109.566 1037.5 459.635
610 0 79.1018 17.6734 1398 109.216 1037.96 464.278
611 0 81.1114 14.9917 1216 114.265 1037.53 463.201
612 0 84.0806 17.9114 1506 109.755 1036.92 464.104
613 0 84.1479 13.5119 1137 118.23 1036.44 459.281
614 0 89.214 18.6069 1660 109.362 1036.23 463.091
615 0 89.214 18.5509 1655 139.447 1034.21 462.929
616 1 48.0726 12.918 621 118.409 1033 469.074
617 0 48.0842 13.4348 646 111.502 1034.06 469.011
618 0 48.0873 13.2467 637 112.633 1033.61 472.419
619 0 50.1457 10.0108 502 114.129 1032.4 471.002
620 0 53.0979 9.8874 525 113.221 1030.72 469.192
621 0 52.1307 10.4545 545 113.283 1031.21 467.543
622 0 58.1527 16.6458 968 104.55 1031.15 461.386
623 0 58.0542 15.6922 911 106.623 1030.87 464.574
624 0 59.1702 12.726 753 112.914 1031.04 460.478
625 0 62.0875 13.9803 868 108.736 1030.83 465.361
626 0 65.1675 14.4704 943 106.707 1030.79 462.567
627 0 68.19 14.5916 995 107.891 1030.86 456.444
628 0 69.2256 15.0811 1044 107.885 1031.66 454.723
629 0 71.1299 16.4488 1170 106.209 1031.79 452.656
630 0 76.0933 14.4165 1097 105.211 1031.94 457.181
631 0 75.2412 15.6164 1175 107.865 1032.55 447.294
632 0 78.317 16.4715 1290 107.24 1031.79 447.508
633 0 83.1328 13.7611 1144 110.214 1034.11 445.317
634 0 85.4206 13.6852 1169 112.317 1034.19 428.05
635 0 89.2308 16.4181 1465 107.259 1034.83 442.683
636 0 91.1922 20.5061 1870 102.757 1034.88 437.877
637 0 95.1706 19.6804 1873 102.719 1035.94 442.137
638 1 45.2415 11.9581 541 107.157 1035.6 466.497
639 0 47.131 13.0699 616 106.869 1036.78 461.161
640 0 50.2124 11.531 579 107.972 1037.8 465.703
641 0 50.2598 13.47 677 106.817 1038.9 460.046
642 0 52.1638 12.4032 647 107.853 1039.18 461.547
643 0 54.2241 13.7577 746 106.193 1040.4 461.469
644 0 54.2795 11.2013 608 109.771 1040.86 460.34
645 0 57.1233 14.5125 829 104.644 1040.76 464.7
646 0 55.0984 11.053 609 110.703 1039.94 463.258
647 0 60.0987 14.6592 881 106.354 1041 460.49
648 0 60.1891 11.9125 717 110.943 1039.5 460.972
649 0 63.1468 14.3317 905 106.57 1040.15 461.861
650 0 64.1754 13.9929 898 107.577 1039.32 461.843
651 0 66.2876 14.3918 954 106.544 1039.55 460.636
652 0 69.2853 16.5836 1149 103.213 1038.88 463.374
653 0 72.2932 11.5087 832 110.386 1038.97 458.7
654 0 71.3885 10.9121 779 111.869 1038.35 455.913
655 0 75.2326 11.6705 878 111.649 1038.46 459.446
656 0 79.1724 13.338 1056 113.714 1037.45 459.48
657 1 41.1257 10.6016 436 114.241 1034.89 479.899
658 0 43.0382 12.0126 517 113.18 1035.31 479.516
659 0 43.0836 12.3945 534 113.429 1033.37 478.013
660 0 47.1789 13.1203 619 110.653 1034.29 476.446
661 0 48.041 14.1129 678 110.87 1035.21 473.81
662 0 49.0431 14.9052 731 110.494 1034.42 473.263
663 0 52.0877 17.3937 906 104.458 1033.93 474.961
664 0 53.028 13.1817 699 112.506 1033.55 467.876
665 0 55.2601 15.2913 845 108.315 1033.08 466.42
666 0 58.081 14.0838 818 108.543 1034.08 466.688
667 0 58.137 13.2962 773 111.561 1033.35 462.666
668 0 61.0657 14.378 878 108.849 1033.8 460.843
669 0 62.1109 14.4097 895 108.792 1033.8 459.571
670 0 64.1045 14.6324 938 109.076 1033.64 458.365
671 0 69.3664 19.4042 1346 101.547 1033.29 457.025
672 0 70.1713 13.9373 978 109.774 1033.04 453.009
673 0 71.1607 12.1556 865 112.558 1033.4 450.603
674 1 39.0782 13.2043 516 107.328 1034.84 467.597
675 0 37.0853 8.76358 325 108.978 1031.92 453.862
676 0 38.1528 14.1012 538 103.541 1032.99 463.736
677 0 41.1283 12.7892 526 107.162 1033.04 466.89
678 0 40.1584 15.3891 618 105.013 1033.37 469.997
679 0 43.0751 14.347 618 107.133 1034.1 466.497
680 0 44.1712 17.1831 759 102.842 1035.24 463.215
681 0 45.0627 12.0277 542 110.668 1034.88 463.91
682 0 45.0826 14.7285 664 107.461 1035.44 463.423
683 0 47.1247 13.9629 658 107.763 1037.05 464.175
684 0 47.0642 12.7485 600 110.547 1037.4 467.855
685 0 50.0593 16.6203 832 103.656 1037.75 465.596
686 0 50.1888 11.8951 597 110.739 1036.96 467.466
687 0 52.0674 16.0369 835 104.02 1038.67 467.557
688 0 52.1611 12.3272 643 109.924 1038.54 465.602
689 0 57.1165 13.9014 794 106.018 1038.35 467.902
690 0 58.1762 17.2751 1005 102.153 1039.38 467.154
691 0 61.133 15.2455 932 104.239 1038.98 467.697
692 0 62.1575 16.1364 1003 102.926 1038.63 464.539
693 0 62.159 11.7119 728 107.681 1038.64 468.625
694 0 65.087 19.1129 1244 97.5241 1038.93 462.754
695 0 68.1605 14.3191 976 103.025 1039.09 456.735
696 0 72.0668 16.7206 1205 98.7734 1037.96 467.569
697 0 75.1867 13.6726 1028 102.883 1038.63 464.908
698 0 76.4263 14.5631 1113 102.164 1037.9 464.543
699 1 42.1879 13.2977 561 106.159 1038.15 462.597
700 0 40.1185 11.815 474 107.462 1036.28 473.369
701 0 38.1312 10.5425 402 108.07 1034.85 473.356
702 0 39.1032 10.8431 424 117.667 1032.77 472.719
703 0 47.3262 14.0092 663 103.392 1034.16 476.516
704 0 48.0471 14.8604 714 103.765 1033.81 473.835
705 0 48.0399 13.1974 634 107.044 1033.07 474.263
706 0 50.2452 13.1953 663 106.932 1032.74 473.938
707 0 53.0843 16.9165 898 100.708 1031.68 469.344
708 0 54.1748 19.1787 1039 97.9971 1032.65 471.262
709 0 56.2255 16.7362 941 102.121 1031.17 461.378
710 0 58.3158 19.6002 1143 98.1584 1031.1 462.735
711 0 61.2286 14.5357 890 104.51 1031.95 465.491
712 0 63.5266 14.6868 933 103.441 1029.7 461.86
713 0 64.1046 15.3343 983 103.574 1031.47 459.843
714 0 68.5438 16.3545 1121 101.476 1030.68 462.156
715 0 72.4117 17.2762 1251 101.369 1031.46 452.791
716 0 72.3257 13.0521 944 108.607 1031.89 453.412
717 0 75.2725 15.4372 1162 106.12 1033 453.067
718 0 79.4201 15.7391 1250 105.414 1032.49 453.274
719 1 37.3898 13.2122 494 109.152 1033.59 467.585
720 0 40.54 10.8535 440 111.307 1034.88 470.145
721 0 44.2896 13.7052 607 112.618 1035.1 466.567
722 0 43.2896 13.3288 577 116.896 1034.84 463.213
723 0 45.3607 13.3596 606 117.173 1037.21 463.838
724 0 48.1898 13.8619 668 115.636 1037.22 466.106
725 0 48.0947 16.613 799 113.431 1037.63 468.623
726 0 48.1148 13.0937 630 123.421 1037.32 463.964
727 0 51.2729 14.7836 758 120.479 1038.63 462.584
728 0 55.1903 16.1441 891 115.824 1039.46 467.026
729 0 57.2402 15.8804 909 117.677 1039.54 464.077
730 0 56.2778 14.233 801 122.37 1040.26 464.843
731 0 61.1956 18.0732 1106 112.938 1040.03 469.164
732 0 60.1196 12.8078 770 125.697 1040.39 463.442
733 0 63.2406 16.5716 1048 118.591 1039.97 463.014
734 0 65.3962 16.1019 1053 119.721 1040.04 464.288
735 0 67.3448 16.4823 1110 120.366 1040.15 462.263
736 0 71.4074 15.2645 1090 121.405 1039.42 462.818
737 0 73.1423 14.9435 1093 122.866 1040.13 460.102
738 0 78.185 16.4226 1284 118.45 1038.54 463.333
739 0 78.1856 16.3841 1281 140.41 1036.55 463.395
740 0 83.2997 16.6627 1388 118.751 1038.22 458.606
741 0 86.3448 18.8662 1629 114.298 1038.04 459.789
742 1 44.058 13.6865 603 123.096 1037.27 477.67
743 0 46.0642 13.8719 639 122.294 1037.04 477.961
744 0 47.3714 13.7425 651 122 1036.97 476.676
745 0 48.1781 14.4672 697 121.659 1035.93 473.571
746 0 48.1781 14.4464 696 144.029 1034.92 473.611
747 0 54.2755 17.0611 926 115.87 1035.07 472.852
748 0 54.2755 17.1717 932 143.296 1035.06 472.93
749 0 55.2761 14.6175 808 122.26 1034.95 467.618
750 0 55.1784 15.1509 836 123.804 1034.56 467.651
751 0 59.2428 16.9472 1004 119.077 1034.64 466.778
752 0 59.1878 13.7528 814 125.69 1034.39 463.66
753 0 60.1697 14.9411 899 124.77 1033.69 462.418
754 0 63.1888 16.0472 1014 121.993 1033.84 461.677
755 0 65.2895 14.2902 933 125.983 1033.69 459.464
756 0 68.4242 16.2662 1113 122.439 1033.51 456.69
757 0 69.1278 15.1314 1046 125.302 1034.09 457.939
758 0 71.2708 15.6866 1118 124.484 1034.24 454.503
759 0 71.1544 14.2226 1012 129.271 1034.74 453.107
760 0 74.1028 16.0588 1190 125.282 1034.87 450.845
761 0 76.2223 14.5758 1111 128.859 1035.35 449.236
762 0 79.3722 14.8793 1181 128.964 1035.97 447.145
763 0 83.2097 17.6782 1471 122.173 1036.18 445.916
764 0 81.3265 13.4765 1096 132.234 1036.83 441.423
765 0 87.2239 17.4493 1522 123.482 1037.08 440.151
766 0 91.2452 16.6803 1522 123.916 1036.75 437.11
767 0 95.1164 17.0212 1619 124.116 1037.9 436.473
768 0 98.4243 15.3113 1507 125.73 1038.9 434.733
769 0 102.556 16.0887 1650 123.998 1038.93 434.739
770 0 104.257 14.7904 1542 126.382 1038.88 432.096
771 0 109.413 13.9929 1531 127.623 1039.84 429.929
772 0 111.414 16.2368 1809 143.802 1039.85 434.097
773 1 63.1658 14.9923 947 117.788 1040.21 460.063
774 0 67.2592 12.4593 838 122.042 1040.95 459.041
775 0 69.064 14.5083 1002 118.855 1042.09 457.904
776 0 70.1369 14.4147 1011 119.689 1041.21 456.366
777 0 72.0461 13.5885 979 120.797 1041.38 455.066
778 0 75.1079 12.7683 959 122.652 1040.76 453.669
779 0 76.214 14.3018 1090 120.869 1040.57 452.881
780 0 81.1688 15.3877 1249 118.203 1040.39 451.065
781 0 83.2415 12.7941 1065 124.077 1039.1 445.534
782 0 85.1326 13.1207 1117 122.742 1039.35 449.543
783 0 89.202 15.9414 1422 117.961 1039.97 450.454
784 0 87.1216 15.289 1332 121.099 1038.03 444.351
785 0 93.4416 14.6616 1370 121.034 1038.16 444.455
786 0 96.4175 14.375 1386 120.797 1037.97 444.776
787 0 100.143 13.301 1332 123.126 1036.89 441.132
788 0 106.294 16.5484 1759 116.744 1036.94 438.762
789 0 102.152 11.4536 1170 128.126 1035.36 432.37
790 0 109.239 13.2736 1450 124.5 1035.05 431.122
791 1 65.1677 12.9819 846 113.053 1035.05 459.045
792 0 65.1796 9.45081 616 119.429 1034.95 457.92
793 0 67.1699 11.389 765 118.395 1033.44 451.605
794 0 72.204 13.6696 987 112.162 1032.16 454.564
795 0 74.1588 10.6393 789 116.692 1031.45 456.063
796 0 76.275 12.6123 962 114.551 1031.07 453.257
797 0 80.0961 13.1217 1051 112.844 1031.17 452.549
798 0 82.2735 11.0364 908 116.047 1031.58 452.172
799 0 84.1589 10.599 892 116.012 1031.5 449.407
800 0 86.345 8.99879 777 117.283 1033.35 446.799
801 0 91.4892 11.9686 1095 113.743 1032.89 437.741
802 0 98.3291 13.5972 1337 109.199 1034.22 441.559
803 0 98.5417 11.8934 1172 112.576 1034.21 436.433
804 0 101.344 11.5349 1169 113.317 1034.04 436.458
805 0 105.573 11.5655 1221 113.1 1034.87 433.618
806 0 107.227 9.92285 1064 116.007 1035.25 433.875
807 0 112.876 10.011 1130 115.496 1035.91 429.837
808 0 114.475 7.74845 887 116.944 1036.16 437.471
809 0 122.359 12.2835 1503 113.285 1037.51 423.488
810 0 120.45 10.328 1244 121.811 1038.78 419.86
811 0 120.457 10.2443 1234 137.669 1039.8 419.894
812 0 129.542 14.5126 1880 115.779 1039.75 420.596
813 0 129.566 14.6026 1892 125.51 1039.75 420.517
814 0 136.577 10.4702 1430 123.007 1039.49 419.064
815 0 141.512 10.727 1518 122.422 1039.88 418.188
816 0 146.678 12.1559 1783 120.804 1038.48 417.176
817 0 149.622 13.093 1959 119.391 1040.09 415.374
818 0 156.263 12.7221 1988 120.972 1040.22 412.166
819 0 159.677 13.1703 2103 120.365 1040.19 408.576
820 0 162.664 10.9305 1778 123.142 1040.14 413.918
821 0 170.091 11.1587 1898 123.373 1039.41 409.022
822 0 176.979 12.8433 2273 120.635 1039.9 406.675
823 0 180.19 11.2825 2033 124.156 1039.64 402.535
824 1 143.065 11.0999 1588 120.046 1039.24 424.179
825 1 53.0797 10.8139 574 113.294 1039.33 468.887
826 0 55.1548 11.2048 618 112.869 1038.32 470.919
827 0 59.1113 16.3251 965 105.166 1039.38 468.107
828 0 53.0946 10.2647 545 112.644 1036.53 473.782
829 0 61.3296 9.47341 581 113.315 1034.88 471.886
830 0 58.1076 7.15913 416 115.875 1034.39 474.548
831 0 60.164 11.0199 663 110.053 1034.49 470.63
832 0 59.1735 13.0802 774 108.291 1034.17 466.23
833 0 65.126 11.209 730 110.671 1033.43 461.234
834 0 65.1594 11.5102 750 108.369 1032.71 467.331
835 0 68.1097 12.2596 835 108.381 1033.5 458.947
836 0 71.2261 13.0009 926 106.367 1031.3 453.285
837 0 74.2372 9.91417 736 110.149 1030.8 457.346
838 0 78.1733 13.2398 1035 107.193 1031.2 454.732
839 0 79.2233 9.10086 721 112.814 1030.8 455.644
840 0 82.1873 13.2259 1087 109.136 1031.56 449.509
841 0 87.2666 13.8541 1209 109.364 1033.58 445.933
842 0 87.1658 11.7936 1028 113.928 1034.11 443.498
843 0 92.2183 13.9126 1283 109.648 1034.72 443.891
844 0 91.2142 11.0838 1011 114.099 1034.38 443.74
845 0 91.2142 11.04 1007 134.661 1034.34 443.604
846 1 46.2554 7.09106 328 113.649 1033.27 455.591
847 0 51.5622 12.1601 627 105.987 1034.8 455.861
848 0 51.0712 12.0224 614 107.679 1033.07 455.049
849 0 54.0612 12.7263 688 110.531 1033.29 460.908
850 0 57.0584 14.3187 817 108.789 1034.01 456.513
851 0 58.0411 12.3361 716 112.056 1035.43 458.138
852 0 59.0588 12.6484 747 112.826 1034.95 456.825
853 0 59.2808 10.4587 620 117.323 1036.33 454.463
854 0 59.2808 10.5093 623 134.183 1037.34 454.376
855 0 64.0755 13.1407 842 113.398 1037.1 455.656
856 0 68.1308 16.5857 1130 107.177 1036.76 454.052
857 0 68.0634 13.1789 897 114.311 1037.88 454.925
858 0 72.1296 14.0164 1011 109.57 1037.75 458.683
859 0 71.2095 16.5568 1179 106.883 1039.12 458.865
860 0 75.1786 16.2413 1221 108.803 1038.63 452.227
861 0 79.2815 17.1919 1363 106.521 1039.41 455.944
862 0 79.2218 14.1123 1118 112.603 1039.18 455.297
863 0 81.2261 16.8788 1371 108.538 1038.14 453.674
864 0 85.1654 15.7576 1342 107.243 1039.57 459.052
865 1 44.0459 11.261 496 113.659 1038.2 476.812
866 0 44.0487 11.737 517 113.24 1037.67 476.499
867 0 48.0283 12.3677 594 110.576 1037.65 475.818
868 0 49.4294 15.5778 770 107.181 1036.92 471.877
869 0 50.1054 13.751 689 110.705 1039.26 475.039
870 0 51.1103 13.7154 701 110.649 1039.15 475.093
871 0 51.1103 13.8133 706 137.059 1040.13 475.225
872 0 53.0979 13.315 707 112.99 1038.08 470.171
873 0 56.09 13.7101 769 112.005 1037.46 470.594
874 0 55.0565 13.2591 730 113.521 1037.13 467.438
875 0 58.1568 13.4636 783 112.631 1036.52 466.008
876 0 59.1202 13.0581 772 113.873 1035.93 466.82
877 0 60.0911 13.3963 805 114.549 1035.35 463.442
878 0 64.1677 15.3816 987 110.561 1034.73 461.097
879 0 66.1887 16.2868 1078 109.262 1035.67 461.764
880 0 68.227 13.4991 921 112.819 1035.09 459.134
881 0 69.4213 13.3965 930 112.674 1035.14 459.255
882 0 72.172 15.9342 1150 108.91 1034.39 458.543
883 0 73.1971 13.1289 961 112.659 1034.43 454.271
884 0 76.2622 14.7911 1128 111.89 1034.12 451.234
885 0 78.2168 17.7839 1391 104.583 1035.11 450.007
886 0 80.1728 17.0881 1370 107.609 1034.7 437.982
887 0 86.2278 16.3868 1413 105.856 1035.01 449.752
888 0 85.1126 14.8627 1265 110.634 1036.16 441.96
889 0 89.1805 17.7281 1581 105.867 1035.9 444.39
890 0 92.1427 15.7907 1455 110.055 1037.02 431.04
891 0 96.2158 16.3279 1571 108.49 1037.47 440.686
892 1 50.1685 11.9398 599 112.337 1037.69 461.035
893 0 47.1576 11.8327 558 112.045 1038.2 456.038
894 0 46.1261 10.7965 498 111.809 1035.97 457.534
895 0 48.2492 9.78255 472 113.388 1037.19 457.816
896 0 51.1651 10.6322 544 113.096 1038.66 457.533
897 0 52.3286 12.6317 661 110.097 1038.45 457.918
898 0 54.2927 11.1433 605 112.364 1038.23 456.02
899 0 55.2544 10.877 601 113.201 1039.16 455.516
900 0 60.2526 14.8375 894 106.208 1039.61 456.697
901 0 60.2563 11.7166 706 110.04 1040.65 456.86
902 0 66.2334 13.2713 879 106.858 1040.22 458.462
903 0 66.3654 10.5326 699 112.266 1041.25 455.276
904 0 70.1958 11.7386 824 111.397 1040.4 435.233
905 0 71.3319 11.0329 787 112.241 1040.59 440.999
906 0 75.5452 14.7859 1117 103.381 1040.57 457.503
907 0 75.2551 12.7035 956 108.348 1040.38 451.574
908 0 79.3685 12.1963 968 108.91 1039.22 452.88
909 0 83.5044 16.1548 1349 102.981 1039.53 454.901
910 0 86.1508 13.5808 1170 108.101 1039.66 447.568
911 1 46.1239 10.32 476 106.246 1038.82 471.197
912 0 48.1913 11.2261 541 111.994 1037.9 462.732
913 0 53.1637 13.0916 696 108.602 1037.16 469.052
914 0 55.1558 16.8251 928 98.8901 1038.51 478.694
915 0 54.1942 12.7504 691 107.43 1038.54 473.695
916 0 56.1538 14.3178 804 104.991 1036.96 473.184
917 0 57.1384 15.0512 860 103.562 1037.02 474.769
918 0 59.2278 13.9462 826 107.001 1037.01 471.603
919 0 60.1556 15.809 951 103.855 1036.15 472.009
920 0 61.059 12.6926 775 110.138 1034.74 465.686
921 0 63.2917 12.4029 785 109.801 1034.5 465.603
922 0 65.0544 11.7133 762 111.819 1034.9 464.992
923 0 68.1252 17.0568 1162 103.743 1034.17 459.787
924 0 69.1854 12.9652 897 110.384 1034.59 459.968
925 0 70.2485 13.68 961 109.03 1034.78 459.639
926 0 73.1008 11.9424 873 111.506 1034.9 458.116
927 0 78.4069 18.3402 1438 101.821 1034.05 452.099
928 0 78.1028 13.5719 1060 109.249 1034.68 452.23
929 0 82.168 15.2006 1249 106.931 1036.04 451.339
930 0 82.168 15.2371 1252 143.167 1037 451.407
931 0 87.3563 16.6674 1456 105.85 1035.61 446.942
932 0 88.3883 13.1692 1164 112.759 1034.1 445.823
933 0 91.2124 16.4232 1498 107.581 1035.07 442.784
934 0 97.3522 16.0962 1567 107.564 1037.2 441.641
935 0 97.2176 14.4521 1405 110.663 1037.8 438.208
936 0 99.4126 13.9721 1389 113.118 1037.49 436.651
937 0 103.224 15.4712 1597 110.772 1038.66 435.353
938 0 104.411 14.3184 1495 113.636 1038.14 429.856
939 0 108.512 12.5147 1358 115.83 1038.21 430.49
940 0 115.482 13.7857 1592 112.557 1037.63 432.107
941 0 118.257 12.828 1517 114.895 1037.21 431.115
942 0 121.238 11.9765 1452 116.076 1037.15 432.796
943 1 62.1426 14.338 891 112.044 1037.08 455.979
944 0 66.1603 16.2786 1077 108.306 1038.89 455.484
945 0 66.1603 16.2786 1077 130.613 1039.89 455.484
946 0 68.1073 12.1866 830 115.931 1037.98 456.751
947 0 73.2155 14.0544 1029 111.817 1038.4 453.996
948 0 73.2155 14.0544 1029 131.725 1038.4 453.996
949 0 76.3015 14.2723 1089 112.272 1039.27 456.795
950 0 80.3926 14.0436 1129 112.88 1039.88 448.23
951 0 83.223 16.6661 1387 108.572 1039.4 455.11
952 0 86.4158 14.4071 1245 112.438 1039.3 456.206
953 0 87.3049 13.2868 1160 114.909 1039.33 456.392
954 0 92.5039 14.421 1334 113.079 1038.84 452.615
955 0 93.554 16.6856 1561 110.418 1038.96 450.52
956 0 98.6265 15.0568 1485 110.206 1038.9 447.774
957 1 50.4152 10.8697 548 114.553 1038.36 473.224
958 0 51.0185 9.29075 474 115.47 1037.32 477.051
959 0 51.0483 10.97 560 114.466 1036.85 475.266
960 0 53.1408 10.9709 583 114.165 1037.15 474.086
961 0 57.4764 11.3786 654 112.503 1033.39 464.3
962 0 58.4484 13.1056 766 111.499 1033.56 469.193
963 0 60.2852 13.4527 811 111.391 1033.11 470.678
964 0 60.2327 12.1197 730 113.555 1032.57 468.827
965 0 64.1531 13.9042 892 110.427 1032.35 462.934
966 0 64.1222 11.057 709 116.409 1031.84 462.574
967 0 67.2134 12.4678 838 113.568 1032.39 460.13
968 0 68.2674 14.7362 1006 109.844 1031.98 458.269
969 0 71.1799 12.9952 925 110.373 1030.96 460.369
970 0 71.2379 11.9599 852 113.458 1031.51 454.612
971 0 74.3328 12.9956 966 109.865 1031.66 453.178
972 0 73.2862 15.0233 1101 106.41 1032.61 446.323
973 0 80.3529 12.3829 995 110.861 1031.59 448.207
974 0 85.2816 16.7562 1429 103.508 1032.52 448.362
975 0 85.3257 15.7045 1340 107.45 1032.84 438.26
976 0 87.4025 13.9355 1218 109.912 1033.69 434.246
977 0 92.3455 14.7814 1365 108.599 1033.96 435.818
978 0 97.152 17.416 1692 104.852 1035.76 441.323
979 0 98.4672 15.0202 1479 107.501 1034.93 437.978
980 0 101.241 14.2334 1441 107.22 1035.47 437.475
981 1 48.1852 13.0538 629 111.701 1035.76 457.798
982 0 48.2641 12.9703 626 102.783 1037.08 455.083
983 0 51.1876 11.0378 565 104.717 1038.97 457.382
984 0 53.0958 13.3532 709 100.956 1038.29 452.018
985 0 57.0624 12.9683 740 101.532 1039.46 458.077
986 0 59.2009 13.243 784 99.6059 1039.78 453.276
987 0 59.3353 17.3927 1032 94.8798 1040.05 455.421
988 0 61.0689 14.803 904 99.8606 1038.86 457.105
989 0 61.0689 14.8848 909 117.089 1037.92 457.238
990 0 66.1012 17.7455 1173 95.1338 1039.64 452.942
991 0 70.3616 10.7161 754 99.7865 1040.35 450.414
992 0 69.1855 14.6996 1017 96.9852 1039.99 450.271
993 0 73.2222 15.3915 1127 98.0497 1041.54 453.373
994 0 74.206 11.4411 849 100.337 1040.73 454.529
995 0 77.2038 17.5251 1353 95.7664 1039.61 453.081
996 0 78.2968 11.9928 939 103.64 1040.28 452.995
997 0 82.2091 12.9548 1065 109.004 1039.35 453.219
998 0 87.3838 19.5345 1707 98.6813 1038.99 448.081
999 0 89.253 12.3469 1102 108.375 1038.44 449.866
1000 0 93.1176 15.5932 1452 107.598 1036.56 451.339
1001 0 98.319 16.5889 1631 106.284 1036.77 448.473
1002 0 98.2287 15.7388 1546 109.286 1034.7 450.244
1003 1 50.1744 11.48 576 108.547 1033.15 468.064
1004 0 51.3141 12.4917 641 102.672 1035.06 465.189
1005 0 54.0592 10.2665 555 107.814 1033.31 465.25
1006 0 54.0748 12.2978 665 106.997 1034.05 463.217
1007 0 57.2264 11.271 645 105.882 1033.89 464.698
1008 0 57.2264 11.2186 642 129.983 1032.89 464.656
1009 0 62.1711 13.3503 830 103.907 1034.13 459.426
1010 0 63.2369 12.7615 807 105.354 1033.87 456.777
1011 0 64.4204 14.2812 920 102.762 1033.83 459.795
1012 0 64.3418 11.0348 710 109.199 1034 453.944
1013 0 69.1732 14.5577 1007 103.692 1033.75 457.122
1014 0 70.1019 12.2108 856 109.019 1034.02 450.856
1015 0 74.0446 14.1131 1045 106.624 1027.53 441.248
1016 0 76.094 14.7843 1125 104.982 1029.15 444.231
1017 0 82.3391 19.2983 1589 98.5563 1033.19 446.394
1018 0 79.2376 14.6017 1157 107.618 1034.38 441.46
1019 0 82.2963 13.257 1091 109.522 1035.01 438.895
1020 0 85.1406 13.1312 1118 110.871 1035.39 439.14
1021 0 89.3838 15.6404 1398 107.755 1035.53 433.677
1022 0 95.4021 15.6496 1493 107.34 1036.59 434.551
1023 0 95.3978 16.3526 1560 107.388 1036.53 431.051
1024 0 98.4747 14.5113 1429 110.628 1036.39 427.115
1025 0 101.326 14.0833 1427 112.52 1038.68 427.502
1026 0 102.532 13.9469 1430 114.221 1037.95 429.128
1027 0 108.734 15.984 1738 116.721 1039.5 426.854
1028 1 56.142 11.1147 624 120.816 1037.64 455.471
1029 0 59.1342 13.9682 826 114.076 1037.79 455.512
1030 0 60.1018 13.0945 787 115.024 1036.97 455.751
1031 0 65.1772 15.3735 1002 110.219 1038.75 456.107
1032 0 65.1772 15.4348 1006 125.296 1039.77 456.091
1033 0 68.232 13.5274 923 113.687 1039.33 454.728
1034 0 72.1523 14.0813 1016 111.904 1038.81 458.912
1035 0 72.2814 13.2676 959 115.685 1039.34 457.493
1036 0 75.1237 14.0967 1059 112.956 1038.26 457.224
1037 0 78.123 14.5028 1133 112.992 1038.99 448.286
1038 0 82.1993 14.2824 1174 111.45 1038.89 450.64
1039 0 83.2997 12.6891 1057 113.939 1038.31 454.408
1040 0 88.4374 18.2276 1612 104.332 1037.91 458.109
1041 0 87.2607 13.3164 1162 113.245 1037.33 457.457
1042 0 94.2357 14.8988 1404 109.363 1036.49 459.924
1043 0 95.6476 14.9089 1426 111.487 1035.96 451.283
1044 0 97.2295 13.5556 1318 113.785 1035.33 453.029
1045 0 103.248 15.6711 1618 111.36 1034.36 447.99
1046 0 104.31 15.2239 1588 113.679 1034.5 446.02
1047 1 56.215 15.6364 879 110.728 1032.38 469.254
1048 0 56.35 11.0914 625 114.486 1033.53 466.938
1049 0 58.4038 11.7629 687 115.889 1032.98 466.563
1050 0 61.0931 15.2881 934 108.451 1031.52 468.158
1051 0 62.272 14.9184 929 109.771 1031.84 463.506
1052 0 62.272 14.9505 931 131.435 1031.85 463.523
1053 0 67.0812 15.0415 1009 109.363 1030.7 459.181
1054 0 67.1305 12.7364 855 113.013 1030.91 460.025
1055 0 70.1776 12.0409 845 113.911 1030.69 458.886
1056 0 72.1037 15.3945 1110 108.967 1031.06 456.841
1057 0 74.2605 12.7389 946 114.619 1031.03 454.741
1058 0 76.2688 14.6193 1115 110.223 1030.61 457.329
1059 0 78.1918 13.9017 1087 114.045 1030.95 451.579
1060 0 79.2044 13.4462 1065 116.094 1032.11 446.969
1061 0 84.1506 15.8882 1337 111.804 1032.13 446.535
1062 0 84.2152 16.5528 1394 111.935 1033.04 446.549
1063 0 89.1951 16.3238 1456 110.334 1032.8 444.515
1064 0 91.2101 14.209 1296 114.338 1033.84 441.795
1065 0 95.1896 14.4133 1372 112.321 1034.62 444.256
1066 0 96.4336 11.6764 1126 113.961 1036.05 421.325
1067 0 100.387 14.3345 1439 108.915 1035.74 427.969
1068 1 47.281 6.70459 317 116.662 1036.85 455.767
1069 0 51.3346 14.2009 729 104.812 1036.92 459.702
1070 0 52.3459 13.8502 725 110.457 1037.28 461.385
1071 0 57.1146 13.6392 779 108.738 1037.64 463.639
1072 0 57.1667 13.4344 768 109.806 1037.23 462.302
1073 0 60.0742 14.1325 849 109.362 1038.01 459.313
1074 0 59.208 11.6876 692 112.941 1038.65 461.12
1075 0 64.1193 12.5235 803 110.161 1038.35 460.073
1076 0 67.1348 15.2082 1021 105.972 1039.09 462.471
1077 0 68.1047 13.6261 928 109.456 1039.24 460.848
1078 0 71.2739 23.9639 1708 96.1393 1038.5 454.381
1079 0 73.194 11.9409 874 112.134 1038.94 456.833
1080 0 76.1468 14.0124 1067 108.386 1037.67 460.155
1081 0 77.1154 12.9157 996 110.799 1037.72 459.758
1082 0 81.1852 11.4922 933 112.046 1038.02 459.371
1083 0 84.2948 14.7696 1245 107.716 1037.98 458.665
1084 0 87.2508 12.4927 1090 110.69 1037.6 453.628
1085 0 90.2402 13.3865 1208 109.774 1037.13 453.671
1086 1 46.1315 12.7462 588 109.066 1035.73 477.1
1087 0 48.2017 10.5183 507 111.795 1035.75 476.049
1088 0 52.121 13.7565 717 105.77 1037.4 474.328
1089 0 53.1736 15.8349 842 103.494 1037.22 470.17
1090 0 57.181 13.8333 791 105.382 1036.01 474.148
1091 0 56.1818 11.4806 645 110.287 1036.51 470.234
1092 0 58.2053 11.322 659 109.86 1036.11 475.005
1093 0 59.1506 11.4623 678 110.494 1035.18 470.158
1094 0 59.235 13.0159 771 108.501 1033.8 468.684
1095 0 63.288 14.6947 930 105.504 1034.07 465.775
1096 0 63.288 14.8053 937 121.687 1034.06 465.765
1097 0 64.3637 15.2415 981 104.948 1033.54 465.353
1098 0 64.3911 15.4058 992 113.393 1033.52 465.272
1099 0 72.3301 15.3878 1113 104.408 1033.34 462.016
1100 0 72.2671 12.0663 872 110.523 1033.1 456.728
1101 0 77.3154 15.8701 1227 104.391 1033.4 458.271
1102 0 77.2128 14.6219 1129 107.063 1033.06 452.996
1103 0 81.2507 14.6583 1191 106.097 1033.27 454.647
1104 0 85.3317 13.4417 1147 106.866 1034.38 452.236
1105 0 84.1745 10.8822 916 111.066 1033.88 448.688
1106 0 89.3127 14.2645 1274 107.1 1034.67 444.409
1107 0 90.3611 11.3212 1023 111.178 1032.93 444.771
1108 0 95.4035 12.683 1210 107.974 1035.86 444.338
1109 0 99.2942 16.2648 1615 103.259 1035.31 439.048
1110 0 101.504 12.0685 1225 108.194 1036.84 440.838
1111 1 53.0399 11.2934 599 107.102 1038.15 452.646
1112 0 56.3373 11.6264 655 107.302 1038.87 453.302
1113 0 59.4081 12.4225 738 105.068 1036.41 455.986
1114 0 58.1054 18.7074 1087 98.1288 1035.47 463.12
1115 0 61.1662 13.962 854 106.151 1036.36 457.193
1116 0 63.1666 16.1478 1020 102.614 1036.92 458.126
1117 0 65.2831 14.5367 949 103.574 1036.1 461.921
1118 0 67.0531 13.3327 894 107.417 1037.48 457.315
1119 0 68.2893 12.5642 858 108.934 1035.95 452.31
1120 0 67.1506 11.988 805 110.082 1037.15 455.344
1121 0 74.2072 11.9126 884 110.231 1036.23 455.437
1122 0 75.2397 13.9554 1050 107.652 1036.89 456.496
1123 0 75.3762 11.3829 858 111.66 1036.1 455.895
1124 0 79.3355 12.1131 961 110.633 1035.69 451.086
1125 0 82.2762 12.6403 1040 108.157 1035.87 456.357
1126 0 84.2377 13.082 1102 109.27 1035.84 450.807
1127 1 41.1283 7.95072 327 112.214 1035.09 477.703
1128 0 43.0372 11.1996 482 104.68 1033.44 481.448
1129 0 43.0372 11.0602 476 112.546 1031.41 481.481
1130 0 47.2267 12.7682 603 104.366 1033.11 474.257
1131 0 47.312 11.6038 549 105.621 1032.89 475.9
1132 0 50.1494 12.044 604 104.755 1031.67 474.921
1133 0 50.197 15.1204 759 102.194 1031.17 473.672
1134 0 53.3327 13.5002 720 102.856 1029.53 471.543
1135 0 53.1486 11.2327 597 108.186 1030.64 470.561
1136 0 54.2266 13.5542 735 103.846 1029.7 470.024
1137 0 55.1586 11.6935 645 106.098 1029.62 468.609
1138 0 56.2805 14.0191 789 103.267 1029.89 470.435
1139 0 59.3612 12.3818 735 105.544 1029.06 468.739
1140 0 58.21 13.8464 806 104.634 1029.2 466.532
1141 0 61.2351 15.6773 960 103.128 1029.17 464.255
1142 0 62.2134 13.6144 847 106.655 1029.4 462.519
1143 0 64.2878 13.7196 882 106.336 1029.23 463.164
1144 0 68.3637 15.1104 1033 104.496 1029.57 460.865
1145 0 69.3221 14.209 985 106.447 1030.24 454.072
1146 0 70.2156 16.2499 1141 104.815 1030.03 452.724
1147 0 75.1465 23.3943 1758 95.979 1029.91 452.408
1148 0 74.4169 16.8644 1255 104.45 1030.54 452.633
1149 0 76.1602 15.6644 1193 107.315 1033.12 448.305
1150 1 39.0401 13.9088 543 107.687 1033.92 469.923
1151 0 39.0854 9.85024 385 115.094 1035.01 470.073
1152 0 32.0442 5.30518 170 119.794 1035.42 469.465
1153 0 43.0448 12.1966 525 113.366 1035.53 450.063
1154 0 43.0448 12.1734 524 129.616 1035.52 450.09
1155 0 46.1984 12.6411 584 112.24 1037.02 452.56
1156 0 49.2753 14.7132 725 109.305 1036.76 450.179
1157 0 52.1222 14.255 743 107.705 1038.04 457.039
1158 0 52.2153 13.1954 689 110.972 1038.41 456.663
1159 0 54.0329 12.1778 658 108.298 1038.97 462.372
1160 0 52.0609 11.6402 606 113.716 1038.27 459.675
1161 0 56.1417 13.1988 741 109.146 1040.07 465.862
1162 0 57.1927 15.2992 875 107.461 1039.14 462.535
1163 0 59.0936 13.064 772 110.382 1040.13 466.003
1164 0 61.135 12.5133 765 111.024 1038.55 467.37
1165 0 63.1812 12.4404 786 112.226 1039.13 464.523
1166 0 67.3329 20.0645 1351 101.157 1039.3 466.794
1167 0 69.2769 16.167 1120 104.785 1039.23 468.063
1168 0 72.2346 15.3666 1110 107.362 1038.83 457.688
1169 0 74.2625 18.2595 1356 104.937 1039.05 449.426
1170 0 75.1874 14.0715 1058 112.582 1038.33 451.874
1171 0 76.3198 14.9109 1138 110.527 1037.71 461.463
1172 0 79.2406 19.4597 1542 104.514 1037.45 461.123
1173 0 83.2873 12.739 1061 115.163 1036.71 460.713
1174 1 46.2023 13.2028 610 110.526 1036.95 483.211
1175 0 44.155 10.599 468 116.1 1035.96 481.658
1176 0 45.0216 10.5061 473 119.366 1034.86 474.397
1177 0 45.3384 12.1751 552 119.362 1032.09 472.388
1178 0 45.2925 14.7928 670 114.975 1031.34 475.078
1179 0 48.4406 12.4895 605 117.41 1030.82 477.498
1180 0 51.2816 13.9426 715 115.376 1030.79 472.522
1181 0 52.0465 14.5063 755 114.148 1031.84 473.044
1182 0 52.0637 17.8435 929 109.799 1032.34 473.122
1183 0 55.0509 13.8417 762 117.134 1032.73 473
1184 0 58.0702 17.5649 1020 109.329 1032.27 470.724
1185 0 59.1378 13.5785 803 115.927 1031.98 468.568
1186 0 61.0788 15.57 951 113.383 1031.45 462.039
1187 0 63.1964 16.1876 1023 112.847 1032.46 457.576
1188 0 63.1964 16.1876 1023 140.862 1032.44 457.647
1189 0 66.1796 16.5761 1097 113.758 1031.4 453.211
1190 0 65.1293 13.7572 896 120.277 1032.64 453.967
1191 0 70.2898 18.0965 1272 111.095 1033.93 454.257
1192 0 72.0789 16.3293 1177 115.054 1033.45 451.994
1193 0 75.1764 16.1886 1217 116.145 1034.58 447.569
1194 0 78.187 16.5629 1295 116.33 1035.71 445.412
1195 0 81.2552 14.3745 1168 120.254 1035.1 444.043
1196 0 84.3655 14.6979 1240 119.127 1036.19 445.73
1197 1 42.2156 9.64098 407 126.843 1034.54 465.818
1198 0 45.3089 11.2561 510 123.355 1033.98 468.433
1199 0 45.1157 12.5455 566 124.59 1034.5 464.136
1200 0 49.0786 13.8553 680 121 1034.9 463.604
1201 0 51.113 12.443 636 124.176 1035.11 461.247
1202 0 51.1221 13.2037 675 123.921 1035.84 464.231
1203 0 53.1195 13.1402 698 123.423 1035.66 465.087
1204 0 54.3131 12.9987 706 121.453 1035.87 462.024
1205 0 56.1454 12.7704 717 121.679 1035.93 462.292
1206 0 57.2872 17.0719 978 114.391 1036.31 466.041
1207 0 61.2375 15.0561 922 116.131 1036.03 461.38
1208 0 62.1157 14.8272 921 118.75 1036.16 463.342
1209 0 64.2364 12.7031 816 122.415 1036.22 465.164
1210 0 67.2192 15.0999 1015 115.676 1036.07 464.547
1211 0 68.278 12.6834 866 120.809 1035.12 463.947
1212 0 70.2244 12.2607 861 121.58 1036.12 463.459
1213 0 74.1367 14.4328 1070 117.364 1035.33 460.909
1214 0 78.3878 16.6735 1307 112.962 1035.45 461.211
1215 0 79.2687 13.0064 1031 122.174 1035.74 457.763
1216 1 45.0602 11.4735 517 116.538 1033.37 481.752
1217 0 43.1302 8.62505 372 124.137 1033.62 481.425
1218 0 45.0685 11.4049 514 121.105 1032.77 477.626
1219 0 46.1992 9.71878 449 122.318 1033.04 478.16
1220 0 49.3665 11.6678 576 116.212 1034.03 471.948
1221 0 48.0659 12.5037 601 115.126 1033.86 476.642
1222 0 53.2696 13.0844 697 113.755 1033.65 472.986
1223 0 52.1847 15.3877 803 110.827 1032.71 469.979
1224 0 53.2172 13.8677 738 112.798 1032.24 468.347
1225 0 53.3496 10.1969 544 121.89 1032.1 460.934
1226 0 56.1129 13.2055 741 117.201 1030.77 469.404
1227 0 59.1094 14.4309 853 114.365 1031.61 467.351
1228 0 59.1106 14.2952 845 115.24 1031.28 465.241
1229 0 63.2724 15.9311 1008 112.014 1031.94 460.62
1230 0 63.4014 11.9714 759 119.706 1031.64 458.394
1231 0 68.2808 12.6683 865 117.182 1031.92 459.882
1232 0 67.1665 12.7147 854 118.525 1031.88 457.136
1233 0 70.1752 13.5945 954 116.819 1033.03 455.367
1234 0 71.1626 11.8883 846 121.203 1033.74 453.076
1235 0 75.3104 16.8237 1267 112.327 1033.77 448.553
1236 0 77.1618 14.2428 1099 117.868 1033.61 447.793
1237 0 79.2877 12.7258 1009 120.278 1035.6 438.432
1238 0 83.3758 15.9759 1332 114.854 1034.77 434.462
1239 0 84.2363 15.504 1306 117.989 1036.18 431.221
1240 1 47.2501 9.37564 443 125.287 1036.97 455.104
1241 0 48.1787 12.3291 594 122.279 1038.4 458.636
1242 0 47.1671 9.85856 465 121.54 1038.71 454.697
1243 0 53.0278 13.9172 738 110 1036.77 462.301
1244 0 49.0262 10.3618 508 118.051 1038.76 450.813
1245 0 52.1052 11.0546 576 115.286 1039.39 451.288
1246 0 55.354 11.309 626 113.516 1039.45 460.109
1247 0 56.3211 12.8194 722 112.713 1040.33 458.302
1248 0 58.1468 11.6601 678 114.058 1040.27 459.771
1249 0 61.2267 12.3965 759 111.466 1040.27 457.357
1250 0 57.1155 8.71917 498 118.484 1041.13 457.974
1251 0 66.1701 14.0698 931 108.843 1041.15 451.45
1252 0 67.2757 11.8468 797 112.394 1040.2 447.566
1253 0 68.0659 10.4458 711 113.66 1039.68 459.084
1254 0 71.2208 12.1875 868 112.241 1038.77 456.486
1255 0 74.1088 13.4397 996 109.641 1038.29 454.06
1256 0 79.2017 13.4972 1069 109.398 1038.56 458.345
1257 0 81.304 12.5332 1019 111.539 1038.71 454.57
1258 0 83.1474 10.9324 909 114.249 1038.21 456.805
1259 0 89.0954 13.9177 1240 109.306 1037.43 456.002
1260 0 91.1705 12.4163 1132 114.261 1035.28 457.369
1261 1 47.0558 12.0495 567 113.328 1036.18 475.45
1262 0 44.1506 9.05991 400 119.148 1035.25 475.058
1263 0 49.1721 13.6866 673 109.312 1034.6 473.195
1264 0 49.1496 13.6726 672 111.307 1033.62 473.222
1265 0 51.0387 9.5026 485 116.384 1030.99 474.118
1266 0 52.1718 8.8937 464 116.494 1031.26 473.522
1267 0 55.052 13.6598 752 109.266 1030.87 471.705
1268 0 55.0881 13.3786 737 109.715 1029.92 467.742
1269 0 57.095 13.4162 766 109.232 1030.28 467.91
1270 0 58.0528 11.6446 676 112.617 1028.69 464.262
1271 0 64.1215 11.1507 715 112.304 1030.04 462.775
1272 0 62.1308 13.6969 851 108.705 1029.8 462.001
1273 0 65.0691 10.9576 713 112.44 1029.96 458.623
1274 0 70.149 13.7992 968 107.967 1030.29 459.291
1275 0 71.1405 12.7635 908 108.885 1031.08 453.63
1276 0 72.2014 10.5815 764 111.812 1030.97 449.145
1277 0 74.2314 10.4807 778 110.915 1032.1 453.384
1278 0 78.2125 12.3893 969 109.188 1031.92 448.577
1279 0 81.1495 10.9428 888 110.664 1032.47 451.4
1280 0 83.0906 11.4213 949 109.704 1032.98 447.93
1281 0 86.1903 12.658 1091 107.592 1034.04 445.836
1282 0 88.4764 12.6022 1115 107.647 1034.47 442.79
1283 0 92.0514 12.3735 1139 107.234 1035.84 445.617
1284 1 51.3506 13.476 692 107.215 1038.72 405.864
1285 0 50.2299 10.5913 532 111.695 1038.05 415.946
1286 0 51.2174 11.2267 575 110.911 1038.78 420.179
1287 0 48.1551 6.56213 316 112.199 1038.66 442.459
1288 0 51.0926 8.98369 459 105.773 1038.33 459.072
1289 0 52.1382 12.4285 648 102.066 1038.8 457.384
1290 0 53.1357 8.03603 427 107.944 1039.07 461.682
1291 0 56.1514 13.8554 778 101.393 1039.61 456.978
1292 0 58.0798 13.9635 811 101.327 1039.76 456.837
1293 0 61.0872 9.11812 557 110.797 1041.05 463.95
1294 0 66.0899 11.4238 755 109.332 1041.67 467.728
1295 0 68.0696 17.3499 1181 102.809 1041.15 463.911
1296 0 70.1527 13.4279 942 109.38 1040.06 463.988
1297 0 72.1827 12.3437 891 110.651 1040.23 465.47
1298 0 76.1359 16.1816 1232 105.988 1040.25 463.703
1299 0 76.065 16.3676 1245 106.343 1040.33 458.308
1300 0 79.169 12.947 1025 113.814 1039.96 459.966
1301 0 83.2365 14.9093 1241 109.59 1039.32 463.606
1302 0 81.1656 13.4663 1093 141.834 1038.19 461.611
1303 0 88.2904 13.3084 1175 112.54 1037.69 453.372
1304 0 91.1014 17.0799 1556 107.039 1036.5 452.977
1305 0 94.3035 13.1915 1244 113.138 1035.21 453.19
1306 1 47.1601 10.4962 495 117.521 1035.33 475.218
1307 0 47.1601 10.5174 496 145.246 1034.36 475.256
1308 0 56.2408 13.46 757 113.318 1031.4 471.771
1309 0 54.2801 13.5409 735 116.556 1033.3 467.845
1310 0 57.4618 14.2356 818 114.416 1032.45 467.079
1311 0 57.3242 12.9788 744 118.04 1031.28 463.417
1312 0 57.3242 13.1009 751 164.668 1031.28 463.304
1313 0 61.0686 13.2801 811 117.978 1029.78 461.954
1314 0 63.0816 15.044 949 115.109 1029.8 461.396
1315 0 67.0354 12.9931 871 117.479 1030.28 459.328
1316 0 68.0934 14.1423 963 115.504 1029.71 455.571
1317 0 70.0706 14.5567 1020 114.007 1030.18 457.603
1318 0 72.1579 15.4106 1112 113.838 1031.06 450.065
1319 0 74.1532 18.5832 1378 108.557 1031.45 451.515
1320 0 77.1364 13.9234 1074 116.559 1030.98 449.309
1321 0 80.1126 16.0025 1282 111.367 1033.12 448.984
1322 0 78.2274 12.5532 982 115.33 1032.45 443.793
1323 0 79.1368 11.8529 938 118.289 1033.86 438.408
1324 0 83.1312 12.8472 1068 115.46 1034.59 441.272
1325 0 86.308 13.6604 1179 115.57 1035.88 438.905
1326 0 90.1833 13.772 1242 116.262 1036.33 414.534
1327 0 92.1233 11.9297 1099 120.268 1036.02 413.905
1328 0 96.1433 15.7161 1511 111.827 1036.97 433.488
1329 0 97.1237 13.2305 1285 116.396 1037.9 434.24
1330 1 50.1856 9.60434 482 114.183 1038.76 461.112
1331 0 52.2074 12.8143 669 116.891 1040.08 463.309
1332 0 55.1448 10.7172 591 115.672 1040.27 466.354
1333 0 54.1232 10.6793 578 116.564 1041.17 467.524
1334 0 58.0686 14.0007 813 109.903 1039.72 468.006
1335 0 61.0811 15.5531 950 107.308 1040.77 467.787
1336 0 61.12 13.7107 838 110.081 1040.59 467.675
1337 0 63.1426 13.5091 853 111.033 1039.74 466.641
1338 0 68.6325 15.9545 1095 105.462 1039.74 468.352
1339 0 70.0548 14.0319 983 108.89 1039.18 468.462
1340 0 71.0761 14.7448 1048 108.776 1038.75 464.946
1341 0 73.2641 12.762 935 111.258 1038.42 462.951
1342 0 77.2054 13.8462 1069 108.312 1037.37 464.612
1343 0 79.3895 14.3092 1136 108.292 1037.49 460.797
1344 0 78.2286 12.4251 972 111.382 1034.77 462.441
1345 0 85.1212 14.9904 1276 107.204 1034.67 462.848
1346 0 89.6427 15.0486 1349 107.856 1033.8 457.305
1347 0 90.5573 13.9249 1261 115.014 1033.26 443.199
1348 0 92.4108 15.9722 1476 112.394 1032.95 434.232
1349 1 48.3446 11.1491 539 118.675 1031.29 463.366
1350 0 49.4425 13.5713 671 117.043 1030.47 461.103
1351 0 50.2074 11.3529 570 120.628 1029.75 465.509
1352 0 53.4157 15.0143 802 113.388 1030.07 468.671
1353 0 54.5553 13.0876 714 116.014 1030.42 469.176
1354 0 57.3008 12.3558 708 117.386 1030.41 465.058
1355 0 57.3496 13.0079 746 117.042 1029.89 463.114
1356 0 60.1078 11.4295 687 122.882 1029.13 461.195
1357 0 61.0859 14.0294 857 114.54 1029.96 462.319
1358 0 64.2086 13.2069 848 115.892 1029.91 459.491
1359 0 65.0376 11.1628 726 118.822 1030.19 458.201
1360 0 68.1372 12.0492 821 116.732 1029.95 456.862
1361 0 71.1135 14.5261 1033 111.061 1030.2 458.984
1362 0 71.1135 14.4839 1030 131.839 1029.23 459.074
1363 0 73.3373 9.96764 731 113.29 1031.07 449.39
1364 0 77.6023 13.5305 1050 108.419 1032.27 443.368
1365 0 77.3737 11.1537 863 111.835 1033.54 440.414
1366 0 79.4072 11.3088 898 113.673 1033.79 432.79
1367 0 83.4637 12.2568 1023 111.381 1035.68 440.657
1368 0 89.3615 14.5253 1298 110.089 1036.31 441.593
1369 1 45.2369 10.3898 470 113.972 1036.98 463.415
1370 0 49.2117 12.05 593 111.116 1034.47 460.197
1371 0 49.0694 11.0456 542 115.114 1037.99 460.244
1372 0 51.0297 11.993 612 111.346 1036.09 464.534
1373 0 52.1578 15.4339 805 107.025 1036.04 464.779
1374 0 53.141 13.0784 695 111.243 1035.57 465.383
1375 0 55.083 15.4494 851 106.369 1036.62 467.038
1376 0 54.1423 10.4539 566 115.853 1036.8 465.117
1377 0 58.0693 9.66088 561 118.18 1037.48 465.346
1378 0 61.1175 12.3533 755 113.458 1036.77 466.285
1379 0 63.2045 15.4419 976 109.037 1037.65 461.186
1380 0 65.1062 13.6546 889 110.414 1036.58 467.584
1381 0 68.1303 13.4448 916 111.549 1036.48 461.095
1382 0 70.2614 12.2685 862 113.205 1035.89 463.066
1383 0 73.2007 12.4452 911 112.54 1036.58 461.735
1384 0 71.2149 11.7672 838 113.779 1035.86 463.976
1385 0 78.1156 11.0477 863 114.254 1035.8 464.983
1386 0 77.281 13.1856 1019 113.716 1034.71 455.452
1387 0 84.551 14.5593 1231 110.628 1035.55 452.233
1388 0 81.1997 10.0862 819 113.999 1035.31 452.447
1389 1 41.1579 7.72633 318 105.758 1033.84 479.513
1390 0 42.0441 8.99057 378 111.595 1034.06 469.807
1391 0 47.4612 13.0844 621 105.834 1033.21 446.565
1392 0 45.1194 9.8184 443 113.781 1033.93 452.553
1393 0 45.2091 10.551 477 113.604 1033.13 470.109
1394 0 47.1506 8.71675 411 115.861 1033.05 470.404
1395 0 48.0264 12.7013 610 111.248 1032.48 468.543
1396 0 48.1731 9.0507 436 118.544 1032.4 462.75
1397 0 52.1362 11.1823 583 115.748 1033.04 462.05
1398 0 56.1046 10.5161 590 114.008 1031.59 464.297
1399 0 56.2385 11.5757 651 112.253 1032.4 460.17
1400 0 57.0678 12.4063 708 111.938 1032.04 458.667
1401 0 58.0995 9.1395 531 117.734 1032.36 455.397
1402 0 62.1125 12.4291 772 112.203 1032.31 457.646
1403 0 63.1634 12.5706 794 113.252 1033.08 451.632
1404 0 66.2594 12.3605 819 113.416 1032.73 453.298
1405 0 69.0911 13.4894 932 112.156 1033.3 452.279
1406 0 72.1548 13.7621 993 112.08 1034.17 451.76
1407 0 76.0882 15.7317 1197 110.397 1035.05 452.722
1408 0 76.4415 12.0223 919 113.798 1034.71 431.318
1409 0 80.7801 16.6378 1344 107.23 1035.4 430.358
1410 0 82.9339 11.8408 982 115.605 1036.55 438.317
1411 0 86.7776 14.9923 1301 111.081 1037.13 438.584
1412 0 86.4981 15.8616 1372 112.359 1037.65 437.087
1413 1 48.4861 11.3228 549 113.648 1038.35 464.614
1414 0 50.6289 11.5349 584 114.877 1038.9 463.308
1415 0 53.597 13.1164 703 110.836 1039.26 465.319
1416 0 49.5066 11.0288 546 117.74 1039.52 465.98
1417 0 52.2591 15.538 812 110.091 1040.02 462.615
1418 0 55.3692 15.2431 844 110.68 1039.95 465.847
1419 0 55.3692 15.1528 839 137.365 1039.96 465.89
1420 0 56.1398 12.5936 707 115.027 1039.87 471.177
1421 0 59.1666 17.662 1045 108.109 1040.18 466.776
1422 0 59.3279 13.535 803 116.111 1040.15 469.592
1423 0 63.247 14.4829 916 116.651 1039.86 446.74
1424 0 62.1488 13.9343 866 118.449 1039.07 448.954
1425 0 65.2436 14.6834 958 115.403 1038.83 454.768
1426 0 66.1084 13.5384 895 118.541 1038.23 458.508
1427 0 70.4541 14.3924 1014 116.221 1037.89 461.915
1428 0 72.4818 15.5763 1129 144.337 1036.71 459.875
1429 0 74.1568 16.0201 1188 114.399 1037.35 454.137
1430 0 75.1832 13.5802 1021 120.406 1035.44 453.353
1431 0 77.3963 11.7447 909 122.893 1035.31 454.248
1432 0 80.2011 14.0272 1125 119.406 1033.85 455.185
1433 0 84.2712 14.3109 1206 118.819 1034.75 456.129
1434 0 84.341 12.2242 1031 123.243 1033.44 453.039
1435 0 90.3149 16.83 1520 113.153 1033.46 452.348
1436 1 45.1046 11.2184 506 126.032 1032.89 470.425
1437 0 50.0385 10.8316 542 124.692 1033.83 471.162
1438 0 48.0695 11.4834 552 119.603 1033.48 469.194
1439 0 54.1618 13.1643 713 117.999 1032.71 470.557
1440 0 54.1257 14.7619 799 114.365 1029.44 470.867
1441 0 56.0494 12.9707 727 117.611 1029.41 467.206
1442 0 57.2267 16.2337 929 112.527 1029.42 464.371
1443 0 60.117 12.6586 761 118.524 1029.81 462.76
1444 0 63.1598 17.4636 1103 110.023 1029.78 462.204
1445 0 63.4191 17.5814 1115 109.995 1030.67 461.682
1446 0 65.2291 13.1077 855 118.909 1030.88 457.216
1447 0 69.1832 16.7815 1161 112.69 1031.87 454.546
1448 0 70.1667 14.6651 1029 116.707 1030.97 452.719
1449 0 71.2424 17.5879 1253 110.154 1032.11 450.76
1450 0 72.1201 11.3006 815 121.155 1032.6 453.501
1451 0 77.1776 14.9136 1151 113.695 1032.74 451.475
1452 0 78.2664 13.1474 1029 119.121 1033.8 446.767
1453 0 81.621 13.6729 1116 117.32 1033.84 442.625
1454 0 81.2934 15.1181 1229 114.939 1036.66 445.054
1455 0 84.1743 15.1353 1274 115.282 1036.5 442.305
1456 0 84.1577 12.0845 1017 122.802 1037.69 439.916
1457 0 85.2611 13.9806 1192 120.749 1038.43 441.817
1458 0 90.2779 14.1563 1278 120.977 1038.11 441.207
1459 0 93.2932 13.7416 1282 121.812 1038.94 442.233
1460 0 96.3179 15.262 1470 120.612 1039.2 440.067
1461 0 97.2913 12.9508 1260 126.438 1039.63 442.25
1462 0 102.154 17.454 1783 123.886 1039.05 442.336
1463 0 106.287 15.7028 1669 127.109 1039.04 444.146
1464 0 111.897 15.5857 1744 126.728 1039.91 445.462
1465 0 114.629 14.2372 1632 130.815 1039.52 443.564
1466 0 118.611 18.2697 2167 123.214 1040.08 439.239
1467 1 63.2636 10.9384 692 134.695 1038.26 468.425
1468 0 67.4055 12.7734 861 131.022 1037.35 465.448
1469 0 67.2015 11.9343 802 128.14 1036.96 460.713
1470 0 70.3602 15.0085 1056 115.902 1036.83 464.854
1471 0 72.5247 13.7195 995 119.949 1035.94 460.524
1472 0 77.6405 17.0272 1322 113.742 1035.48 460.12
1473 0 78.2443 15.0426 1177 118.677 1035.17 454.614
1474 0 79.1077 13.8672 1097 121.694 1034.87 453.641
1475 0 81.0703 14.2962 1159 123.186 1034.71 455.567
1476 0 84.1256 13.2302 1113 124.893 1034 454.618
1477 0 87.2391 16.8502 1470 117.416 1033.77 454.278
1478 0 89.1159 13.8359 1233 124.324 1032.84 445.489
1479 0 93.2486 16.0968 1501 119.077 1033.5 445.444
1480 1 47.0675 12.7476 600 119.29 1031.88 468.273
1481 0 49.0307 11.8089 579 120.905 1032.14 468.145
1482 0 51.2131 13.1021 671 114.426 1031.14 465.863
1483 0 51.1434 9.81554 502 125.793 1032.35 464.384
1484 0 54.1349 12.1733 659 121.199 1031.45 463.182
1485 0 56.0503 12.5601 704 120.565 1031.98 459.568
1486 0 57.1297 12.4629 712 119.354 1031.99 459.375
1487 0 60.1099 14.7563 887 114.308 1031.97 458.056
1488 0 59.369 14.6204 868 116.673 1031.78 451.793
1489 0 61.1473 13.721 839 117.265 1032.48 456.718
1490 0 63.4269 12.5972 799 120.011 1032.74 450.079
1491 0 66.2468 14.7328 976 116.251 1033.09 446.491
1492 0 68.2675 11.4696 783 121.802 1034.41 446.662
1493 0 70.2273 12.6447 888 119.852 1034.7 440.019
1494 0 73.2729 12.1873 893 121.327 1034.49 437.634
1495 0 80.4518 13.8841 1117 117.151 1035.5 436.815
1496 1 44.0402 10.0817 444 116.329 1036.84 456.732
1497 0 43.1464 11.3103 488 115.242 1038.29 456.217
1498 0 47.0918 10.9998 518 111.786 1036.83 461.805
1499 0 46.3699 13.6942 635 109.787 1037.96 460.2
1500 0 50.3482 11.7581 592 111.507 1037.22 460.718
1501 0 50.3909 12.7999 645 110.55 1038.28 461.637
1502 0 53.2958 10.9765 585 113.032 1037.71 459.137
1503 0 55.4499 14.1028 782 111.087 1037.68 463.419
1504 0 52.2777 10.6164 555 117.052 1037.42 462.458
1505 0 57.1879 14.8983 852 112.113 1037.86 462.728
1506 0 59.2002 12.8547 761 113.838 1038.22 462.761
1507 0 60.2671 10.9347 659 117.385 1036.05 462.918
1508 0 59.2223 12.2758 727 115.675 1037.37 466.323
1509 0 65.2494 15.2952 998 110.666 1036.82 465.728
1510 0 64.1819 10.7039 687 116.623 1037.03 462.284
1511 0 69.1491 15.6329 1081 110.081 1036.68 444.924
1512 0 69.3669 13.4646 934 112.656 1035.99 458.654
1513 0 71.1915 14.0185 998 112.789 1036.1 458.834
1514 0 76.2326 12.9079 984 113.384 1035.55 459.955
1515 0 78.2572 11.7689 921 115.254 1035.08 460.008
1516 0 83.3057 15.041 1253 109.562 1033.86 460.437
1517 0 83.0992 15.4755 1286 108.902 1033.22 458.76
1518 0 86.2606 10.9552 945 117.252 1033.02 455.229
1519 0 87.1312 16.8481 1468 112.253 1031.87 450.961
1520 1 44.0611 9.46413 417 120.719 1030.72 475.621
1521 0 48.0589 10.3831 499 115.12 1030.58 471.938
1522 0 48.099 11.8713 571 112.897 1029.67 473.995
1523 0 49.0857 13.5477 665 108.084 1030.11 470.174
1524 0 52.2738 12.798 669 106.496 1029.37 463.617
1525 0 52.1171 12.7405 664 107.881 1029.27 461.324
1526 0 54.0567 10.9145 590 109.717 1029.58 462.366
1527 0 53.2541 11.755 626 110.096 1029.09 457.971
1528 0 54.1781 8.02908 435 116.011 1029.17 456.113
1529 0 58.2773 12.1317 707 109.914 1029.34 454.672
1530 0 60.094 14.2111 854 106.701 1030.31 453.789
1531 0 60.094 14.1279 849 112.313 1032.31 453.764
1532 0 64.1076 12.5258 803 109.64 1031.09 450.455
1533 0 63.2942 11.6756 739 112.751 1030.64 450.206
1534 0 68.1952 13.9599 952 109.085 1031.31 448.591
1535 0 68.1952 13.9159 949 117.233 1031.28 448.521
1536 0 67.2169 19.8313 1333 102.026 1032.69 450.06
1537 0 72.1153 14.6432 1056 110.372 1033.27 443.002
1538 0 75.232 16.2298 1221 107.808 1034.98 443.696
1539 0 78.2704 13.019 1019 115.283 1035.17 443.586
1540 0 78.1411 11.5816 905 118.317 1035.71 442.452
1541 0 79.1342 12.978 1027 119.289 1036 440.469
1542 0 86.1207 13.0631 1125 118.4 1036.75 439.254
1543 0 87.5925 16.885 1479 111.124 1037.2 442.639
1544 1 45.2597 9.2135 417 114.734 1038.63 461.588
1545 0 48.1402 8.62065 415 115.87 1039.58 462.583
1546 0 50.0172 14.0752 704 106.932 1037.42 466.592
1547 0 50.0763 12.4809 625 111.928 1037.43 465.306
1548 0 48.1892 9.96073 480 113.038 1038.55 463.227
1549 0 53.1677 9.38539 499 114.543 1038.19 462.996
1550 0 53.1058 12.5787 668 110.669 1038.21 466.205
1551 0 53.1718 11.9612 636 113.303 1037.29 463.429
1552 0 55.3775 13.6518 756 109.724 1037.61 462.491
1553 0 58.1489 9.9056 576 113.396 1037.81 466.788
1554 0 61.203 10.5224 644 114.77 1037.21 462.252
1555 0 62.1421 12.0208 747 111.158 1036.71 466.137
1556 0 67.1518 13.611 914 110.179 1036.56 461.094
1557 0 71.1795 13.4449 957 107.52 1036.49 464.413
1558 0 71.2243 9.19629 655 114.985 1035.93 459.886
1559 0 74.1495 14.0527 1042 107.512 1034.26 460.654
1560 0 79.2075 12.8902 1021 108.557 1032.95 457.708
1561 0 81.2368 13.7376 1116 107.972 1033.35 454.147
1562 0 79.1421 8.92066 706 113.565 1033.37 461.506
1563 0 83.1393 13.1226 1091 110.962 1033.33 450.352
1564 1 43.1397 9.57355 413 118.562 1033.78 472.763
1565 0 46.0242 12.1675 560 114.525 1032.9 474.689
1566 0 47.0415 11.5005 541 114.649 1033.04 469.159
1567 0 50.1002 12.6347 633 110.362 1032.05 473.741
1568 0 51.2334 14.3656 736 108.457 1032.06 459.148
1569 0 53.2522 12.3563 658 112.641 1031.71 456.198
1570 0 55.1565 15.5376 857 106.75 1031.23 459.356
1571 0 55.1983 13.5511 748 110.837 1030.18 465.188
1572 0 55.1287 14.6203 806 110.035 1029.46 465.11
1573 0 58.0939 16.0774 934 107.86 1030.02 463.338
1574 0 56.176 11.1257 625 117.314 1029.45 458.549
1575 0 60.0472 10.0588 604 116.313 1030.48 461.121
1576 0 63.1008 10.9666 692 115.782 1030.19 457.87
1577 0 64.1558 12.5164 803 115.123 1030.61 455.168
1578 0 67.2359 14.7838 994 111.538 1031.33 454.255
1579 0 69.1762 14.2245 984 112.232 1031.8 455.944
1580 0 70.1881 13.7915 968 114.188 1033.3 438.681
1581 0 71.1696 13.5451 964 116.04 1033.72 445.521
1582 0 77.3505 16.5351 1279 110.059 1034.13 433.978
1583 0 81.1436 19.7181 1600 104.901 1034.36 439.668
1584 0 82.1804 15.2104 1250 113.022 1035.87 437.663
1585 1 44.0565 11.6441 513 116.641 1035.49 461.154
1586 0 44.3017 10.1802 451 112.344 1037.96 449.763
1587 0 45.2264 9.35295 423 116.357 1036.15 446.506
1588 0 47.1186 13.8799 654 107.911 1038.1 449.856
1589 0 47.3611 9.71261 460 113.613 1038.46 454.961
1590 0 46.1164 13.0756 603 111.72 1038.49 453.715
1591 0 51.3524 13.1834 677 109.024 1039.24 461.687
1592 0 53.239 13.9747 744 108.792 1038.77 463.078
1593 0 57.1998 15.9441 912 105.588 1038.33 465.212
1594 0 59.2473 14.6167 866 108.286 1038.04 462.849
1595 0 60.2638 14.4365 870 108.622 1038.25 464.306
1596 0 62.1609 10.1672 632 116.188 1037.61 459.756
1597 0 64.2438 14.6473 941 108.388 1037.91 463.333
1598 0 67.4178 12.9788 875 112.458 1037.66 459.113
1599 0 69.3592 10.7989 749 115.558 1036.17 462.437
1600 0 72.3003 11.7565 850 114.489 1035.98 460.721
1601 0 74.1756 14.8162 1099 109.765 1035.43 460.992
1602 0 75.4337 12.912 974 113.87 1034.28 458.954
1603 1 38.0327 9.12373 347 115.634 1031.95 482.738
1604 0 46.3892 11.964 555 107.209 1034.48 468.917
1605 0 42.2447 10.1788 430 113.867 1034.06 470.823
1606 0 42.2361 10.4887 443 115.37 1032.59 475.849
1607 0 44.1613 10.9372 483 116.468 1032.24 474.892
1608 0 45.1899 12.2373 553 116.877 1029.85 470.864
1609 0 46.0532 13.6364 628 115.234 1029.28 471.962
1610 0 48.2128 12.5693 606 116.838 1030.03 468.153
1611 0 50.312 11.4883 578 117.979 1029.21 470.495
1612 0 50.312 11.4883 578 135.443 1029.21 470.495
1613 0 51.23 12.1218 621 117.536 1029.68 466.839
1614 0 52.1249 13.2374 690 116.329 1029.3 463.019
1615 0 56.2357 16.7509 942 108.892 1029.44 463.235
1616 0 58.1422 14.9461 869 112.188 1030.27 459.287
1617 0 57.3606 12.2384 702 116.892 1030.24 455.252
1618 0 61.4949 14.3426 882 112.921 1031.24 451.876
1619 0 63.3359 14.1784 898 113.418 1031.63 451.785
1620 0 66.2972 15.5964 1034 110.266 1032.82 448.871
1621 0 72.6706 14.6689 1066 109.909 1033.23 448.902
1622 0 72.3529 14.2496 1031 111.261 1034.04 450.261
1623 0 71.4118 12.3929 885 115.939 1034.07 444.727
1624 0 80.2858 15.5694 1250 106.577 1035.44 440.828
1625 0 79.0959 12.6935 1004 111.022 1035.21 439.557
1626 0 83.1711 13.7428 1143 109.753 1035.94 440.659
1627 0 83.1544 13.6734 1137 110.114 1036.02 440.624
1628 0 86.3192 10.6581 920 114.504 1037.02 409.015
1629 0 91.2959 13.9765 1276 110.071 1037.3 412.604
1630 0 91.2959 14.0204 1280 131.632 1038.3 412.675
1631 0 98.3987 14.3396 1411 110.407 1037 427.753
1632 1 54.2962 11.6951 635 110.477 1037.33 451.981
1633 0 56.2258 12.4854 702 108.729 1037.32 460.84
1634 0 58.2746 12.647 737 106.506 1037.01 468.601
1635 0 56.2128 10.478 589 111.873 1037.35 465.414
1636 0 63.1379 13.6051 859 105.912 1037.87 465.848
1637 0 62.263 13.8927 865 107.795 1037.06 445.445
1638 0 66.3355 12.3916 822 109.518 1036.42 458.352
1639 0 69.3354 12.8938 894 106.831 1035.87 466.248
1640 0 71.2168 12.7779 910 107.771 1035.34 464.881
1641 0 72.1798 13.7435 992 107.274 1035.7 463.12
1642 0 75.1992 14.0959 1060 106.337 1034.2 461.571
1643 0 76.2308 11.7013 892 109.362 1033.84 463.576
1644 0 79.4533 12.4476 989 108.728 1033.64 461.96
1645 0 84.2274 14.0334 1182 106.569 1032.83 457.291
1646 0 85.236 14.1138 1203 107.169 1032.82 449.951
1647 1 49.2294 12.5941 620 100.918 1030.73 473.244
1648 0 51.1516 12.9224 661 102.064 1030.44 468.204
1649 0 52.2148 10.1312 529 107.921 1030.8 455.565
1650 0 54.3135 10.9181 593 108.121 1029.48 465.789
1651 0 55.0419 12.3906 682 105.823 1029.69 466.886
1652 0 57.2382 13.6622 782 102.29 1029.43 468.978
1653 0 59.1114 9.98115 590 108.208 1029.89 461.795
1654 0 60.1064 12.1618 731 104.436 1027.93 467.926
1655 0 60.1646 13.9617 840 103.363 1029.09 457.956
1656 0 66.2429 14.1751 939 101.98 1028.47 461.145
1657 0 63.1207 12.9276 816 104.866 1028.76 457.706
1658 0 69.222 15.732 1089 99.7851 1029.55 460.847
1659 0 70.2338 13.0991 920 104.2 1029.68 451.318
1660 0 71.1829 12.6856 903 105.817 1029.5 452.697
1661 0 73.1242 12.0343 880 107.128 1029.56 448.403
1662 0 70.113 8.91418 625 112.805 1030.41 445.474
1663 0 78.0884 11.7815 920 108.241 1031.35 446.916
1664 0 81.3125 12.2982 1000 109.019 1031.38 448.075
1665 0 82.1918 11.9842 985 114.034 1033.05 440.265
1666 0 88.0935 14.2576 1256 110.058 1032.51 442.799
1667 1 47.1074 10.2532 483 112.656 1032.75 450.079
1668 0 47.1052 11.3363 534 111.88 1033.55 464.11
1669 0 46.1046 9.41338 434 112.313 1037.5 459.399
1670 0 53.2472 14.4984 772 103.188 1036.65 465.464
1671 0 51.0908 11.9395 610 109.933 1035.57 462.877
1672 0 52.157 13.977 729 107.344 1036.07 460.28
1673 0 54.1568 10.3588 561 112.494 1036.55 455.882
1674 0 58.3072 13.1716 768 107.197 1036.34 459.324
1675 0 58.1606 12.3967 721 110.734 1036.9 456.682
1676 0 61.2683 13.0247 798 108.877 1037.06 459.994
1677 0 58.2168 10.9075 635 113.502 1037.29 463.397
1678 0 63.3019 17.851 1130 103.064 1037.89 461.085
1679 0 64.2219 13.4067 861 110.458 1037.89 457.721
1680 0 65.1876 9.75645 636 116.947 1036.85 464.332
1681 0 68.2749 15.8331 1081 108.168 1036.59 452.018
1682 0 70.1988 13.8891 975 110.649 1036.39 455.943
1683 0 72.154 13.2217 954 112.408 1035.12 453.302
1684 0 75.2155 14.6246 1100 109.716 1035.12 454.01
1685 0 80.2316 15.1187 1213 108.941 1035 453.593
1686 0 80.2316 15.2558 1224 136.861 1034.04 453.601
1687 0 83.2659 15.5766 1297 109.995 1033.21 437.779
1688 0 86.2286 14.334 1236 111.96 1032.63 436.248
1689 0 90.4196 16.3128 1475 109.296 1031.1 416.055
1690 0 90.3446 15.9058 1437 111.392 1032.37 423.315
1691 0 92.2889 15.5382 1434 113.138 1031.95 414.116
1692 1 52.1281 13.5819 708 114.592 1030.67 436.028
1693 0 51.2815 13.5526 695 116.334 1031.08 439.835
1694 0 51.1975 11.817 605 119.534 1030.95 435.122
1695 0 55.2155 15.5029 856 111.87 1031.82 434.227
1696 0 54.0559 12.1726 658 114.93 1032.08 444.635
1697 0 58.1573 11.5893 674 116.896 1032.06 443.861
1698 0 58.1316 12.3513 718 117.584 1030.99 447.411
1699 0 61.0608 13.0198 795 115.078 1031.73 450.277
1700 0 62.0985 10.2257 635 120.523 1032.64 449.737
1701 0 65.0695 15.7678 1026 111.653 1032.64 445.098
1702 0 69.22 15.8625 1098 105.284 1032.54 453.829
1703 0 68.0625 12.8117 872 111.802 1032.79 450.925
1704 0 70.2701 13.747 966 110.617 1032.67 446.747
1705 0 73.3085 13.0544 957 112.218 1034.01 445.848
1706 0 73.3085 13.0817 959 137.375 1035.02 445.747
1707 0 76.1457 12.6074 960 113.674 1035.09 440.332
1708 0 81.1274 12.4126 1007 112.476 1035.32 437.182
1709 0 84.1432 14.1188 1188 109.412 1036.35 438.451
1710 0 88.3012 14.1561 1250 108.403 1036.73 443.651
1711 0 90.3643 17.9828 1625 104.742 1036.72 433.806
1712 0 93.3706 13.7516 1284 111.284 1037.83 437.312
1713 0 96.4472 12.9812 1252 114.109 1037.94 434.553
1714 1 51.0708 10.6323 543 113.162 1036.51 438.378
1715 0 51.0788 12.0206 614 110.853 1036.98 439.985
1716 0 55.0743 14.2353 784 103.566 1039.05 446.158
1717 0 57.2517 12.2092 699 106.426 1039.11 453.074
1718 0 55.1048 12.7938 705 106.009 1039.32 456.148
1719 0 58.213 13.3303 776 105.318 1038.95 462.197
1720 0 60.2922 10.5652 637 108.615 1038.78 461.603
1721 0 63.1976 13.7189 867 103.519 1038.63 459.95
1722 0 63.2472 9.01225 570 110.007 1038.68 460.789
1723 0 65.1318 12.2521 798 107.624 1038.87 454.42
1724 0 69.198 12.3847 857 106.979 1037.9 453.769
1725 0 73.2082 14.1241 1034 104.425 1038.21 456.805
1726 0 72.0794 12.6388 911 106.622 1038.53 459.019
1727 0 75.2936 13.8524 1043 107.519 1037.49 455.072
1728 0 77.2516 13.8379 1069 107.299 1036.31 455.193
1729 0 78.1489 9.23877 722 115.579 1036.46 457.842
1730 0 85.311 14.8633 1268 111.446 1033.73 463.692
1731 0 86.1896 12.7162 1096 115.914 1033.96 454.425
1732 0 89.2924 17.5715 1569 108.566 1032.84 450.043
1733 0 92.1229 12.136 1118 117.743 1031.85 453.21
1734 0 94.1432 15.8694 1494 111.321 1031.73 454.465
1735 0 94.1432 15.9863 1505 142.13 1031.74 454.506
1736 1 53.264 13.067 696 112.493 1030.6 471.828
1737 0 55.4198 12.9917 720 108.867 1031.34 464.425
1738 0 56.1882 13.348 750 105.935 1031.29 468.633
1739 0 55.1301 14.0576 775 109.223 1029.91 459.836
1740 0 57.1854 13.6224 779 110.178 1029.42 460.958
1741 0 61.0866 12.4905 763 113.997 1028.19 463.353
1742 0 61.1957 14.7559 903 111.637 1028.74 461.174
1743 0 65.106 16.1736 1053 108.384 1029.49 436.766
1744 0 67.2176 14.2671 959 111.388 1029.46 438.062
1745 0 66.106 12.0261 795 115.862 1029.6 439.474
1746 0 72.2647 14.4331 1043 111.352 1030.26 442.801
1747 0 69.0712 12.1758 841 117.005 1029.93 440.122
1748 0 74.1727 14.628 1085 112.081 1031.34 445.011
1749 0 78.1845 15.9622 1248 110.372 1032 443.1
1750 0 78.1845 15.9622 1248 131.663 1033.03 443.087
1751 0 81.4217 12.8958 1050 116.083 1032.85 446.063
1752 0 83.341 14.6626 1222 113.406 1034.06 446.246
1753 0 87.5839 11.8172 1035 117.356 1034.62 447.483
1754 0 89.257 15.9763 1426 111.556 1035.76 444.98
1755 0 93.4537 13.2151 1235 117.05 1036.35 441.892
1756 0 95.2468 13.8482 1319 115.491 1036.84 436.892
1757 0 99.4442 14.4905 1441 108.415 1038.1 432.373
1758 0 102.198 15.9886 1634 105.559 1038.22 438.168
1759 0 102.351 11.9882 1227 113.013 1039.86 418.402
1760 1 58.2208 9.73878 567 110.436 1039.72 455.349
1761 0 59.2099 10.8766 644 110.48 1041.67 462.582
1762 0 62.4911 13.2179 826 111.996 1040.39 457.707
1763 0 69.2638 16.6176 1151 103.101 1041.88 466.222
1764 0 66.2306 12.9094 855 111.78 1041.45 459.774
1765 0 68.3205 13.4074 916 111.556 1039.92 458.849
1766 0 71.215 14.0981 1004 111.166 1040.51 462.006
1767 0 73.2388 17.3542 1271 105.934 1039.78 458.405
1768 0 77.2609 11.5194 890 114.64 1039.87 456.504
1769 0 81.3331 15.4058 1253 107.222 1038.78 462.377
1770 0 82.1733 13.8123 1135 110.796 1038.18 460.61
1771 0 83.4354 16.6596 1390 107.517 1037.89 457.48
1772 0 84.1845 14.0168 1180 111.319 1036.27 459.375
1773 0 88.1473 13.8518 1221 111.292 1036.29 451.998
1774 0 92.1255 11.9728 1103 114.058 1035.04 447.986
1775 0 95.1854 16.4521 1566 107.659 1033.75 447.032
1776 0 94.1342 11.9192 1122 116.102 1033.25 443.648
1777 1 53.0336 11.3324 601 111.671 1033.45 469.087
1778 0 51.1817 10.2771 526 116.69 1033.08 462.053
1779 0 51.0736 9.55484 488 116.385 1032.84 465.566
1780 0 55.3013 14.0865 779 110.447 1031.16 461.288
1781 0 56.2834 14.7468 830 108.018 1030.82 463.336
1782 0 57.2137 12.7067 727 106.212 1030.03 462.558
1783 0 60.2785 12.1271 731 106.966 1029.81 462.978
1784 0 62.0662 13.9367 865 105.065 1029.55 459.924
1785 0 62.4073 11.0083 687 110.22 1030.85 458.057
1786 0 64.4587 13.466 868 105.8 1030.53 456.467
1787 0 65.2003 11.6717 761 109.545 1030.15 452.269
1788 0 70.3155 14.1647 996 105.33 1031.57 451.301
1789 0 68.2733 13.3288 910 107.816 1031.89 449.868
1790 0 74.2944 13.7022 1018 107.428 1031.41 448.897
1791 0 74.3192 13.3075 989 109.042 1032.85 446.539
1792 0 76.2691 13.3212 1016 110.196 1033.32 442.435
1793 0 80.3904 14.7406 1185 107.543 1033.79 438.096
1794 0 82.2338 13.7656 1132 109.79 1034.47 439.343
1795 0 85.5006 13.4151 1147 110.819 1034.39 439.495
1796 0 86.5239 12.9444 1120 112.015 1035.15 439.055
1797 0 92.3642 15.5905 1440 107.601 1036.24 433.611
1798 1 50.1909 11.0179 553 109.778 1036.01 459.284
1799 0 48.1943 10.8519 523 113.794 1036.18 460.66
1800 0 52.1902 13.5275 706 108.856 1037.42 458.659
1801 0 56.1016 14.6163 820 106.713 1036.83 458.165
1802 0 55.1327 12.0981 667 112.63 1037.78 456.426
1803 0 58.0829 12.4822 725 109.713 1037.83 461.612
1804 0 59.0928 12.4042 733 111.123 1038.39 456.165
1805 0 62.0517 14.4073 894 107.56 1038.57 459.757
1806 0 60.19 12.9257 778 111.224 1038.84 459.096
1807 0 66.2112 14.2574 944 108.513 1038.37 460.057
1808 0 68.1506 13.3381 909 109.67 1038.54 460.954
1809 0 67.245 12.2239 822 113.189 1038.45 459.877
1810 0 71.1255 13.6519 971 110.867 1038.24 459.779
1811 0 72.1856 12.4679 900 113.044 1036.67 456.116
1812 0 77.2085 12.9908 1003 115.325 1037.32 438.337
1813 0 83.2217 14.8038 1232 111.881 1036.72 439.867
1814 0 83.2396 13.9957 1165 114.136 1035.84 441.565
1815 0 86.6041 14.064 1218 114.955 1035.3 437.76
1816 0 90.2502 13.0637 1179 113.44 1034.23 448.152
1817 1 46.2291 11.9838 554 117.522 1033.54 471.314
1818 0 47.316 13.1034 620 116.673 1033.49 471.621
1819 0 48.119 11.5131 554 115.67 1033.75 473.812
1820 0 50.2207 10.7725 541 118.262 1032.89 469.834
1821 0 54.1227 14.3378 776 112.753 1031.11 457.919
1822 0 53.1371 11.3292 602 118.229 1030.8 458.899
1823 0 55.2764 10.1128 559 117.41 1031.13 467.286
1824 0 59.0946 12.8269 758 113.136 1031.74 460.551
1825 0 58.0456 10.4918 609 116.966 1031.08 454.158
1826 0 62.1398 13.0995 814 112.59 1029.58 455.044
1827 0 66.3098 13.8139 916 110.587 1029.8 452.347
1828 0 66.515 14.6283 973 109.582 1030.28 457.453
1829 0 66.2993 13.1223 870 111.994 1030.4 456.694
1830 0 69.0948 16.1083 1113 108.156 1030.76 450.614
1831 0 71.2602 14.3278 1021 112.354 1031.48 431.772
1832 0 72.0855 13.4562 970 114.398 1031.96 432.34
1833 0 77.2893 15.4485 1194 110.675 1032 438.721
1834 0 77.4494 19.3417 1498 106.015 1032.44 439.846
1835 0 80.398 15.1496 1218 113.172 1033.13 442.392
1836 0 80.1783 12.36 991 118.484 1032.82 440.525
1837 0 85.2534 13.7707 1174 114.645 1034.77 437.527
1838 0 87.4905 13.35 1168 116.904 1035.43 438.209
1839 0 92.3704 15.7518 1455 113.447 1036.18 437.829
1840 1 49.337 11.614 573 118.183 1035.49 459.567
1841 0 49.337 11.5735 571 139.06 1035.54 459.457
1842 0 49.2518 11.6544 574 138.385 1035.54 459.474
1843 0 58.3102 14.8345 865 115.431 1037.36 456.699
1844 0 58.092 14.236 827 117.897 1038.78 444.666
1845 0 60.2123 11.6754 703 120.39 1039.22 452.725
1846 0 60.2123 11.7252 706 156.575 1039.22 452.789
1847 0 66.1382 14.6663 970 114.581 1039.59 456.133
1848 0 69.1239 16.4053 1134 111.262 1039.32 456.877
1849 0 71.0347 15.415 1095 113.915 1039.99 456.777
1850 0 72.0738 14.5545 1049 116.802 1039.49 440.43
1851 0 76.0646 15.4605 1176 113.567 1040.24 445.023
1852 0 78.08 14.293 1116 115.036 1039.02 452.174
1853 0 81.1057 14.253 1156 116.409 1037.9 447.792
1854 0 84.1954 15.1077 1272 113.783 1038.24 452.238
1855 0 87.1079 13.0413 1136 117.45 1038.56 454.09
1856 0 92.504 15.275 1413 113.975 1037.88 451.823
1857 1 51.24 10.8899 558 116.271 1036.38 476.066
1858 0 51.1387 12.9647 663 116.311 1035.81 471.103
1859 0 55.1877 12.7565 704 110.678 1034.81 472.305
1860 0 55.1877 12.7746 705 131.272 1034.82 472.255
1861 0 59.2389 13.0489 773 110.395 1033.07 467.511
1862 0 60.2721 14.1525 853 109.436 1032.66 467.247
1863 0 63.1361 13.7639 869 109.359 1031.41 466.91
1864 0 66.3164 14.4459 958 109.508 1031.59 461.046
1865 0 65.1091 13.2547 863 112.181 1031.07 463.553
1866 0 69.2478 13.5455 938 111.447 1030.75 462.79
1867 0 73.2224 13.3839 980 111.136 1029.62 460.82
1868 0 74.3116 13.578 1009 112.53 1029.52 453.395
1869 0 79.4404 11.9083 946 115.418 1030.13 447.831
1870 0 77.4361 12.2423 948 132.109 1029.13 448.085
1871 0 82.1824 16.8771 1387 109.332 1029.98 450.773
1872 0 83.3869 13.971 1165 114.827 1030.11 449.98
1873 0 85.1741 12.2807 1046 117.794 1029.92 449.046
1874 0 91.5175 14.3361 1312 115.323 1029.39 448.763
1875 0 95.3996 14.3607 1370 114.716 1029.84 447.234
1876 1 51.3167 11.2829 579 120.585 1030.66 466.107
1877 0 52.1711 14.2799 745 117.399 1030.74 464.24
1878 0 53.1953 13.535 720 122.253 1030.61 460.731
1879 0 54.2893 13.6491 741 121.425 1031.87 458.292
1880 0 56.4635 12.6099 712 118.996 1032.57 457.563
1881 0 58.2148 11.3202 659 123.454 1034.06 434.153
1882 0 59.2946 13.0197 772 121.492 1034.38 440.961
1883 0 62.323 13.4942 841 117.983 1034.61 451.546
1884 0 62.2869 13.0204 811 120.33 1035.92 450.584
1885 0 66.3327 15.7539 1045 115.817 1036.08 450.636
1886 0 67.3836 11.9317 804 122.305 1036.39 451.189
1887 0 67.3836 11.9614 806 145.151 1036.4 451.169
1888 0 71.4997 13.049 933 120.983 1038.11 453.026
1889 0 73.3099 13.6544 1001 122.094 1038.78 448.117
1890 0 77.4453 13.7516 1065 121.739 1039.21 447.777
1891 0 73.3445 10.7711 790 129.125 1038.68 445.035
1892 1 82.3187 11.6984 963 126.537 1039.49 452.006
1893 0 86.2586 13.7725 1188 125.922 1039.49 429.127
1894 1 36.0897 8.72826 315 126.213 1039.26 461.657
1895 0 43.2481 11.0525 478 129.134 1038.24 464.586
1896 0 48.2175 11.0333 532 131.019 1038.72 465.87
1897 0 48.1061 11.8696 571 126.082 1038.13 473.42
1898 0 57.2433 11.1279 637 126.636 1038.41 473.491
1899 0 54.2913 13.2802 721 119.949 1036.04 468.63
1900 0 55.1085 12.8837 710 120.106 1035.73 473.369
1901 0 56.2415 14.7044 827 117.852 1034.93 469.318
1902 0 57.1266 13.7939 788 118.906 1033.37 472.978
1903 0 60.2581 15.417 929 116.618 1033.45 468.853
1904 0 64.119 16.0015 1026 114.006 1032.36 469.475
1905 0 66.0545 15.0028 991 115.78 1032.09 468.858
1906 0 66.1712 14.1905 939 119.236 1031.85 466.555
1907 0 70.0599 17.5136 1227 113.063 1031.11 465.997
1908 0 73.3495 15.6511 1148 115.793 1030.31 463.283
1909 0 73.1255 14.9469 1093 117.36 1030.31 461.151
1910 0 77.0862 14.8924 1148 117.753 1029.68 461.378
1911 0 79.1008 17.3829 1375 115.943 1028.95 445.541
1912 0 80.5028 15.1547 1220 120.311 1028.6 441.9
1913 0 82.1544 14.6188 1201 121.604 1028.85 443.304
1914 0 84.0669 14.6669 1233 122.169 1028.63 442.788
1915 0 84.0672 14.6549 1232 148.325 1027.62 442.655
1916 0 88.0879 13.4184 1182 124.953 1028.92 448.455
1917 1 48.1323 11.8424 570 127.009 1029.35 467.637
1918 0 49.0467 10.4798 514 128.284 1029.84 467.899
1919 0 53.0873 14.7681 784 119.446 1030.93 465.462
1920 0 55.1514 14.0885 777 120.171 1031.93 465.203
1921 0 55.0993 13.4121 739 122.907 1031.03 461.269
1922 0 58.2271 14.1 821 121.468 1031.93 460.597
1923 0 60.1275 15.4671 930 119.639 1033.01 457.499
1924 0 61.2056 15.162 928 119.643 1032.57 456.925
1925 0 64.2471 14.9268 959 119.873 1033.76 456.879
1926 0 65.2333 13.2448 864 123.549 1034.47 455.142
1927 0 69.1195 13.4839 932 121.751 1035.43 453.832
1928 0 70.1122 12.7938 897 123.872 1035.29 453.13
1929 0 71.1999 13.75 979 122.38 1035.77 450.808
1930 0 78.1287 17.548 1371 114.667 1036.66 427.685
1931 0 80.2193 13.3384 1070 122.365 1036.71 430.133
1932 0 82.2285 13.5233 1112 121.279 1037.8 431.56
1933 0 84.2599 14.8825 1254 120.292 1039 431.108
1934 0 86.3918 15.2677 1319 117.936 1038.36 439.249
1935 0 89.43 14.5253 1299 120.813 1038.54 437.269
1936 0 93.0888 12.6653 1179 124.473 1037.93 444.668
1937 1 47.0923 12.6348 595 124.97 1038.49 471.21
1938 0 51.1037 13.5607 693 122.711 1038.51 470.893
1939 0 50.1946 12.9297 649 124.367 1037.48 472.886
1940 0 55.2467 14.6434 809 122.635 1037.86 461.431
1941 0 54.2076 12.4706 676 128.241 1036.4 458.828
1942 0 56.0922 12.2477 687 129.383 1035.81 458.106
1943 0 59.1236 14.3428 848 124.874 1035.04 457.586
1944 0 59.1568 14.7067 870 123.32 1033.65 462.78
1945 0 64.2053 16.3071 1047 119.958 1034.09 463.116
1946 0 66.1703 18.0292 1193 116.902 1033.33 461.237
1947 0 67.0755 14.0886 945 125.401 1032.85 459.4
1948 0 71.1285 15.6337 1112 121.272 1032.03 459.836
1949 0 73.179 18.9125 1384 115.427 1031.06 458.934
1950 0 75.0924 14.4089 1082 123.107 1030 459.523
1951 0 80.0775 17.4331 1396 116.737 1029.24 458.869
1952 0 81.0815 14.1833 1150 124.376 1029.36 455.56
1953 0 84.1951 13.1124 1104 125.067 1028.65 458.742
1954 0 84.3416 13.8247 1166 126.244 1029.75 455.706
1955 1 45.0794 13.6426 615 126.995 1029.4 475.46
1956 0 46.1267 13.8098 637 126.174 1029.97 472.617
1957 0 48.2536 14.8176 715 125.874 1029.63 467.248
1958 0 48.1713 13.3067 641 134 1028.4 470.123
1959 0 49.1694 14.1348 695 133.409 1029.55 467.286
1960 0 50.2716 16.1523 812 129.532 1029.18 464.217
1961 0 54.2403 14.1592 768 131.764 1030.39 464.885
1962 0 55.1972 15.6349 863 125.122 1029.6 462.435
1963 0 58.0543 18.81 1092 118.12 1030.67 462.42
1964 0 60.1771 18.1797 1094 120.85 1031.26 459.507
1965 0 62.1982 18.1034 1126 119.224 1031.19 461.79
1966 0 63.2412 16.5399 1046 126.073 1032.25 456.72
1967 0 66.1756 18.0731 1196 122.298 1033.79 456.142
1968 0 66.1407 15.2705 1010 128.914 1034.78 454.539
1969 0 71.1448 21.1962 1508 116.989 1035.11 453.741
1970 0 72.1228 18.9538 1367 122.018 1035.94 450.421
1971 0 75.4956 18.6501 1408 121.872 1036.65 450.387
1972 0 78.1583 14.8033 1157 127.961 1036.23 453.492
1973 0 80.3828 15.8616 1275 127.653 1037.19 448.387
1974 0 84.1424 17.8269 1500 122.42 1037 449.772
1975 1 47.1903 13.9012 656 134.061 1036.3 466.78
1976 0 47.1576 14.9923 707 131.533 1037.09 468.502
1977 0 50.1318 14.8608 745 132.854 1037.39 467.114
1978 0 52.1699 17.5197 914 128.047 1037.37 465.54
1979 0 53.1142 18.0366 958 126.12 1037.88 466.364
1980 0 55.0994 17.1327 944 128.281 1037.08 465.064
1981 0 54.1842 13.9709 757 135.66 1036.97 466.355
1982 0 61.1734 15.9546 976 129.577 1036.82 466.617
1983 0 63.2085 17.9406 1134 125.872 1036.1 465.449
1984 0 65.1205 18.1202 1180 124.862 1035.78 465.844
1985 0 68.1488 17.3004 1179 126.388 1035.77 463.425
1986 0 72.237 21.8171 1576 116.597 1033.79 465.742
1987 0 75.1187 16.7735 1260 125.816 1034.17 463.011
1988 0 77.2336 18.0103 1391 123.651 1032.67 459.666
1989 0 80.1771 19.2075 1540 120.053 1032.69 460.045
1990 0 82.1701 15.4436 1269 127.08 1031.22 457.933
1991 1 47.1497 14.0192 661 134.05 1032.14 472.554
1992 0 45.0836 14.8613 670 133.406 1031.93 471.37
1993 0 47.2024 13.6434 644 134.702 1031.11 470.362
1994 0 51.3578 15.6354 803 130.437 1031.14 470.524
1995 0 53.0732 17.6549 937 126.291 1031.22 466.394
1996 0 52.0405 16.2373 845 130.379 1030.44 464.73
1997 0 54.1849 17.6618 957 126.091 1031.04 464.98
1998 0 57.1028 16.7943 959 127.723 1029.83 460.849
1999 0 64.0493 19.1884 1229 118.199 1029.88 458.733
2000 0 65.3403 17.6614 1154 121.445 1029.16 456.234
2001 0 62.0913 17.6192 1094 125.143 1030.2 457.121
2002 0 66.349 16.3228 1083 125.627 1029.35 455.723
2003 0 66.349 16.3077 1082 147.927 1028.33 455.723
2004 0 72.0464 18.7934 1354 121.03 1030.64 452.86
2005 0 71.1107 18.4642 1313 123.609 1030.73 449.362
2006 0 76.1657 15.7682 1201 127.553 1032.1 448.066
2007 0 80.0522 19.6122 1570 119.782 1031.85 444.441
2008 0 80.0812 16.4583 1318 126.843 1032.71 443.571
2009 0 85.1617 21.1363 1800 117.26 1033.95 442.47
2010 0 88.1916 17.7341 1564 123.801 1034.14 438.056
2011 0 90.1721 17.3002 1560 124.953 1035.48 437.206
2012 0 94.229 16.9268 1595 125.175 1034.63 435.125
2013 0 97.2282 15.0265 1461 128.947 1036.94 436.937
2014 1 52.151 15.2825 797 128.325 1036.54 459.733
2015 0 52.0474 15.678 816 129.995 1036.79 457.887
2016 0 56.1049 15.9523 895 128.097 1037.43 458.003
2017 0 57.0715 17.1714 980 127.27 1037.93 456.967
2018 1 71.2385 27.9624 1992 102.335 1037.81 449.339
2019 0 65.2428 21.7495 1419 115.765 1038 453.994
2020 0 63.1226 15.7154 992 130.729 1038.65 453.002
2021 0 66.0401 17.9588 1186 125.988 1037.94 454.019
2022 0 67.0796 17.2929 1160 128.436 1038.5 453.865
2023 0 70.0639 17.2271 1207 126.805 1038.44 457.852
2024 0 74.1767 18.7255 1389 124.677 1037.89 453.161
2025 0 77.1489 18.0171 1390 126.829 1037.3 453.76
2026 0 80.1286 16.8479 1350 128.439 1036.82 455.01
2027 0 84.0906 16.2563 1367 130.44 1036.66 452.77
2028 0 83.1867 14.5937 1214 136.386 1035.94 451.675
2029 0 82.1765 14.6636 1205 162.757 1035.94 451.632
2030 0 88.1619 15.4829 1365 134.931 1034.95 448.759
2031 0 94.2328 18.2739 1722 128.329 1033.38 448.314
2032 0 96.1727 16.1688 1555 133.237 1033.61 445.232
2033 0 100.23 16.3624 1640 132.937 1032.72 440.926
2034 1 54.0602 14.2064 768 132.604 1031.47 467.677
2035 0 56.0554 12.8801 722 135.421 1032 465.028
2036 0 57.0568 14.0912 804 135.529 1031.42 461.062
2037 0 59.1776 15.2422 902 131.614 1030.81 461.174
2038 0 59.1776 15.276 904 151.595 1029.82 461.305
2039 0 62.0835 14.1422 878 133.497 1029.09 459.409
2040 0 64.0919 14.3076 917 134.184 1029.17 456.222
2041 0 67.1645 14.9335 1003 131.277 1028.14 456.054
2042 0 70.3052 15.2194 1070 131.473 1028.96 451.666
2043 0 71.082 15.7424 1119 131.789 1029.02 450.498
2044 0 73.0468 16.8796 1233 128.208 1029.85 451.435
2045 0 75.1317 13.483 1013 136.152 1029.54 448.207
2046 0 77.1434 14.674 1132 133.236 1030.38 448.193
2047 0 80.2046 14.276 1145 135.761 1030.73 444.484
2048 0 82.2317 16.9764 1396 129.552 1031.1 443.677
2049 0 86.1495 15.4035 1327 133.79 1031.03 438.989
2050 0 87.13 15.3334 1336 135.068 1032.24 436.574
2051 0 91.1325 14.2869 1302 135.639 1033.13 439.637
2052 0 94.1529 14.5827 1373 136.957 1034.04 432.21
2053 0 93.174 13.4909 1257 141.369 1033.93 428.434
2054 0 101.211 16.9943 1720 131.481 1035.76 432.167
2055 0 103.404 15.2412 1576 136.183 1034.96 431.039
2056 0 108.202 14.436 1562 136.656 1036.82 430.794
2057 0 111.225 16.3453 1818 132.71 1036.31 426.157
2058 0 115.382 16.753 1933 131.578 1036.68 424.811
2059 0 119.325 14.0792 1680 136.924 1037.75 427.086
2060 0 125.399 16.1166 2021 132.787 1037.27 421.357
2061 1 69.2063 15.5044 1073 131.185 1038.79 452.254
2062 0 69.2063 15.4466 1069 149.687 1039.79 452.295
2063 0 73.2453 14.5811 1068 133.954 1039.32 453.262
2064 0 75.1437 14.1329 1062 134.696 1036.39 455.863
2065 0 78.2093 13.6301 1066 134.565 1037.16 455.008
2066 0 79.125 12.019 951 138.478 1035.43 455.684
2067 0 83.1526 12.3869 1030 137.972 1036.4 453.802
2068 0 86.0907 14.5544 1253 132.68 1036.52 454.89
2069 0 88.2031 12.6186 1113 137.921 1036.93 451.349
2070 0 94.1948 18.2706 1721 125.292 1035.93 451.731
2071 0 95.253 14.9182 1421 134.459 1035.6 446.308
2072 0 98.149 11.0852 1088 140.472 1034.25 444.838
2073 0 106.293 14.4036 1531 132.807 1032.43 443.818
2074 1 61.1587 10.9061 667 127.889 1031.15 468.754
2075 0 62.1649 10.0861 627 129.935 1029.97 468.63
2076 0 65.2448 10.5296 687 127.659 1030.25 468.47
2077 0 67.1971 11.6225 781 128.041 1030.12 463.516
2078 0 70.2604 11.9982 843 126.478 1029.87 460.859
2079 0 70.2679 11.5131 809 127.722 1029.19 460.487
2080 0 73.2618 13.8817 1017 122.297 1028.93 461.122
2081 0 74.2409 11.3145 840 129.339 1028.2 455.202
2082 0 74.2409 11.2876 838 137.341 1027.22 455.131
2083 0 78.3947 11.4421 897 128.134 1028.05 453.554
2084 0 82.5243 11.8995 982 126.751 1028.53 452.213
2085 0 83.5119 12.154 1015 126.667 1028.59 448.743
2086 0 86.557 12.6737 1097 125.977 1027.79 443.99
2087 0 86.557 12.6737 1097 131.919 1026.79 443.99
2088 0 89.4178 14.7734 1321 122.827 1028.98 442.924
2089 0 94.5433 12.4282 1175 124.88 1029.97 444.679
2090 0 96.4494 11.3635 1096 127.424 1029.72 440.159
2091 0 96.3597 13.0345 1256 125.757 1030.35 437.623
2092 1 54.2402 9.01545 489 123.773 1031.07 460.068
2093 0 56.2657 11.8722 668 118.88 1031.51 458.031
2094 0 56.1296 10.8143 607 120.382 1032.13 460.038
2095 0 61.0912 10.4598 639 119.818 1033.05 460.862
2096 0 61.1276 11.7296 717 115.635 1033.49 456.558
2097 0 62.1092 10.1112 628 118.572 1033.68 455.637
2098 0 62.1092 10.1112 628 112.105 1034.68 455.637
2099 0 66.2506 12.5433 831 114.02 1034.84 455.928
2100 0 66.321 11.6554 773 116.448 1036.18 454.918
2101 0 66.1602 10.3234 683 119.996 1035.98 454.963
2102 0 71.3239 13.7261 979 115.058 1037.31 451.776
2103 0 74.1459 13.5544 1005 115.287 1037.83 457.434
2104 0 75.1863 11.4383 860 120.963 1037.94 454.649
2105 0 79.2683 11.6188 921 120.925 1038.02 449.514
2106 0 81.2251 13.5549 1101 119.664 1038.16 453.692
2107 0 84.2118 12.0767 1017 123.089 1037.65 450.604
2108 0 86.3072 11.2042 967 125.281 1037.26 451.085
2109 0 92.2855 15.9505 1472 116.207 1036.84 454.378
2110 0 95.229 13.0528 1243 121.878 1037.38 454.468
2111 0 93.315 10.1806 950 128.24 1036.32 446.808
2112 0 100.308 14.1564 1420 122.118 1036.05 447.081
2113 0 101.282 13.2699 1344 123.993 1035.13 450.456
2114 1 56.064 6.4034 359 129.201 1036.52 477.212
2115 0 57.093 8.65255 494 127.35 1034.9 471.619
2116 0 59.0906 10.3062 609 125.264 1034.73 465.062
2117 0 61.0518 12.2027 745 125.96 1034.53 467.866
2118 0 63.2729 13.6393 863 122.694 1033.64 465.177
2119 0 63.2729 13.6551 864 118.094 1032.62 465.161
2120 0 70.4589 14.7036 1036 120.652 1029.92 460.953
2121 0 70.4676 14.1767 999 123.555 1031.03 463.228
2122 0 72.2457 15.1566 1095 122.449 1031.11 458.907
2123 0 74.2123 14.7011 1091 123.258 1030.89 460.437
2124 0 79.3098 15.244 1209 122.324 1031.34 456.568
2125 0 79.2226 15.69 1243 121.732 1030.95 455.683
2126 0 82.5494 13.5797 1121 126.586 1030.24 444.446
2127 0 85.5366 14.789 1265 124.935 1030.83 446.07
2128 1 44.4529 10.1231 450 131.324 1029.32 468.26
2129 0 47.4992 13.516 642 125.065 1030.05 466.403
2130 0 46.6628 12.0867 564 128.585 1029.85 465.486
2131 0 48.4549 13.4352 651 127.247 1030.44 462.356
2132 0 51.2485 12.4296 637 126.479 1031.11 461.673
2133 0 52.4359 11.7477 616 125.523 1031.77 458.154
2134 0 54.4325 13.1907 718 125.834 1032.21 452.169
2135 0 55.4637 16.0826 892 120.802 1032.16 458.529
2136 0 56.219 13.6431 767 127.347 1031.6 457.817
2137 0 58.2307 14.1334 823 124.887 1031.69 458.992
2138 0 59.3386 13.8696 823 126.538 1032.84 457.844
2139 0 61.1243 12.3355 754 129.979 1033.17 456.8
2140 0 61.1981 12.6311 773 129.37 1034.52 456.093
2141 0 65.121 15.6631 1020 121.828 1035.3 456.206
2142 0 68.1191 15.3555 1046 123.068 1035.1 438.539
2143 0 85.1994 22.2654 1897 103.923 1034.69 393.084
2144 0 75.1734 16.4819 1239 120.719 1036.66 407.266
2145 0 74.1427 14.1754 1051 126.593 1036.47 407.736
2146 0 80.2399 18.7189 1502 115.847 1037.57 408.324
2147 0 81.3269 15.8004 1285 122.136 1035.89 405.442
2148 0 80.2995 16.7373 1344 144.435 1033.87 406.029
2149 0 86.2946 13.0367 1125 126.054 1037.45 408.095
2150 1 47.1917 11.8665 560 128.316 1036.18 425.32
2151 0 47.1469 13.3413 629 125.493 1036.62 425.674
2152 0 54.132 13.7996 747 122.485 1035.38 426.29
2153 0 52.1729 13.3594 697 124.92 1035.5 425.617
2154 0 57.4219 15.0813 866 118.229 1036.46 444.487
2155 0 57.3131 14.3074 820 120.933 1036.01 444.224
2156 0 59.2885 15.7029 931 118.678 1035.7 440.44
2157 0 62.3369 15.9135 992 117.961 1034.95 450.988
2158 0 63.3621 15.1826 962 118.319 1033.76 452.314
2159 0 64.4951 17.2106 1110 115.278 1033.09 452.537
2160 0 64.407 13.8028 889 122.828 1032.64 452.625
2161 0 66.3721 12.7765 848 125.11 1031.92 451.246
2162 0 71.3473 14.5205 1036 120.038 1030.58 451.94
2163 0 71.2976 17.1534 1223 116.621 1030.13 445.778
2164 0 73.5671 14.5717 1072 120.986 1030.22 449.439
2165 0 75.317 14.3792 1083 120.265 1028.76 451.859
2166 0 79.7298 13.7966 1100 122.07 1028.72 449.239
2167 0 81.5347 12.6572 1032 123.442 1028.73 450.929
2168 0 84.4771 19.8989 1681 110.81 1028.18 446.41
2169 0 87.6244 16.2626 1425 116.797 1029.61 443.267
2170 0 87.6244 16.3311 1431 136.625 1030.62 443.238
2171 1 49.3889 15.0844 745 116.572 1029.1 463.243
2172 0 50.1458 12.2642 615 124.096 1028.63 459.085
2173 0 48.062 11.7557 565 126.11 1028.33 458.625
2174 0 52.3307 12.8414 672 122.348 1030.25 457.894
2175 0 55.5562 11.1419 619 124.622 1030.78 456.696
2176 0 55.3677 15.6409 866 117.984 1030.51 452.525
2177 0 58.5026 14.854 869 117.684 1030.95 455.862
2178 0 59.3779 16.1171 957 116.205 1030.8 452.467
2179 0 63.5938 12.9415 823 120.397 1031.87 452.733
2180 0 64.454 17.9508 1157 111.244 1032.24 450.695
2181 0 67.4998 14.1926 958 116.826 1033.21 452.024
2182 0 66.2337 11.7312 777 123.484 1034.48 450.667
2183 0 71.289 14.5604 1038 117.731 1034.18 446.27
2184 0 73.1956 12.8696 942 119.35 1035.88 449.326
2185 0 75.2764 15.9545 1201 114.775 1035.96 446.304
2186 0 75.2468 13.356 1005 120.085 1036.58 445.239
2187 0 80.1583 16.5298 1325 114.262 1036.54 442.515
2188 0 82.2234 13.8768 1141 119.611 1037.51 436.486
2189 0 89.188 16.1681 1442 113.898 1037.33 439.936
2190 0 90.4141 14.4004 1302 118.236 1037.83 437.62
2191 1 47.436 9.3389 443 119.966 1036.82 460.032
2192 0 52.1609 11.5604 603 116.894 1036.69 458.566
2193 0 53.2183 12.1387 646 113.396 1036.91 457.511
2194 0 58.3722 14.7159 859 108.233 1035.46 452.383
2195 0 65.4122 20.5008 1341 97.8486 1035.68 454.072
2196 0 64.2582 14.9709 962 107.343 1035.33 456.489
2197 0 63.4547 14.861 943 109.626 1033.94 454.122
2198 0 64.415 11.457 738 117.241 1035.25 455.157
2199 0 67.3661 13.6419 919 113.113 1034.35 458.499
2200 0 72.4685 14.6132 1059 108.215 1034.04 467.925
2201 0 71.2095 12.8634 916 115.3 1031.8 460.842
2202 0 73.204 13.196 966 144.143 1029.78 461.802
2203 0 76.3968 12.6445 966 115.317 1030.83 461.022
2204 0 78.2867 13.7444 1076 115.458 1030.34 455.608
2205 0 80.1535 11.8273 948 119.439 1029.73 452.023
2206 0 86.2596 14.2129 1226 115.028 1029.51 452.552
2207 0 87.3056 14.0541 1227 115.105 1029.32 453.433
2208 0 90.5141 14.2188 1287 115.388 1029.74 450.034
2209 0 93.1464 11.7772 1097 119.621 1028.93 449.821
2210 0 97.3153 13.6669 1330 116.624 1029.54 445.746
2211 0 99.5503 12.6167 1256 120.24 1030.56 440.27
2212 1 55.4795 10.4904 582 114.83 1031.39 460.9
2213 0 55.2172 10.8843 601 114.241 1031.57 463.012
2214 0 60.2117 12.5391 755 112.26 1030.28 454.66
2215 0 60.09 11.5327 693 116.502 1030.85 454.431
2216 0 62.114 12.7508 792 113.611 1029.56 454.835
2217 0 64.2691 12.2921 790 115.263 1030.76 453.501
2218 0 67.2711 11.9219 802 115.239 1030.08 453.862
2219 0 71.5651 15.5383 1112 105.581 1031.14 458.504
2220 0 71.2358 10.4723 746 117.43 1031.42 452.031
2221 0 70.1522 11.5606 811 117.864 1032.11 449.3
2222 0 73.3654 11.5722 849 118.492 1032.34 447.278
2223 0 73.3654 11.5995 851 151.398 1031.34 447.228
2224 0 78.2423 10.8509 849 119.83 1034.68 447.139
2225 0 81.3181 13.4287 1092 115.418 1034.35 446.435
2226 0 83.2019 11.1897 931 120.864 1034.55 443.786
2227 0 85.3291 12.4928 1066 119.089 1033.88 444.355
2228 0 90.2072 15.3757 1387 113.696 1035.98 443.838
2229 0 92.2645 12.4967 1153 119.722 1035.74 444.08
2230 1 48.0623 10.1951 490 121.027 1035.77 464.329
2231 0 52.1871 10.2516 535 122.46 1035.73 462.207
2232 0 53.3014 13.2079 704 118.517 1037.54 451.372
2233 0 57.0456 13.4804 769 115.534 1039.17 451.385
2234 0 59.1231 11.4507 677 117.702 1038.89 457.352
2235 0 61.0727 13.1483 803 115.762 1039.13 464.266
2236 0 61.0978 13.5029 825 115.999 1039.03 463.36
2237 0 63.2084 13.7482 869 116.12 1038.29 464.975
2238 0 63.1668 11.3509 717 122.84 1039.03 462.544
2239 0 67.1655 13.4146 901 117.614 1038.38 466.176
2240 0 69.1208 11.3135 782 120.558 1037.31 468.816
2241 0 72.0634 13.4742 971 118.44 1036.9 465.074
2242 0 74.1705 14.4262 1070 117.104 1036.36 462.299
2243 0 76.2605 14.8045 1129 117.096 1035.26 460.39
2244 0 77.2656 13.3954 1035 119.172 1034 459.965
2245 0 80.162 13.6099 1091 117.896 1033.27 461.555
2246 0 83.2994 12.5571 1046 120.415 1033.55 458.601
2247 0 86.2326 12.3387 1064 120.313 1032.82 454.93
2248 0 88.2462 13.723 1211 117.87 1032.45 442.372
2249 0 93.2848 14.2038 1325 116.444 1031.72 442.012
2250 1 49.167 11.8372 582 118.239 1031.97 459.758
2251 0 50.3267 11.9618 602 118.184 1031.13 458.507
2252 0 55.2312 13.4706 744 115.302 1030.81 453.906
2253 0 54.2359 12.5009 678 116.183 1029.92 458.27
2254 0 54.2345 12.6857 688 137.289 1027.9 458.246
2255 0 57.328 13.5885 779 115.081 1030.23 454.741
2256 0 58.2276 11.6783 680 118.488 1030.31 452.968
2257 0 60.2009 13.6377 821 114.743 1030.38 456.963
2258 0 59.201 11.841 701 120.351 1029.28 460.549
2259 0 63.1144 13.5785 857 119.116 1028.82 458.932
2260 0 62.1592 14.849 923 119.968 1030.1 457.815
2261 0 64.127 16.1554 1036 116.842 1029.91 457.275
2262 0 66.2075 16.267 1077 117.445 1030.62 455.968
2263 0 67.1017 13.6807 918 122.236 1029.97 453.874
2264 0 70.1156 13.1782 924 122.726 1031.87 443.85
2265 0 71.107 14.654 1042 119.714 1032.72 446.596
2266 0 74.2044 13.9884 1038 120.695 1032.69 444.244
2267 0 77.162 15.3962 1188 118.478 1033.84 444.148
2268 0 75.1272 12.6585 951 125.387 1033.77 445.575
2269 0 80.1087 17.6885 1417 113.915 1033.91 447.645
2270 0 80.1282 14.4768 1160 120.836 1034.67 444.354
2271 0 84.1524 14.5807 1227 115.589 1036.08 443.791
2272 0 87.184 15.3239 1336 115.268 1037.39 444.849
2273 0 87.2637 11.6543 1017 122.317 1037.06 444.668
2274 0 94.3656 15.5247 1465 116.334 1037.9 440.266
2275 0 96.262 16.1434 1554 115.764 1037.9 424.481
2276 0 97.2677 12.9951 1264 121.613 1037.84 423.854
2277 1 58.1457 14.9796 871 107.653 1038.18 454.861
2278 0 58.1474 12.6747 737 111.539 1037.19 455.191
2279 0 56.3743 10.182 574 113.671 1036.44 462.416
2280 0 59.2952 11.4006 676 111.842 1034.49 461.206
2281 0 62.0952 11.0314 685 113.328 1036 462.669
2282 0 64.1052 13.0723 838 110.6 1035 461.609
2283 0 69.2352 11.5693 801 113.222 1035.16 458.326
2284 0 73.2205 14.2173 1041 109.131 1034.88 458.548
2285 0 75.2931 12.4845 940 111.848 1033.91 456.238
2286 0 74.3657 13.6488 1015 109.212 1033.04 460.297
2287 0 78.3758 13.1035 1027 111.848 1032.66 453.693
2288 0 80.2061 12.8544 1031 113.59 1031.76 449.081
2289 0 80.2061 12.8294 1029 146.247 1029.77 449.058
2290 0 87.2921 12.9679 1132 113.057 1030.61 446.027
2291 0 93.1882 15.356 1431 108.204 1030.86 445.166
2292 0 95.4078 18.2585 1742 103.346 1030.35 449.234
2293 0 95.4078 18.1432 1731 121.932 1030.35 449.343
2294 1 55.1692 10.0781 556 110.484 1029.47 463.174
2295 0 56.4072 11.3815 642 112.095 1029.29 459.812
2296 0 58.0424 13.5074 784 112.911 1030.32 446.156
2297 0 59.0837 12.7277 752 108.275 1028.89 456.355
2298 0 61.1971 14.6576 897 105.777 1029.33 453.375
2299 0 62.135 12.2153 759 109.474 1028.8 453.264
2300 0 65.2243 11.7748 768 110.349 1029.34 449.788
2301 0 65.2243 11.8974 776 129.289 1029.31 449.786
2302 0 71.2226 12.9313 921 107.884 1029.2 450.267
2303 0 69.1834 13.934 964 107.475 1029.56 447.367
2304 0 67.2019 10.1039 679 114.25 1029.98 441.184
2305 0 72.1682 10.0875 728 112.449 1031.05 444.805
2306 0 77.2429 12.0011 927 108.953 1030.55 441.79
2307 0 81.2723 15.811 1285 102.624 1032.12 443.318
2308 0 82.2322 13.8875 1142 107.244 1031.89 436.861
2309 0 84.3033 12.4313 1048 108.411 1033.84 434.508
2310 0 86.2554 14.3295 1236 106.917 1033.39 427.322
2311 0 90.3153 11.1498 1007 111.761 1035.07 430.686
2312 0 91.3411 8.03582 734 117.668 1035.82 430.159
2313 0 93.3341 10.9178 1019 113.554 1036.12 431.83
2314 1 48.3375 9.84743 476 108.828 1036.67 451.903
2315 0 54.1978 11.1813 606 106.675 1037.8 457.111
2316 0 55.0473 7.5753 417 114.64 1038.85 456.916
2317 0 52.1596 10.8896 568 107.923 1037.23 457.669
2318 0 59.1981 11.0645 655 109.869 1035.42 464.649
2319 0 58.192 11.1355 648 110.514 1035.79 466.469
2320 0 59.0986 12.4876 738 109.675 1036.04 465.673
2321 0 62.1281 13.3595 830 108.611 1035.28 465.622
2322 0 67.1148 11.5772 777 110.109 1034.97 466.223
2323 0 66.0923 10.561 698 112.88 1034.86 465.713
2324 0 70.1934 11.5538 811 111.219 1034.67 461.106
2325 0 73.3119 12.5628 921 108.917 1034.13 462.488
2326 0 74.091 10.9865 814 110.606 1034.14 464.485
2327 0 75.1162 11.0629 831 110.669 1033.33 458.795
2328 0 80.3974 12.1521 977 108.637 1032.86 460.128
2329 0 82.183 10.9998 904 110.39 1031.77 457.035
2330 0 87.525 11.4367 1001 110.025 1032.63 452.492
2331 0 88.1985 13.0048 1147 107.692 1031.54 452.447
2332 1 48.1945 14.6282 705 105.335 1031.25 470.186
2333 0 47.4126 12.1065 574 107.578 1031.06 469.415
2334 0 50.3727 11.6928 589 107.503 1031.42 468.908
2335 0 52.2219 12.1788 636 102.676 1029.4 461.219
2336 0 53.1567 8.50316 452 107.485 1029.65 463.168
2337 0 53.1497 10.3105 548 106.522 1029.62 458.965
2338 0 52.0649 10.7366 559 105.68 1028.92 462.206
2339 0 58.1156 16.0542 933 103.109 1028.11 464.42
2340 0 59.1434 12.8332 759 108.411 1028.18 459.291
2341 0 61.0623 12.9704 792 108.823 1028.32 458.792
2342 0 62.0484 12.4902 775 109.146 1028.86 458.152
2343 0 65.1267 13.1129 854 107.556 1028.77 457.622
2344 0 67.2106 12.4832 839 109.434 1029.27 454.56
2345 0 71.2281 15.4574 1101 104.978 1029.62 452.909
2346 0 73.1989 20.8063 1523 98.2961 1029.62 449.156
2347 0 72.0945 14.9942 1081 106.406 1030.11 448.353
2348 0 74.1137 14.2619 1057 106.757 1029.88 451.261
2349 0 79.2504 14.9274 1183 106.396 1031.83 446.854
2350 0 80.1065 13.7692 1103 108.952 1031.08 443.309
2351 0 82.2175 14.863 1222 108.253 1032.52 441.96
2352 0 85.0597 14.049 1195 108.952 1032.95 441.962
2353 0 89.1176 13.499 1203 109.759 1033.61 438.156
2354 0 92.244 15.8059 1458 106.586 1034.11 440.016
2355 0 96.2715 14.3448 1381 109.246 1035.51 430.658
2356 0 98.4452 18.1116 1783 105.014 1038.23 427.05
2357 0 101.326 15.8794 1609 108.196 1039.07 428.894
2358 1 60.0864 12.6817 762 109.739 1039.01 455.483
2359 0 61.0357 10.0433 613 113.308 1039.52 463.442
2360 0 59.3152 11.3293 672 110.214 1036.82 455.67
2361 0 64.2848 10.8424 697 107.987 1036.91 457.396
2362 0 70.4998 14.1844 1000 101.842 1037.18 450.44
2363 0 74.1501 15.3068 1135 99.3974 1038.28 463.444
2364 0 74.3663 13.447 1000 103.602 1036.66 459.424
2365 0 77.241 13.9175 1075 103.388 1037.01 454.803
2366 0 81.15 14.5656 1182 102.052 1036.33 456.69
2367 0 85.1789 13.1958 1124 103.754 1036.03 458.731
2368 0 85.2047 13.227 1127 106.435 1034.99 423.823
2369 0 91.3608 11.7556 1074 106.422 1034.58 444.326
2370 0 92.0966 12.7583 1175 106.206 1033.33 442.065
2371 0 98.2658 16.3638 1608 101.282 1032.55 443.016
2372 1 58.0964 12.1694 707 102.907 1032.29 465.532
2373 0 56.2153 12.043 677 105.876 1030.96 462.932
2374 0 58.2256 11.5241 671 110.687 1031 445.432
2375 0 60.2366 12.5671 757 109.935 1029.78 448.584
2376 0 67.3494 17.966 1210 100.919 1029.51 448.396
2377 0 67.3225 17.4979 1178 102.094 1029.76 448.574
2378 0 64.1545 11.6438 747 112.985 1029.13 451.64
2379 0 69.2478 15.6106 1081 106.003 1029.15 455.225
2380 0 72.3021 17.662 1277 103.579 1028.78 452.428
2381 0 76.2628 18.3576 1400 101.776 1028.91 451.646
2382 0 77.3533 21.0463 1628 99.6726 1028.58 447.636
2383 0 79.2111 14.6192 1158 108.481 1029.72 448.95
2384 0 83.2002 16.8509 1402 104.685 1030.36 448.001
2385 0 81.1982 13.9781 1135 110.204 1029.53 445.528
2386 0 86.2761 18.0699 1559 104.602 1030.71 443.181
2387 0 89.3257 18.0127 1609 104.653 1029.77 443.799
2388 0 96.6276 15.7408 1521 106.496 1031.88 445.334
2389 0 92.1212 12.2447 1128 113.936 1031.71 442.601
2390 0 99.2342 17.0707 1694 107.629 1031.4 434.044
2391 0 101.116 15.4674 1564 110.275 1032.07 439.175
2392 1 56.194 10.8197 608 112.538 1033.82 460.336
2393 0 54.1344 10.6587 577 114.834 1033.13 455.522
2394 0 54.1124 11.2913 611 115.285 1034.52 454.617
2395 0 56.1549 11.1121 624 106.824 1032.02 460.045
2396 0 56.108 10.159 570 112.907 1033.35 453.121
2397 0 62.0797 12.9511 804 107.387 1033.78 456.648
2398 0 61.1032 9.47578 579 113.608 1035.3 455.746
2399 0 64.1918 12.7586 819 109.668 1036.27 458.77
2400 0 65.1575 11.9863 781 110.967 1035.15 456.617
2401 0 65.0761 11.4942 748 114.283 1035.91 451.373
2402 0 69.2431 12.4778 864 112.164 1035.73 451.89
2403 0 72.1929 16.5944 1198 106.421 1036.03 452.796
2404 0 74.271 13.4104 996 112.199 1034.53 454.04
2405 0 77.2308 11.2908 872 114.604 1034.63 452.222
2406 0 81.1091 17.5196 1421 104.23 1033.6 458.944
2407 0 83.1158 14.4618 1202 113.859 1034.03 460.203
2408 0 86.3882 12.3049 1063 117.705 1033.15 448.148
2409 0 92.4856 14.8023 1369 113.374 1032.71 448.79
2410 0 95.4565 15.2635 1457 110.43 1033.12 449.969
2411 0 97.4539 12.7548 1243 114.986 1031.19 441.562
2412 0 101.513 12.2842 1247 117.557 1031.37 422.031
2413 0 104.488 11.4176 1193 118.642 1030.7 430.718
2414 0 107.381 13.7733 1479 113.937 1029.86 440.301
2415 0 115.785 16.7812 1943 108.291 1029.61 441.829
2416 1 68.2809 20.0642 1370 98.2693 1030.52 468.413
2417 0 69.2119 14.8385 1027 104.804 1030.61 467.178
2418 0 69.2068 15.3598 1063 106.175 1030.2 462.655
2419 0 74.1508 12.8252 951 108.507 1029.34 454.899
2420 0 76.095 12.1033 921 110.702 1029.91 450.504
2421 0 77.2959 13.7912 1066 109.88 1029.98 445.849
2422 0 76.2828 11.9555 912 112.646 1029.13 449.182
2423 0 80.2312 11.3298 909 113.745 1029.99 451.353
2424 0 84.2798 15.3418 1293 107.108 1029.98 454.346
2425 0 85.4342 13.8118 1180 108.439 1029.33 456.494
2426 0 89.4896 16.1918 1449 106.396 1030.34 451.119
2427 0 93.3588 14.5782 1361 109.247 1030.5 447.331
2428 0 96.1976 11.9961 1154 113.343 1030.77 447.347
2429 0 96.218 15.1739 1460 110.158 1031.4 444.45
2430 0 98.2766 14.7441 1449 112.353 1031.67 436.489
2431 0 107.29 16.0686 1724 108.855 1032.56 435.889
2432 0 107.29 16.0779 1725 133.587 1033.55 435.843
2433 0 110.244 14.9395 1647 112.157 1033.97 432.634
2434 0 114.123 15.6936 1791 110.886 1034.36 435.684
2435 1 67.0601 11.6015 778 113.378 1035.4 458.519
2436 0 65.1549 11.8487 772 113.266 1034.43 461.25
2437 0 69.4006 12.4062 861 114.718 1034.25 454.069
2438 0 70.1126 12.6225 885 111.347 1037.1 458.477
2439 0 70.1126 12.5512 880 128.844 1038.08 458.538
2440 0 74.1085 12.9675 961 111.456 1037.87 456.919
2441 0 81.2 14.8399 1205 108.327 1038.27 455.134
2442 0 81.0924 15.2172 1234 109.396 1037.19 453.307
2443 0 85.1164 15.0382 1280 110.085 1038.17 452.486
2444 0 88.1256 13.2425 1167 113.128 1037.34 451.973
2445 0 90.1538 12.3456 1113 115.149 1036.92 453.268
2446 0 94.3156 15.1725 1431 111.261 1035.64 454.32
2447 0 94.3156 15.2467 1438 123.551 1033.62 454.331
2448 1 54.0986 10.4809 567 119.48 1036.67 472.22
2449 0 57.0692 13.1069 748 115.775 1036.08 472.936
2450 0 57.0932 10.4216 595 117.787 1033.96 469.027
2451 0 63.0703 14.1588 893 110.927 1034.74 466.314
2452 0 61.2252 13.1155 803 113.811 1033.63 470.229
2453 0 64.218 11.3831 731 112.44 1032.12 470.549
2454 0 65.1452 11.0983 723 114.53 1031 463.794
2455 0 70.2816 14.2 998 109.198 1029.43 465.4
2456 0 69.3245 11.8861 824 114.373 1029.62 461.164
2457 0 74.2396 12.6078 936 112.149 1028.66 462.521
2458 0 77.0655 19.1266 1474 102.571 1028.45 462.558
2459 0 78.1124 14.1719 1107 110.416 1027.6 458.933
2460 0 81.2198 16.6093 1349 107.007 1027.87 458.012
2461 0 83.191 12.3451 1027 115.689 1027.3 454.242
2462 0 85.4622 12.5436 1072 114.67 1027.23 454.924
2463 0 91.2305 17.3736 1585 107.259 1027.96 430.512
2464 0 92.2841 18.0421 1665 107.927 1028.05 428.185
2465 0 90.464 12.5133 1132 117.29 1028.54 427.587
2466 0 95.2342 15.8242 1507 113.299 1028.86 419.421
2467 0 98.2628 17.8603 1755 114.286 1029.57 426.382
2468 0 102.372 17.7978 1822 114.902 1029.38 421.662
2469 0 102.211 15.4386 1578 120.456 1028.96 427.33
2470 0 106.405 16.8225 1790 117.306 1030 437.999
2471 0 109.516 17.9974 1971 115.688 1030.35 429.382
2472 0 112.307 16.6687 1872 118.932 1031.45 411.247
2473 0 114.288 15.7234 1797 120.23 1031.16 415.756
2474 0 116.282 14.8518 1727 119.901 1031.92 420.89
2475 0 122.232 13.9161 1701 121.417 1032.88 428.062
2476 0 126.189 17.3312 2187 116.223 1034.35 423.989
2477 0 126.189 17.2202 2173 137.299 1035.35 423.942
2478 0 133.34 18.2841 2438 116.432 1034.66 418.257
2479 0 138.403 17.9982 2491 116.365 1034.47 420.537
2480 0 144.617 16.7892 2428 118.595 1035.72 414.708
2481 0 147.35 17.8419 2629 117.512 1036.47 413.054
2482 0 156.298 19.8659 3105 113.234 1036.73 418.703
2483 0 160.186 20.0641 3214 114.009 1035.73 411.339
2484 0 166.313 19.7579 3286 114.047 1036.48 414.959
2485 0 172.395 16.7001 2879 120.321 1035.65 404.322
2486 0 180.366 19.0335 3433 116.625 1035.57 405.266
2487 0 184.467 17.8514 3293 118.885 1035.69 404.282
2488 0 183.465 17.6382 3236 141.978 1034.71 403.841
2489 0 186.297 15.019 2798 124.367 1035.21 411.816
2490 0 186.297 14.2192 2649 156.374 1036.22 414.543
2491 0 189.365 11.0211 2087 130.287 1033.68 419.997
2492 1 162.332 14.4334 2343 129.004 1032.88 412.674
2493 0 169.417 14.8155 2510 127.935 1033.05 413.42
2494 0 175.295 12.4818 2188 131.758 1031.64 401.072
2495 0 184.644 17.0599 3150 123.495 1029.92 408.219
2496 0 192.302 16.1465 3105 124.779 1030.31 404.259
2497 0 196.486 16.1538 3174 124.905 1029.26 403.017
2498 0 203.456 15.8314 3221 123.679 1029.45 404.022
2499 0 209.617 14.9702 3138 127.591 1028.8 387.655
2500 0 215.419 14.5159 3127 128.114 1028.57 385.985
2501 0 225.521 15.2713 3444 125.883 1027.82 383.474
2502 0 232.476 16.677 3877 123.323 1027.55 374.216
2503 0 237.443 12.5082 2970 129.222 1027.83 378.694
2504 0 246.33 15.9948 3940 123.777 1027.67 372.082
2505 0 253.731 14.2907 3626 127.467 1028.16 356.437
2506 0 264.834 15.9345 4220 123.733 1028.42 365.696
2507 1 194.478 12.243 2381 125.768 1028.5 394.456
2508 0 201.227 16.3795 3296 118.925 1028.33 392.071
2509 0 207.298 15.4898 3211 120.957 1030.01 397.625
2510 0 209.578 12.5395 2628 128.497 1029.86 378.896
2511 0 221.862 15.5141 3442 122.569 1030.58 382.697
2512 0 227.522 15.5721 3543 122.248 1030.08 376.207
2513 0 236.615 15.1216 3578 120.883 1029.89 382.472
2514 0 245.571 16.7121 4104 120.737 1030.63 363.573
2515 0 252.716 17.2288 4354 119.59 1030.86 357.626
2516 0 260.601 14.3553 3741 124.141 1031.82 354.392
2517 1 238.468 10.5758 2522 126.405 1032.61 384.871
2518 1 221.493 14.2713 3161 120.472 1033.34 382.158
2519 0 227.564 14.5981 3322 120.8 1033.67 375.073
2520 1 239.904 14.6559 3516 120.819 1034.58 374.273
2521 0 244.652 13.8891 3398 122.154 1034.4 379.009
2522 0 248.687 15.5336 3863 121.012 1035.37 370.582
2523 1 263.755 16.6935 4403 119.582 1034.33 362.947
2524 0 270.755 14.5334 3935 122.32 1035.48 369.77
2525 0 281.184 15.385 4326 121.92 1034.32 357.855
2526 1 317.931 10.1972 3242 124.677 1034.79 383.758
2527 1 303.708 16.3084 4953 120.43 1035.44 355.15
2528 0 324.689 27.4663 8918 103.442 1034.47 319.319
2529 0 323.781 21.5516 6978 112.868 1035.19 341.136
2530 0 323.781 21.3972 6928 140.441 1036.21 340.908
2531 0 347.432 22.6375 7865 111.224 1034.52 343.188
2532 0 348.289 12.9117 4497 127.878 1034.2 337.36
2533 0 350.07 15.494 5424 122.465 1034.09 343.567
2534 0 171.724 16.9633 2913 118.547 1031.77 412.18
2535 0 177.695 19.0045 3377 115.089 1032.89 414.2
2536 0 186.636 21.7375 4057 112.032 1031.66 397.974
2537 0 191.814 15.3169 2938 122.709 1030.84 397.226
2538 0 201.598 19.5637 3944 115.672 1030.95 395.593
2539 0 206.646 17.1791 3550 119.935 1029.81 389.252
2540 0 214.66 17.8422 3830 119.188 1029.16 385.24
2541 1 46.4398 15.7408 731 106.363 1029.64 477.919
2542 0 44.1386 12.6647 559 113.225 1028.98 474.891
2543 0 45.1887 13.5653 613 112.542 1028.23 474.349
2544 0 46.1594 14.4499 667 111.201 1027.65 470.702
2545 0 45.0896 16.0348 723 111.077 1028.43 466.958
2546 0 46.0701 17.5602 809 109.446 1028.17 465.135
2547 0 46.1799 14.7034 679 114.589 1028.76 465.298
2548 0 46.1459 14.9743 691 114.114 1027.9 467.127
2549 0 50.3008 16.62 836 109.953 1028.27 465.764
2550 0 47.1266 14.5565 686 112.292 1028.07 470.302
2551 0 48.1945 15.6657 755 113.652 1027.01 465.792
2552 0 46.1498 10.9426 505 123.279 1029.06 467.887
2553 0 47.1118 14.9856 706 116.902 1028.35 464.432
2554 0 51.0956 18.2599 933 110.017 1029.73 463.266
2555 0 48.0678 15.8942 764 116.72 1030 463.302
2556 0 49.3342 17.6348 870 113.522 1031.95 458.678
2557 0 46.248 12.7573 590 123.7 1031.73 464.346
2558 0 47.3087 15.3249 725 119.539 1033.1 460.84
2559 0 50.3026 16.7983 845 115.85 1032.84 460.666
2560 0 53.1803 15.9834 850 115.488 1035.35 462.911
2561 0 51.0869 13.4281 686 122.308 1034.34 463.692
2562 0 50.1027 14.4104 722 119.929 1035.54 465.062
2563 0 49.0983 14.4608 710 121.831 1035.86 464.462
2564 0 52.1671 16.4855 860 116.301 1035.98 464.65
2565 0 47.1212 11.6296 548 128.478 1036.17 465.4
2566 0 52.2311 13.2871 694 122.918 1035.78 468.078
2567 0 52.1319 18.2614 952 113.852 1035.42 467.417
2568 0 52.161 16.3724 854 117.838 1035.42 468.96
2569 0 52.1646 15.9303 831 118.425 1035.51 469.29
2570 0 53.2814 13.5882 724 122.645 1034.51 470.279
2571 0 52.1834 16.0588 838 118.773 1034.27 472.87
2572 0 53.1046 16.8912 897 116.511 1034.08 473.941
2573 0 53.1427 17.707 941 114.769 1033.69 472.599
2574 0 51.1627 17.5909 900 115.422 1033.09 476.018
2575 0 53.2138 15.4095 820 119.682 1032.89 471.891
2576 0 53.2499 14.6479 780 119.854 1031.58 475.864
2577 0 53.3881 15.4904 827 119.383 1031.28 472.568
2578 0 53.2789 16.4418 876 116.962 1030.06 472.979
2579 0 64.293 25.1505 1617 96.6555 1029.53 464.532
2580 0 59.1351 18.2294 1078 108.572 1029.24 467.816
2581 0 55.1942 15.7988 872 114.475 1028.3 470.124
2582 0 55.1514 16.2825 898 113.327 1028.8 468.996
2583 0 55.1616 15.7174 867 114.21 1028.99 468.076
2584 0 54.1603 17.2082 932 112.315 1028.23 466.635
2585 0 54.1603 17.0974 926 152.283 1028.27 466.574
2586 0 54.1603 16.5804 898 153.552 1028.29 466.919
2587 0 60.1337 26.2914 1581 95.3523 1026.99 458.726
2588 0 60.1337 26.2914 1581 121.961 1025.97 458.706
2589 0 58.3145 20.338 1186 102.883 1028.07 466.129
2590 0 55.1419 13.3837 738 115 1029.21 465.973
2591 0 57.1161 17.018 972 107.724 1029.15 465.231
2592 0 56.0957 15.8301 888 110.833 1029.44 463.037
2593 0 56.2156 15.316 861 112.417 1030.46 459.653
2594 0 57.357 20.0324 1149 103.133 1030.52 463.183
2595 0 57.1552 17.8462 1020 107.237 1030 459.882
2596 0 56.2207 16.1506 908 110.378 1030.99 458.447
2597 0 58.0327 16.0255 930 108.74 1030.57 460.357
2598 0 58.0327 16.1805 939 148.956 1029.57 460.429
