time division length width area intensity CMx CMy
0 0 48.017 16.4525 790 126.457 1042.82 464.91
1 0 48.0344 15.3016 735 126.879 1041.64 463.837
2 0 48.0344 15.2807 734 160.093 1040.65 463.828
3 0 48.0344 15.3432 737 159.517 1039.64 463.669
4 0 48.0366 15.3841 739 159.078 1038.66 463.609
5 0 53.3133 13.7114 731 131.306 1038.36 459.283
6 0 53.3133 13.6551 728 165.113 1038.32 459.383
7 0 57.148 16.606 949 127.734 1037.31 459.874
8 0 59.0982 17.0394 1007 124.743 1037.34 458.565
9 0 61.1021 16.8898 1032 128 1037.36 457.285
10 0 63.0852 15.7089 991 127.506 1037.18 455.676
11 0 63.1328 15.4278 974 132.108 1036.39 453.986
12 0 67.1192 16.1802 1086 129.983 1036.67 453.929
13 0 70.1986 16.9661 1191 128.57 1035.22 451.034
14 0 69.2014 17.0083 1177 153.608 1034.22 450.849
15 0 74.3134 15.3943 1144 129.602 1035.78 446.531
16 0 77.2967 16.0421 1240 125.049 1035.42 443.997
17 1 40.0757 15.321 614 126.871 1034.09 460.114
18 0 37.0191 14.2359 527 130.884 1034.17 461.863
19 0 42.1068 12.8008 539 125.017 1034.1 460.44
20 0 43.0251 12.1092 521 133.737 1034.85 457.411
21 0 44.0692 14.4546 637 128.83 1035.2 453.385
22 0 45.035 15.3658 692 130.286 1036.42 453.883
23 0 47.0619 12.5367 590 128.978 1042.05 453.054
24 0 47.0233 13.2062 621 129.316 1041.64 454.129
25 0 49.0646 15.0414 738 126.161 1045.02 448.691
26 0 51.0983 18.7873 960 115.448 1045.29 451.565
27 0 51.1016 16.4183 839 123.231 1044.38 446.325
28 0 54.1703 14.9528 810 125.365 1044.61 444.141
29 0 54.0957 13.7904 746 124.41 1044.71 445.499
30 0 57.0818 18.4472 1053 116.373 1043.95 445.218
31 0 63.1075 14.3723 907 121.622 1044.29 444.165
32 0 63.1075 14.3089 903 151.317 1045.26 444.128
33 0 63.101 14.2787 901 150.899 1046.24 444.182
34 0 67.123 15.7323 1056 121.34 1045.99 438.247
35 0 68.2716 16.3758 1118 119.369 1045.88 444.743
36 0 68.1825 13.9332 950 125.445 1048.11 441.706
37 0 70.0785 16.3674 1147 118.518 1048.42 441.442
38 0 74.1512 13.8096 1024 120.223 1049.46 443.005
39 0 77.0696 14.2469 1098 121.106 1048.42 439.902
40 0 82.7283 19.6426 1625 108.958 1047.61 441.081
41 0 82.2169 16.1767 1330 117.429 1047.78 438.788
42 0 87.4666 17.298 1513 113.161 1047.37 439.726
43 0 88.2571 17.687 1561 112.14 1046.08 441.63
44 0 90.1994 13.4036 1209 120.123 1045.55 439.64
45 0 93.2683 17.1012 1595 112.155 1045.52 441.083
46 0 98.166 15.9322 1564 128.807 1045.4 435.168
47 0 103.217 15.5789 1608 129.058 1045.53 435.455
48 1 54.086 10.6312 575 127.254 1044.83 460.49
49 0 54.061 12.8744 696 128.052 1044.32 458.92
50 0 56.1855 12.9571 728 128.776 1044.03 457.49
51 0 64.1502 16.1652 1037 119.674 1042.49 457.687
52 0 61.064 13.7561 840 126.811 1041.98 452.867
53 0 65.2067 13.7409 896 126.427 1041.19 452.001
54 0 68.1324 14.4718 986 124.74 1039.67 451.68
55 0 72.2532 14.4907 1047 129.963 1039.98 445.94
56 0 74.3301 15.9558 1186 125.293 1038.5 449.903
57 0 75.1876 13.8986 1045 130.904 1038.5 444.101
58 0 78.3883 13.28 1041 130.353 1036.8 443.06
59 0 78.3883 13.2418 1038 148.68 1035.8 443.039
60 0 86.0785 15.7414 1355 123.647 1036.95 441.692
61 0 89.0989 17.9912 1603 117.893 1036.44 442.45
62 0 93.1822 15.2282 1419 124.459 1035.99 435.049
63 0 96.1565 18.7091 1799 118.126 1036.6 432.428
64 0 99.1652 15.9028 1577 124.717 1035.2 430.977
65 0 103.134 14.5733 1503 126.261 1035.48 430.424
66 0 106.233 13.8281 1469 128.649 1036.15 422.844
67 1 57.1091 12.625 721 124.756 1035.36 447.04
68 0 60.2758 12.6585 763 123.444 1034.65 446.442
69 0 62.3314 13.4122 836 121.801 1036.47 443.677
70 0 63.1284 13.5438 855 117.909 1036.23 441.822
71 0 66.2002 14.8036 980 115.007 1038.89 439.794
72 0 71.1208 18.0819 1286 109.367 1039.49 441.902
73 0 70.302 14.011 985 116.795 1040.7 438.902
74 0 71.3259 14.8754 1061 123.011 1042.72 440.266
75 0 73.1793 12.5719 920 119.836 1041.99 435.153
76 0 78.121 12.583 983 118.883 1041.12 437.233
77 0 81.1819 13.0817 1062 118.009 1042.61 435.842
78 0 84.1854 15.2164 1281 115.521 1042.75 435.19
79 0 84.1781 15.3009 1288 133.804 1042.76 435.232
80 0 90.0741 12.301 1108 120.032 1044.6 433.699
81 0 90.2693 11.3882 1028 120.93 1043.5 437.223
82 1 50.3873 9.24837 466 119.554 1044.16 457.27
83 0 52.0646 10.9863 572 117.79 1043.6 455.991
84 0 55.0479 14.6781 808 110.215 1044.79 454.991
85 0 55.2352 13.5964 751 111.908 1042.46 458.984
86 0 58.0448 12.8349 745 113.466 1043.12 455.781
87 0 60.0697 12.2857 738 114.332 1042.32 456.844
88 0 62.1461 13.1625 818 112.653 1042.22 458.524
89 0 64.1372 12.5668 806 114.69 1040.64 456.485
90 0 65.1984 11.8561 773 115.329 1040.27 454.561
91 0 67.0955 10.8949 731 116.389 1040.29 455.542
92 0 70.3214 13.4525 946 112.643 1039.94 455.089
93 0 73.2898 13.3306 977 113.751 1038.94 452.902
94 0 74.224 11.5327 856 117.258 1038.36 454.637
95 0 79.2691 11.5934 919 114.126 1036.41 459.071
96 0 77.0888 9.67716 746 119.251 1036.74 453.308
97 0 85.2568 15.6234 1332 109.816 1036.2 450.667
98 0 88.285 11.4742 1013 117.983 1036.02 445.552
99 1 47.0648 11.3036 532 111.231 1036.09 466.727
100 0 48.0975 12.7242 612 110.647 1036.25 465.918
101 0 50.2121 13.7816 692 108.863 1034.29 461.629
102 0 49.2404 12.7131 626 110.275 1033.5 459.837
103 0 49.1324 13.9826 687 109.413 1033.42 459.967
104 0 52.2139 12.2381 639 111.355 1033.57 459.374
105 0 51.1264 12.0681 617 110.151 1032.67 461.59
106 0 56.0772 13.4992 757 109.45 1032.32 456.301
107 0 52.0586 14.1187 735 110.722 1033.73 451.993
108 0 59.1107 14.4136 852 107.446 1034.19 453.698
109 0 60.1535 11.2379 676 113.747 1033.62 451.947
110 0 60.1528 11.5705 696 114.547 1034.9 447.164
111 0 60.1528 11.5872 697 139.828 1035.93 446.891
112 0 64.2779 18.4667 1187 103.155 1035.78 447.845
113 0 70.3554 14.9953 1055 108.341 1036.52 445.365
114 0 71.1979 12.2756 874 113.286 1035.71 444.09
115 0 75.266 13.1401 989 111.221 1036.78 443.433
116 0 72.1292 12.1171 874 114.116 1037.67 441.333
117 0 78.2261 13.0775 1023 112.462 1038.68 438.989
118 0 81.2106 13.0648 1061 111.491 1038.4 442.12
119 0 83.3326 11.1601 930 123.815 1038.35 434.23
120 1 43.104 9.97588 430 117.523 1037.79 458.195
121 0 46.1781 13.9243 643 113.988 1042.05 454.655
122 0 46.1367 12.8531 593 113.378 1040.81 456.973
123 0 46.1486 11.5713 534 112.457 1042.76 456.85
124 0 46.0705 12.0251 554 112.24 1040.77 454.641
125 0 50.0241 15.2527 763 105.743 1041.66 455.366
126 0 51.1553 12.4718 638 110.962 1041.06 457.585
127 0 49.173 9.3954 462 116.699 1041.1 459.405
128 0 54.2225 11.4528 621 111.826 1042.17 458.214
129 0 54.2225 11.4528 621 136.709 1043.17 458.238
130 0 55.1562 14.0691 776 109.039 1040.87 456.994
131 0 58.0807 12.827 745 110.345 1039.26 458.145
132 0 60.2447 13.3124 802 109.368 1039.49 457.458
133 0 64.0779 19.1954 1230 99.9545 1039.23 457.907
134 0 64.27 14.4391 928 107.912 1038.26 454.241
135 1 133.353 11.7432 1566 118.635 1039.1 420.453
136 1 68.3012 12.5766 859 110.498 1037.79 457.268
137 0 70.2298 16.0046 1124 106.503 1038.87 453.385
138 0 73.3361 14.2631 1046 108.76 1037.02 454.204
139 0 71.298 12.4407 887 113.705 1037 451.409
140 0 75.2502 13.2491 997 111.937 1034.71 450.804
141 0 78.2302 17.9854 1407 105.247 1035.62 449.743
142 0 82.1641 13.4 1101 112.708 1036.4 448.562
143 0 84.1604 16.326 1374 108.263 1035.28 445.324
144 0 87.251 14.9454 1304 110.189 1034.59 443.604
145 0 90.3177 14.4933 1309 110.351 1033.18 441.416
146 1 45.0352 9.05957 408 117.902 1033.29 460.804
147 0 47.1069 13.7347 647 109.045 1033.58 458.968
148 0 51.0642 14.707 751 107.662 1033.01 461.144
149 0 48.1823 12.2036 588 113.432 1029.99 457.738
150 0 46.0622 11.441 527 115.622 1032.6 457.55
151 0 51.1092 11.7591 601 114.225 1031.9 455.478
152 0 52.0557 11.4109 594 115.013 1032.72 454.918
153 0 54.1082 12.937 700 110.589 1032.4 455.299
154 0 55.119 12.4821 688 111.427 1033.2 454.869
155 0 54.1151 11.919 645 150.66 1033.2 454.071
156 0 62.087 14.8018 919 108.952 1034.41 447.419
157 0 66.1821 15.684 1038 106.796 1034.9 448.747
158 0 66.2106 17.5652 1163 105.439 1034.77 447.265
159 0 64.103 14.2115 911 113.116 1036.52 442.398
160 0 69.0598 14.8277 1024 111.355 1036.13 442.348
161 0 70.0504 11.8201 828 115.803 1039.07 443.425
162 0 74.1354 19.3835 1437 105.158 1038.77 436.96
163 0 76.3382 17.2391 1316 107.361 1040.19 438.75
164 0 82.1557 14.2534 1171 111.178 1039.98 436.093
165 0 83.1166 16.6032 1380 107.087 1040.7 440.894
166 0 88.1577 15.6651 1381 108.432 1039.5 436.888
167 0 87.2376 13.7555 1200 114.101 1040.63 434.79
168 0 92.1104 16.1871 1491 110.267 1041.73 435.564
169 0 89.2262 12.4291 1109 119.319 1040.83 434.196
170 1 44.0514 8.69438 383 119.869 1040.71 458.282
171 0 49.0349 12.5421 615 109.065 1041.35 459.541
172 0 51.0944 13.4261 686 106.7 1040.48 463.981
173 0 53.1063 12.7104 675 109.157 1040.03 460.316
174 0 55.0932 11.7619 648 110.602 1039.29 458.591
175 0 56.0519 19.143 1073 100.832 1039.18 460.326
176 0 56.0761 14.4447 810 108.544 1039.68 459.732
177 0 59.0624 12.2921 726 111.021 1038.36 462.479
178 0 61.1951 15.0175 919 107.566 1038.16 460.548
179 0 64.223 16.9877 1091 104.703 1038.31 459.309
180 0 63.2047 12.3092 778 114.012 1036.39 457.112
181 0 66.1882 11.9206 789 112.92 1035.04 454.766
182 0 66.1882 11.9961 794 134.678 1033.08 454.656
183 0 72.2764 13.2132 955 111.341 1034.85 453.015
184 0 73.5443 12.4415 915 112.711 1032.3 452.066
185 0 75.3115 11.7246 883 113.322 1033.26 454.381
186 0 82.1762 16.5985 1364 105.543 1033.15 449.737
187 0 80.1211 11.9319 956 114.615 1031.11 443.788
188 0 84.1819 15.0745 1269 109.225 1031.14 444.957
189 0 86.2571 13.3554 1152 116.49 1031.78 441.527
190 1 47.0622 11.3467 534 112.464 1029.82 459.11
191 0 46.044 11.489 529 112.172 1030.36 460.008
192 0 50.2066 9.89909 497 112.402 1031.34 456.926
193 0 52.1526 10.5268 549 109.506 1031.11 459.219
194 0 54.3293 12.3322 670 107.091 1029.79 455.585
195 0 55.1326 12.479 688 107.243 1030.44 456.183
196 0 58.297 12.5907 734 108.019 1030.68 448.189
197 0 58.297 12.6422 737 131.891 1030.67 448.193
198 0 62.374 15.0223 937 105.172 1031.35 448.085
199 0 62.1297 13.327 828 108.818 1032.14 445.499
200 0 61.2065 12.613 772 111.863 1032.93 442.878
201 0 68.1671 15.6674 1068 106.262 1033.6 442.628
202 0 69.1527 15.1259 1046 106.467 1034.74 445.19
203 0 69.2197 13.8255 957 110.701 1035.38 443.456
204 0 71.2299 12.214 870 113.328 1035.53 442.918
205 0 73.301 11.0094 807 115.668 1036.77 443.002
206 0 78.4467 13.6016 1067 110.188 1037 440.411
207 0 80.1389 12.7279 1020 112.625 1037.8 441.067
208 0 82.0873 16.3119 1339 107.879 1038.22 438.273
209 0 84.2146 12.1357 1022 114.43 1039.49 440.858
210 1 49.0958 11.4877 564 115.282 1038.12 458.009
211 0 49.1161 9.2434 454 121.238 1040.07 458.337
212 0 52.1177 12.088 630 117.414 1039.85 456.638
213 0 54.122 14.5043 785 109.073 1039.09 459.125
214 0 55.1866 15.0761 832 109.425 1039.35 459.129
215 0 54.0338 10.1973 551 121.481 1041.09 459.751
216 0 56.0888 12.6763 711 115.806 1039.18 459.62
217 0 59.0839 14.1155 834 113.159 1039.1 459.555
218 0 61.1657 14.8613 909 111.883 1038.31 457.21
219 0 63.2745 11.5844 733 115.232 1038.64 462.492
220 0 63.0859 11.1594 704 117.416 1037.85 460.727
221 0 66.1622 12.817 848 114.164 1036.66 458.376
222 0 69.2953 11.6891 810 115.105 1036.04 460.704
223 0 72.2031 14.0022 1011 111.638 1035.48 456.684
224 0 73.1515 9.56918 700 117.911 1034.31 459.236
225 0 79.2344 14.9051 1181 108.985 1033.87 454.858
226 0 79.3102 10.8687 862 116.597 1033.72 453.174
227 0 85.2768 16.6399 1419 109.152 1032.81 453.655
228 0 86.228 14.2065 1225 114.856 1032.6 448.163
229 0 87.4378 14.3531 1255 114.669 1031.63 448.026
230 0 91.2574 15.8672 1448 112.732 1030.95 442.439
231 1 49.217 14.5478 716 106.437 1029.3 467.831
232 0 52.1438 17.8161 929 98.1173 1028.97 470.235
233 0 49.3018 12.1699 600 111.137 1031.32 459.758
234 0 52.2997 12.8108 670 109.078 1028.94 461.837
235 0 55.2913 16.5306 914 103.333 1029.8 457.813
236 0 58.3142 16.291 950 102.717 1028.69 460.036
237 0 57.122 15.6507 894 105.839 1028.04 456.783
238 0 60.2012 16.7937 1011 103.07 1028.63 455.043
239 0 59.2371 11.9013 705 111.431 1028.03 454.735
240 0 61.2538 13.6155 834 110.59 1029.99 450.169
241 0 62.1989 11.7365 730 113.904 1029.43 448.815
242 0 67.284 12.7519 858 110.741 1030.59 449.216
243 0 67.2746 11.4159 768 113.116 1030.96 449.16
244 0 68.1614 12.9399 882 111.138 1030.78 446.111
245 0 72.1274 18.8555 1360 102.508 1032.05 445.392
246 0 73.2162 11.6368 852 112.696 1030.98 441.323
247 0 76.1602 10.3729 790 114.89 1032.78 443.038
248 0 80.3848 14.0201 1127 109.85 1033.61 439.124
249 0 83.427 10.7279 895 114.588 1033.66 439.819
250 0 85.3795 13.3404 1139 111.745 1035.39 436.061
251 0 91.5071 14.7857 1353 107.264 1035.28 440.582
252 0 95.1922 13.9612 1329 109.233 1036.72 435.895
253 0 95.1922 13.8982 1323 132.743 1038.71 435.93
254 1 49.238 11.353 559 112.159 1036.78 459.097
255 0 52.121 15.1378 789 106.153 1037.15 458.054
256 0 53.1028 11.2988 600 107.045 1035.88 459.488
257 0 55.2373 10.5001 580 109.352 1038.05 461.072
258 0 55.1482 16.4466 907 101.505 1036.69 461.002
259 0 58.1758 15.1438 881 102.966 1036.39 461.715
260 0 57.1116 13.3773 764 106.887 1035.95 462.505
261 0 60.1957 17.8584 1075 100.713 1037 461.427
262 0 62.1132 13.9262 865 106.986 1036.19 461.797
263 0 63.1484 13.8879 877 108.104 1035.77 461.494
264 0 64.2835 13.4871 867 108.982 1036.77 459.709
265 0 68.3209 14.1245 965 107.091 1035.26 462.24
266 0 69.2921 13.7245 951 108.739 1035.56 459.001
267 0 67.1896 10.5076 706 113.878 1033.88 455.987
268 0 71.1597 15.6268 1112 106.695 1033.77 453.37
269 0 75.2983 15.4851 1166 105.846 1032.8 455.651
270 0 76.2734 14.7233 1123 108.44 1032.6 452.859
271 0 77.2251 15.7203 1214 107.785 1032.67 449.825
272 0 80.4548 15.5118 1248 107.831 1033.09 448.393
273 0 83.3244 16.2857 1357 106.063 1031.25 447.327
274 0 87.2371 15.3834 1342 107.436 1031.18 445.359
275 0 88.1518 13.9646 1231 111.04 1030.32 442.555
276 0 91.0697 14.1211 1286 109.557 1030.33 444.694
277 0 96.4965 13.3269 1286 110.054 1030.06 440.141
278 0 99.2714 12.4205 1233 113.175 1030.58 433.337
279 0 101.321 11.6659 1182 115.019 1030.74 431.58
280 1 50.1682 9.52795 478 148.462 1031.04 457.138
281 0 55.0749 15.724 866 104.603 1030.99 457.584
282 0 56.0484 11.0797 621 111.382 1028.59 452.49
283 0 59.0856 12.8119 757 108.589 1028.18 452.052
284 0 58.1128 13.8007 802 107.5 1028.95 453.404
285 0 60.1578 12.3841 745 110.129 1029.67 447.585
286 0 60.1578 12.2511 737 132.771 1030.66 447.612
287 0 64.1561 11.6123 745 110.823 1031.22 444.25
288 0 65.0866 12.3835 806 110.485 1031.23 442.942
289 0 68.1174 12.2876 837 110.458 1033.38 443.21
290 0 70.1046 12.5384 879 109.932 1033.51 441.923
291 0 72.226 15.0084 1084 106.093 1034.84 440.696
292 0 73.3525 13.7964 1012 108.017 1034.39 438.495
293 0 75.2115 11.7535 884 111.019 1036.39 437.798
294 0 79.3234 13.5773 1077 108.147 1037.79 434.577
295 0 81.1281 11.0566 897 110.981 1039.77 437.343
296 0 85.1714 12.3868 1055 110.028 1040.23 436.842
297 0 86.2105 9.18682 792 114.26 1040.78 437.134
298 0 91.1713 12.8001 1167 109.458 1041.84 434.348
299 0 91.3378 10.0835 921 114.657 1040.56 435.544
300 0 96.3164 14.1513 1363 109.018 1040.22 431.759
301 0 99.1877 12.0781 1198 111.999 1040.93 434.287
302 0 104.359 14.9101 1556 108.749 1040.07 430.372
303 1 55.3575 13.7831 763 105.126 1036.93 454.132
304 0 57.4464 11.9416 686 108.417 1036.61 455.239
305 0 58.1783 12.2726 714 108.696 1039.97 456.667
306 0 61.0917 13.848 846 106.005 1039.15 457.043
307 0 60.1747 12.9124 777 108.085 1039.17 459.327
308 0 63.1453 12.3366 779 109.126 1038.45 455.84
309 0 67.0936 11.9833 804 108.464 1038.14 460.252
310 0 65.1277 10.9631 714 112.296 1036.77 455.713
311 0 71.0849 15.0806 1072 104.968 1037.5 453.272
312 0 73.19 12.0372 881 109.219 1036.85 453.666
313 0 75.2102 12.1127 911 109.705 1036.22 451.204
314 0 76.0909 10.1589 773 113.376 1035.61 451.515
315 0 80.1898 11.61 931 110.987 1034.62 446.981
316 0 83.0942 14.1887 1179 107.254 1034.67 446.291
317 0 85.3417 13.194 1126 109.218 1033.44 443.704
318 0 86.1305 10.4028 896 115.098 1032.97 437.938
319 0 91.1675 13.7988 1258 109.083 1032.83 439.874
320 0 93.3672 11.8243 1104 112.195 1032.95 436.866
321 0 94.1381 12.556 1182 111.357 1033.33 434.225
322 0 99.3395 12.4522 1237 113.115 1033.28 432.071
323 0 104.224 14.2386 1484 109.83 1032.05 432.059
324 1 52.0603 10.5263 548 112.268 1031.88 450.485
325 0 53.1926 11.355 604 111.228 1032.01 448.2
326 0 57.0756 13.0003 742 107.717 1031.72 451.028
327 0 58.1179 11.7692 684 105.999 1031.94 449.368
328 0 59.1795 12.7578 755 104.722 1031.27 445.857
329 0 62.1357 12.3279 766 105.492 1030.47 444.77
330 0 63.2117 15.2978 967 100.062 1032.9 446.746
331 0 64.1048 12.62 809 105.518 1032.85 442.915
332 0 67.2175 12.4372 836 105.971 1034.23 443.191
333 0 69.093 14.0246 969 104.13 1034.66 441.682
334 0 72.1735 16.1971 1169 100.34 1035.31 440.108
335 0 72.4055 12.8581 931 106.883 1036.06 439.827
336 0 76.1375 12.2935 936 108.031 1036.46 437.187
337 0 78.1157 12.3151 962 106.123 1036.57 436.678
338 0 81.2103 15.2936 1242 103.741 1036.9 435.081
339 0 83.2623 12.3465 1028 109.677 1038.37 435.564
340 0 87.384 12.6453 1105 109.597 1039.95 434.872
341 0 86.3695 11.775 1017 112.597 1038.85 434.841
342 1 46.1364 9.06009 418 111.981 1040.47 459.089
343 0 49.1223 11.3798 559 110.186 1040.74 455.862
344 0 50.085 12.4988 626 108.601 1040.57 456.144
345 0 52.355 12.7972 670 106.796 1042.95 454.666
346 0 54.2505 11.3363 615 106.393 1042.85 451.398
347 0 54.1002 10.1294 548 112.786 1042.89 457.146
348 0 55.1581 14.1955 783 103.811 1041.14 458.368
349 0 55.1581 14.2862 788 120.647 1042.15 458.284
350 0 56.0849 9.53911 535 111.632 1040.68 456.041
351 0 60.0218 12.7287 764 107.056 1039.85 457.401
352 0 62.1218 14.8257 921 104.127 1038.38 456.359
353 0 64.0694 9.67701 620 112.231 1037.05 457.794
354 0 63.079 10.3204 651 111.829 1036.5 455.198
355 0 69.163 11.162 772 110.61 1035.48 453.06
356 0 72.1089 16.0313 1156 103.708 1035.44 452.934
357 0 70.1791 10.345 726 111.764 1035.56 452.471
358 0 75.3048 11.4734 864 110.532 1035.22 449.398
359 0 76.3358 9.956 760 113.388 1035.27 446.841
360 0 81.1476 11.4483 929 111.351 1035.29 444.005
361 0 90.3752 11.408 1031 110.12 1033.68 442.902
362 0 86.2826 11.9375 1030 110.856 1033.92 441.207
363 1 44.1804 9.14432 404 115.745 1033.04 457.748
364 0 49.0818 11.002 540 111.802 1032.64 451.585
365 0 51.1947 11.4074 584 111.779 1033.11 450.8
366 0 51.0715 10.7301 548 108.889 1033.64 452.181
367 0 52.0747 10.6386 554 108.668 1033.19 452.139
368 0 53.0661 12.1547 645 107.124 1034.65 448.865
369 0 56.1673 12.2669 689 105.98 1033.39 451.785
370 0 58.1221 12.3533 718 106.614 1035.52 445.809
371 0 60.1662 11.5846 697 106.95 1035.81 444.895
372 0 61.238 13.3741 819 105.182 1036.85 442.597
373 0 61.238 13.4557 824 109.852 1038.83 442.595
374 0 66.4031 10.2405 680 108.676 1036.72 441.053
375 0 66.4031 10.3158 685 116.625 1033.69 441.06
376 0 71.2365 11.5952 826 107.467 1037.16 436.448
377 0 73.2918 11.4201 837 106.931 1038.99 437.22
378 0 73.2499 11.3447 831 121.463 1041 437.211
379 0 79.148 12.6851 1004 106.31 1039.26 433.633
380 0 82.1885 12.8242 1054 105.18 1040.51 435.008
381 0 82.2334 11.1877 920 108.676 1039.77 428.134
382 1 45.1925 10.1565 459 105.739 1041.74 453.614
383 0 50.3108 12.3234 620 101.227 1042.61 453.781
384 0 49.0503 11.2945 554 103.69 1043.45 452.895
385 0 51.1465 9.13064 467 106.555 1045.04 453.137
386 0 55.2877 12.1365 671 102.054 1043.85 450.012
387 0 54.2567 17.6384 957 95.1306 1044.82 448.578
388 0 58.0984 17.9695 1044 95.1849 1044.43 452.38
389 0 58.2117 13.4509 783 101.727 1044.83 453
390 0 59.172 12.2355 724 103.877 1043.98 453.45
391 0 63.0937 12.2675 774 104.354 1042.61 455.187
392 0 62.1561 12.4686 775 105.072 1043.57 455.641
393 0 60.1138 8.55045 514 112.65 1041.41 453.446
394 0 70.0891 16.4647 1154 99.3458 1041.42 451.159
395 0 69.1338 12.3818 856 106.028 1040.57 454.946
396 0 72.1748 10.5716 763 107.92 1041.33 453.99
397 0 74.0697 12.1372 899 108.281 1040.43 451.542
398 0 75.0782 8.40457 631 113.054 1040.14 452.686
399 0 81.101 15.2896 1240 101.44 1040.37 454.391
400 0 81.2311 11.5473 938 108.195 1038.95 452.263
401 0 87.1975 16.1472 1408 103.332 1037.02 446.633
402 0 91.1535 13.6912 1248 106.526 1036.13 443.617
403 0 93.1182 14.5836 1358 104.062 1035.59 446.169
404 0 95.4089 8.70988 831 114.805 1034.6 441.406
405 0 99.272 13.186 1309 112.496 1035.15 436.719
406 0 101.503 10.5416 1070 116.067 1033.38 434.797
407 0 105.324 12.1055 1275 114.613 1033.8 433.143
408 0 104.815 12.0212 1260 114.273 1031.62 426.317
409 0 104.815 11.964 1254 127.679 1029.63 426.148
410 1 57.2547 14.2521 816 106.108 1031.48 452.25
411 0 59.0676 11.3937 673 109.122 1031.47 453.783
412 0 58.0844 10.3298 600 111.842 1031.47 451.772
413 0 66.2182 13.1988 874 106.724 1032.06 449.515
414 0 63.0964 12.3303 778 109.084 1031.99 444.162
415 0 63.2435 11.2739 713 109.735 1032.71 448.714
416 0 70.1602 9.30726 653 110.179 1032.69 447.727
417 0 70.2687 12.5376 881 107.586 1033.64 439.452
418 0 72.1444 17.9501 1295 99.9861 1034.35 437.534
419 0 75.2057 9.95935 749 111.276 1034.73 439.877
420 0 79.2116 14.4676 1146 104.578 1036.24 437.018
421 0 79.1013 12.0984 957 109.362 1037.21 436.132
422 0 80.166 10.3909 833 114.267 1038.76 436.725
423 0 88.1875 17.871 1576 101.954 1039.77 433.25
424 0 88.1875 17.8143 1571 114.607 1039.76 433.272
425 0 95.2203 14.2302 1355 107.851 1042.21 431.548
426 0 96.1606 10.1913 980 113.107 1042.77 435.026
427 1 51.0598 12.2993 628 110.748 1043.4 452.334
428 0 50.0704 13.7207 687 111.255 1045.05 449.709
429 0 54.243 13.0892 710 112.945 1045.01 451.47
430 0 55.0882 14.0321 773 112.64 1044.84 451.201
431 0 53.1056 8.32303 442 123.414 1044.03 452.862
432 0 58.1077 13.0964 761 114.583 1043.5 452.292
433 0 59.1579 11.3763 673 118.183 1043.49 453.771
434 0 64.413 10.945 705 117.321 1042.82 453.786
435 0 64.2895 14.2792 918 112.751 1042.71 452.243
436 0 66.2882 12.9435 858 114.134 1041.83 454.216
437 0 66.3997 12.5754 835 116.054 1041.93 451.121
438 0 72.4147 16.7507 1213 107.974 1041.97 451.966
439 0 73.2851 12.1989 894 116.645 1040.93 452.537
440 0 77.3395 16.809 1300 108.722 1040.11 452.211
441 0 79.4334 15.8372 1258 111.582 1039.58 445.845
442 1 40.1647 7.59374 305 120.708 1036.62 468.456
443 0 43.2583 11.9746 518 115.093 1036.86 465.707
444 0 44.1525 10.8261 478 117.749 1037.42 465.006
445 0 44.083 9.777 431 118.814 1035.19 467.248
446 0 44.0724 13.3644 589 109.642 1034.84 462.93
447 0 48.1277 12.9655 624 108.389 1034.98 465.016
448 0 51.0499 13.5554 692 106.465 1034.76 463.399
449 0 51.0647 12.8073 654 109.459 1033.88 463.754
450 0 51.0888 10.7656 550 115.504 1034.34 459.738
451 0 52.0399 10.9916 572 114.276 1034.54 458.846
452 0 55.1927 12.9546 715 110.294 1034.05 457.933
453 0 58.103 13.1663 765 110.15 1034.15 455.403
454 0 61.1415 14.491 886 108.16 1033.34 453.635
455 0 63.2462 12.8071 810 110.281 1032.66 451.289
456 0 62.373 13.307 830 110.294 1032.86 451.649
457 0 65.1297 12.6517 824 112.038 1032.61 444.282
458 0 69.1365 13.7843 953 110.235 1033.57 445.884
459 0 70.1706 12.3271 865 112.25 1033.52 448.084
460 0 72.2825 13.0737 945 111.914 1034.06 441.987
461 0 72.2423 12.0843 873 114.992 1034.69 439.566
462 0 72.2423 12.0705 872 135.052 1035.76 439.411
463 0 82.1817 14.1881 1166 109.89 1035.67 439.553
464 0 84.2515 11.525 971 120.828 1036.25 437.608
465 0 88.2535 16.5546 1461 109.561 1036.6 442.235
466 0 91.2811 14.0555 1283 116.256 1038.54 436.921
467 0 91.4313 14.2949 1307 117.223 1038.14 435.662
468 0 97.2061 11.275 1096 120.254 1037.54 435.057
469 1 51.1391 9.36661 479 110.159 1041.13 461.008
470 0 51.0262 12.229 624 110.843 1041.56 458.341
471 0 52.1581 9.96969 520 114.617 1039.62 457.25
472 0 56.1658 13.9587 784 106.565 1038.89 458.129
473 0 56.0899 12.9435 726 109.128 1038.57 460.149
474 0 59.3231 12.7269 755 109.113 1039.61 459.286
475 0 60.0761 16.8287 1011 103.369 1039.16 459.185
476 0 61.0666 12.2489 748 109.995 1039.13 463.231
477 0 62.1706 11.2432 699 111.953 1038.02 461.818
478 0 66.2592 12.8586 852 108.509 1037.95 459.113
479 0 67.1572 12.8653 864 108.851 1037.8 461.904
480 0 68.1978 13.8567 945 107.958 1037.63 459.572
481 0 72.1143 13.8114 996 107.383 1036.35 461.392
482 0 74.1723 15.828 1174 104.167 1035.98 460.195
483 0 76.3583 13.345 1019 108.793 1034.39 457.454
484 0 77.318 10.1399 784 112.699 1034.43 453.577
485 0 81.1628 13.2819 1078 114.794 1033.37 454.224
486 0 85.2018 12.9457 1103 113.374 1034.97 455.042
487 0 86.1506 13.3371 1149 113.838 1034.31 450.943
488 0 90.2336 16.1691 1459 107.458 1034.22 455.134
489 0 94.2071 13.9798 1317 112.26 1033.36 445.247
490 0 96.2311 11.7634 1132 116.316 1032.7 447.518
491 0 98.3739 11.7816 1159 115.244 1031.94 445.802
492 0 102.188 12.3596 1263 113.987 1031.34 445.389
493 1 57.3128 10.3118 591 115.051 1029.77 465.635
494 0 59.3224 13.0979 777 113.021 1028.75 459.919
495 0 58.212 13.5711 790 113.819 1028.2 460.77
496 0 61.1416 13.1335 803 114.153 1028.71 455.313
497 0 66.0688 15.0449 994 109.914 1027.03 453.232
498 0 65.2009 13.0213 849 114.323 1027.58 452.274
499 0 67.0762 14.0736 944 113.727 1028.89 451.01
500 0 70.1497 12.5446 880 116.247 1027.11 446.602
501 0 72.1641 13.1922 952 115.381 1028.55 446.436
502 0 75.1434 10.2338 769 120.836 1029.46 444.776
503 0 78.1474 13.7944 1078 115.573 1030.16 440.682
504 0 83.0775 14.2518 1184 113.69 1029.88 440.278
505 0 84.1355 12.7651 1074 117.635 1031.36 436.213
506 0 89.4655 14.3519 1284 113.746 1031.67 436.055
507 0 90.2595 13.1177 1184 114.922 1031.79 434.726
508 0 91.3138 12.9444 1182 115.912 1033.43 432.704
509 1 48.0319 12.4292 597 111.591 1033.91 455.136
510 0 49.0545 8.31728 408 119.172 1034.59 449.647
511 0 50.2322 9.57552 481 118.154 1034.88 452.738
512 0 56.1197 11.9031 668 111.966 1035.04 453.825
513 0 54.1144 10.792 584 114.682 1036.65 456.024
514 0 54.0834 10.4468 565 115.818 1036.5 456.789
515 0 59.0922 12.3366 729 111.708 1037.88 453.933
516 0 58.1272 11.3716 661 114.598 1037.3 452.576
517 0 62.4281 12.9909 811 111.2 1038.66 455.232
518 0 65.1002 12.5345 816 112.06 1037.06 455.931
519 0 63.3744 9.92515 629 117.615 1037.45 455.941
520 0 67.1244 10.8604 729 115.368 1036.82 458.484
521 0 70.2553 10.2483 720 116.981 1036.17 456.467
522 0 73.1268 12.4988 914 113.143 1036.98 457.357
523 0 75.2309 14.2893 1075 110.764 1036.17 457.503
524 0 79.1929 14.5341 1151 109.633 1035.84 457.897
525 0 82.4278 14.3884 1186 111.761 1034.5 452.992
526 0 86.2979 12.6654 1093 114.233 1034.98 453.19
527 0 89.4444 13.5056 1208 111.853 1033.79 455.77
528 1 44.0541 9.01164 397 117.821 1033.04 473.212
529 0 48.2053 10.8909 525 115.07 1032.66 470.872
530 0 48.0679 11.2549 541 115.322 1029.82 469.449
531 0 50.058 13.1647 659 112.08 1030.85 468.807
532 0 52.0531 14.3699 748 110.631 1028.83 467.731
533 0 50.0469 10.0706 504 120.427 1029.36 466.242
534 0 54.138 13.7611 745 113.576 1029.43 463.059
535 0 56.4118 13.9332 786 114.413 1027.49 463.495
536 0 54.0793 12.0379 651 111.098 1028.23 467.842
537 0 58.0568 13.7624 799 109.692 1027.12 460.011
538 0 57.0995 12.487 713 112.297 1026.84 459.809
539 0 60.3355 13.2923 802 111.8 1027.87 456.657
540 0 62.1884 11.7546 731 114.613 1028.4 453.778
541 0 64.0698 12.6112 808 112.897 1030.03 457.259
542 0 65.1477 9.56288 623 118.331 1029.15 453.483
543 0 68.1397 10.1263 690 116.752 1028.26 452.238
544 0 72.2161 13.9027 1004 110.688 1028.32 450.225
545 0 72.1358 13.6409 984 112.518 1029.2 447.624
546 0 74.1176 13.3302 988 112.348 1028.48 448.542
547 0 79.256 10.8383 859 115.107 1031.2 448.272
548 0 80.1623 14.9946 1202 110.153 1030.31 448.737
549 0 83.4357 13.3995 1118 113.711 1032.1 445.456
550 0 87.1832 14.5556 1269 112.306 1033.25 440.755
551 1 43.1619 13.1598 568 113.437 1032.97 460.799
552 0 46.0421 13.227 609 111.297 1033.34 462.768
553 0 47.173 11.6168 548 115.17 1034.21 458.108
554 0 46.2263 10.6217 491 113.246 1035.85 453.921
555 0 46.018 9.53975 439 114.317 1038.38 454.948
556 0 50.1745 12.4765 626 108.649 1038.2 457.241
557 0 55.0504 16.3305 899 105.306 1039.22 460.057
558 0 58.1033 14.0095 814 108.687 1038.97 459.821
559 0 58.0875 14.5126 843 109.485 1038.62 458.02
560 0 58.0748 15.6867 911 108.931 1038.9 457.4
561 0 59.2096 11.8562 702 114.883 1039.12 459.181
562 0 61.1727 13.7316 840 111.62 1039.61 459.319
563 0 62.0731 12.888 800 113.645 1038.76 458.308
564 0 62.0731 13.9513 866 112.931 1037.59 459.227
565 0 66.1633 12.983 859 113.491 1038.19 461.058
566 0 70.1036 15.0064 1052 110.461 1037.06 458.686
567 0 70.4579 14.6896 1035 112.363 1037.08 458.634
568 0 71.2534 13.0801 932 114.285 1036.92 459.535
569 0 73.2305 13.1776 965 114.857 1035.84 456.953
570 0 78.2171 14.6132 1143 111.6 1034.7 454.857
571 0 78.2675 12.0612 944 116.711 1034.23 455.481
572 0 82.3337 16.6517 1371 108.659 1032.91 456.221
573 1 43.1369 9.38871 405 116.121 1032.28 474.035
574 0 41.0777 11.6365 478 114.18 1032.3 473.328
575 0 46.4599 9.87949 459 112.693 1029.93 474.473
576 0 45.3657 11.8812 539 113.213 1030.15 469.529
577 0 45.2777 12.0368 545 113.345 1030.02 466.971
578 0 50.101 17.0456 854 104.704 1028.61 468.021
579 0 50.1847 13.271 666 112.113 1029.87 464.962
580 0 51.1396 12.6907 649 114.162 1028.68 464.478
581 0 52.0761 13.1922 687 111.984 1028.68 464.582
582 0 52.0761 13.269 691 124.948 1028.7 464.627
583 0 56.1583 12.6072 708 114.158 1029.68 457.989
584 0 58.1534 15.27 888 110.681 1028.79 457.684
585 0 63.274 15.6936 993 108.226 1028.61 456.336
586 0 63.2321 14.6286 925 110.972 1030.04 454.744
587 0 66.2518 13.2676 879 113.551 1030.6 453.027
588 0 66.1349 12.2628 811 115.98 1030.41 454.311
589 0 70.195 16.7533 1176 110.363 1030.12 449.973
590 0 72.1582 14.2188 1026 114.054 1030.57 446.926
591 0 73.0942 14.2556 1042 114.734 1032.2 447.251
592 0 75.1347 13.4425 1010 116.213 1033.09 447.7
593 0 75.1347 13.4691 1012 129.943 1034.1 447.742
594 0 84.4304 13.218 1116 114.849 1035.4 442.712
595 1 43.2009 10.9951 475 117.158 1036.12 458.859
596 0 47.0711 13.1503 619 112.405 1037.79 459.326
597 0 45.1582 13.6852 618 113.735 1036.27 461.351
598 0 47.0487 13.943 656 110.404 1035.17 459.043
599 0 46.032 10.9489 504 116.879 1035.53 459.649
600 0 46.032 10.9272 503 129.459 1036.51 459.803
601 0 50.0796 9.76446 489 117.164 1036.79 463.204
602 0 53.107 13.1244 697 111.314 1038.62 461.763
603 0 57.1265 12.3235 704 111.621 1038.15 458.916
604 0 58.0403 13.3011 772 109.984 1037.98 460.225
605 0 59.0958 14.045 830 108.383 1036.66 462.046
606 0 63.2058 15.5524 983 105.364 1038.14 456.446
607 0 60.0569 8.72506 524 117.185 1038.06 461.42
608 0 64.1384 12.2859 788 111.44 1037.55 458.407
609 0 70.0349 15.1353 1060 106.307 1037.04 459.091
610 0 71.123 11.8949 846 112.343 1036.2 457.141
611 1 143.5 11.2544 1615 118.72 1035.52 428.308
612 0 149.429 14.3814 2149 114.256 1034.96 426.944
613 0 152.538 13.3868 2042 117.015 1035.2 419.143
614 0 153.431 10.8518 1665 121.97 1033.6 417.962
615 0 159.409 12.5777 2005 119.314 1033.11 409.755
616 0 165.876 14.9389 2478 114.473 1031.84 416.444
617 1 87.4456 14.1688 1239 111.559 1033.13 451.127
618 1 51.3303 12.1566 624 113.032 1031.77 469.391
619 0 49.2556 12.0799 595 114.103 1032.35 465.97
620 0 53.1332 15.6211 830 107.982 1030.88 465.425
621 0 53.0539 12.9114 685 108.895 1031.74 466.943
622 0 52.2508 14.6026 763 105.691 1029.33 466.895
623 0 54.0679 11.7815 637 111.36 1028.51 465.874
624 0 56.0357 10.4576 586 114.128 1028.73 462.222
625 0 60.1975 14.0703 847 107.714 1028.43 458.316
626 0 61.1833 11.9967 734 111.465 1029.13 456.327
627 0 61.1348 12.268 750 111.804 1027.77 455.059
628 0 64.1763 13.7901 885 108.764 1028.72 450.515
629 0 65.2394 12.7684 833 109.916 1029.54 451.282
630 0 68.1941 12.3178 840 110.317 1030.13 449.782
631 0 70.2162 10.9377 768 112.081 1032.07 449.006
632 0 76.1557 12.6058 960 109.558 1031.64 447.894
633 0 77.2446 13.7485 1062 108.506 1033.46 445.869
634 0 81.279 15.822 1286 105.154 1031.7 443.796
635 1 45.061 13.049 588 107.063 1034.71 461.446
636 0 44.1839 9.86784 436 113.167 1033.85 462.234
637 0 44.107 11.2 494 111.678 1036.04 460.275
638 0 47.03 16.2449 764 102.483 1035.16 460.966
639 0 46.051 11.357 523 111.562 1034.5 459.767
640 0 48.0602 13.3791 643 109.756 1034.99 459.457
641 0 52.0438 12.355 643 110.507 1035.38 459.555
642 0 50.0451 11.6495 583 113.045 1035.4 459.343
643 0 54.0598 12.4677 674 110.067 1035.98 458.055
644 0 54.0862 12.6835 686 108 1036.8 460.904
645 0 56.293 11.2447 633 110.804 1037.37 461.183
646 0 59.1937 11.7073 693 109.762 1036.86 462.003
647 0 56.1225 12.5974 707 109.938 1035.78 457.55
648 0 62.0767 12.2912 763 107.896 1036.34 462.893
649 0 63.0748 12.0016 757 110.724 1035.91 460.491
650 0 66.0746 12.8491 849 108.834 1035.91 458.595
651 0 74.1514 17.6126 1306 101.422 1035.45 459.869
652 0 71.2375 12.3952 883 111.08 1036.19 456.368
653 0 75.1337 14.0682 1057 108.728 1036.03 458.119
654 0 77.5805 12.3485 958 111.598 1035.25 460.424
655 0 78.1615 13.7408 1074 111.611 1035.13 455.303
656 0 83.1096 13.416 1115 111.246 1034.4 455.449
657 0 86.1959 13.2489 1142 112.511 1033.08 453.591
658 0 88.0955 12.9632 1142 114.925 1033.51 447.186
659 1 47.0476 11.9241 561 115.683 1031.42 470.542
660 0 48.0871 10.5226 506 118.34 1031.84 467.666
661 0 51.0419 11.6375 594 111.892 1031.12 466.367
662 0 54.0344 15.6752 847 107.702 1031.51 467.138
663 0 52.0814 13.3445 695 112.845 1031.41 467.652
664 0 54.213 14.5906 791 110.442 1030.87 467.198
665 0 55.0642 13.2936 732 114.236 1031.26 465.239
666 0 58.1978 16.3064 949 109.148 1030.84 461.996
667 0 58.1402 12.6247 734 115.828 1030 462.401
668 0 62.2009 12.9741 807 115.155 1030.53 460.072
669 0 63.3783 15.7309 997 110.978 1029.16 458.744
670 0 65.3574 14.5048 948 113.118 1029.85 458.546
671 0 66.1692 14.9616 990 113.31 1030.41 456.053
672 0 68.0891 12.469 849 112.335 1029.21 453.903
673 0 72.3337 14.6128 1057 110.721 1030.37 445.35
674 0 75.2084 15.344 1154 109.753 1031.1 446.924
675 0 74.104 12.2261 906 116.751 1030.97 445.716
676 0 79.2046 12.8528 1018 115.302 1031.9 447.346
677 0 83.2708 13.6783 1139 114.568 1032.58 439.523
678 0 85.2135 13.4016 1142 114.115 1032.53 444.102
679 1 43.0367 9.71265 418 114.933 1032.21 463.488
680 0 45.1258 12.0774 545 111.985 1036.2 462.444
681 0 48.0482 16.3169 784 104.147 1034.16 460.513
682 0 51.083 13.8598 708 110.511 1033.9 460.825
683 0 53.2143 13.2295 704 111.335 1036.42 458.51
684 0 54.2614 18.5952 1009 101.51 1036.1 462.256
685 0 53.1799 12.768 679 114.146 1037.15 459.04
686 0 56.2141 13.1995 742 112.631 1036.28 462.369
687 0 57.2264 11.4283 654 114.609 1037.58 465.561
688 0 58.1567 13.6012 791 113.616 1038.07 463.454
689 0 58.0871 13.3248 774 114.97 1037.79 458.68
690 0 61.1447 14.8173 906 111.719 1037.38 461.248
691 0 64.2101 13.7985 886 113.085 1037.36 460.674
692 0 65.2206 14.9799 977 112.003 1036.35 458.597
693 0 70.126 13.433 942 114.828 1036.34 458.167
694 0 70.126 13.4472 943 133.919 1036.32 458.156
695 0 75.14 13.1754 990 113.489 1037.28 462.625
696 0 75.1848 15.136 1138 111.644 1035.72 458.518
697 0 80.1276 15.7499 1262 110.865 1036.5 457.114
698 1 39.0579 10.8813 425 118.494 1036.46 479.673
699 0 41.0518 10.9618 450 119.084 1035.36 477.722
700 0 45.0862 11.9992 541 116.29 1034 476.405
701 0 43.046 12.5912 542 116.339 1031.88 476.253
702 0 46.0793 11.8926 548 117.553 1031.44 475.263
703 0 46.0793 12.0011 553 138.955 1030.46 475.255
704 0 47.1946 14.2389 672 110.857 1030.19 471.067
705 0 47.1946 14.1118 666 122.659 1030.16 471.096
706 0 47.1946 14.1118 666 122.168 1030.16 471.096
707 0 51.1849 12.9335 662 111.897 1029.13 468.101
708 0 54.1209 16.186 876 106.124 1030 467.073
709 0 55.0899 14.2857 787 109.823 1030.03 465.075
710 0 58.1291 13.1088 762 111.57 1028.66 465.283
711 0 60.0647 14.6009 877 109.751 1029.83 463.822
712 0 62.1173 16.2757 1011 106.491 1028.17 461.009
713 0 63.1898 13.2933 840 112.571 1030.75 461.721
714 0 65.2703 14.9992 979 110.365 1029.31 457.389
715 0 67.2206 13.8053 928 109.448 1030.62 452.653
716 0 69.2868 14.707 1019 107.556 1030.34 452.182
717 0 73.1664 12.9021 944 110.732 1031.2 450.623
718 0 74.0501 14.4362 1069 109.446 1030.14 445.399
719 0 77.1327 13.6777 1055 110.281 1031.48 446.608
720 0 80.1869 14.142 1134 110.275 1030.94 446.104
721 0 81.1364 13.4218 1089 112.739 1031.77 443.608
722 1 42.0671 10.1267 426 113.134 1032.29 464.092
723 0 46.0862 11.1313 513 112.386 1032.68 461.433
724 0 47.0361 13.0113 612 109.077 1033.54 459.781
725 0 48.0514 12.6947 610 110.666 1033.65 461.08
726 0 48.0514 12.6947 610 129.179 1033.67 461.046
727 0 52.2747 12.97 678 110.055 1035.16 458.142
728 0 51.1238 10.8364 554 114.682 1035.11 461.987
729 0 55.1721 11.2919 623 113.831 1035.32 456.846
730 0 58.1104 12.8893 749 111.282 1037.38 459.908
731 0 59.0864 14.775 873 108.503 1036.53 462.518
732 0 61.135 13.4947 825 111.718 1037.09 462.587
733 0 62.0396 13.5559 841 112.093 1037.54 461.901
734 0 64.1925 13.4751 865 112.83 1037.54 463.156
735 0 67.2001 15.0297 1010 110.978 1037.3 460.793
736 0 68.3535 12.7133 869 115.117 1036.54 464.349
737 0 71.1809 12.7843 910 116.656 1036.59 458.494
738 0 73.278 15.0113 1100 112.513 1035.01 462.443
739 0 76.2796 13.1359 1002 116.945 1037.03 456.87
740 0 76.2892 12.138 926 119.992 1035.22 455.873
741 0 80.3017 15.9773 1283 114.183 1036.33 453.899
742 0 81.3736 13.3581 1087 120.48 1033.8 453.297
743 0 86.3249 16.183 1397 115.063 1034.41 449.124
744 1 43.3449 9.13603 396 122.328 1033.46 473.437
745 0 45.2709 11.0667 501 117.623 1031.78 472.475
746 0 45.3777 10.7762 489 122.08 1031.87 469.609
747 0 47.2502 12.2751 580 118.938 1031.63 466.357
748 0 50.2129 12.2877 617 116.781 1029.58 470.415
749 0 50.3223 11.784 593 118.035 1030.73 469.725
750 0 49.2588 11.1249 548 120.308 1030 467.245
751 0 53.2626 11.9596 637 116.989 1030.55 468.593
752 0 54.3033 12.8353 697 115.945 1030.9 467.779
753 0 54.1503 11.505 623 119.042 1030.42 461.308
754 0 59.1276 14.1051 834 113.418 1029.4 460.457
755 0 60.1369 16.3959 986 109.449 1030.62 458.07
756 0 61.3885 12.706 780 116.127 1030.42 453.488
757 0 65.3231 13.6552 892 113.348 1031.07 450.507
758 0 65.2661 12.8244 837 115.777 1031.62 444.219
759 0 67.3677 13.122 884 115.464 1031.75 446.542
760 0 70.3332 13.5498 953 114.154 1032.71 445.927
761 0 72.3235 11.1582 807 117.52 1032.42 449.799
762 0 76.2496 14.164 1080 112.133 1034.7 444.381
763 0 81.3839 13.8111 1124 112.415 1035.42 438.816
764 0 80.4061 12.9841 1044 115.395 1035.7 434.927
765 0 84.4598 12.7872 1080 115.538 1035.84 436.161
766 0 84.2491 12.5105 1054 116.088 1037.19 435.375
767 1 42.1378 11.0115 464 114.093 1038.2 458.894
768 0 44.0384 10.6725 470 115.423 1037.39 460.451
769 0 48.0689 12.5861 605 106.947 1036.47 458.879
770 0 49.1732 13.605 669 108.528 1036.19 458.994
771 0 49.1905 11.5876 570 112.065 1036.86 459.496
772 0 52.2035 12.5854 657 109.731 1038.03 460.002
773 0 55.1884 12.5932 695 109.089 1037.06 461.553
774 0 56.1337 12.5593 705 108.715 1037.74 460.323
775 0 58.0623 14.4156 837 106.182 1037.98 461.243
776 0 59.0751 14.4223 852 104.683 1037.75 460.714
777 0 60.0978 11.1485 670 110.024 1037.7 461.145
778 0 63.1561 11.3528 717 109.353 1036.98 459.939
779 0 64.1013 11.4194 732 110.299 1035.96 462.719
780 0 68.1885 14.4892 988 105.829 1036.34 457.706
781 0 71.1813 13.7115 976 105.908 1036.61 459.961
782 0 73.2872 12.1167 888 108.949 1036.03 457.678
783 0 75.1642 13.9694 1050 106.565 1035.88 456.29
784 0 77.2552 12.4393 961 108.347 1034.97 457.513
785 0 82.3131 13.7767 1134 104.383 1035.43 453.003
786 0 81.3226 11.399 927 109.246 1035.71 449.852
787 1 41.216 11.4761 473 107.042 1032.24 470.366
788 0 44.1475 11.5975 512 107.699 1032.55 469.15
789 0 47.3195 17.2868 818 98.5782 1032.98 473.21
790 0 45.065 10.4516 471 115.149 1031.76 470.851
791 0 49.0859 13.0587 641 110.206 1031.39 466.179
792 0 50.2037 13.9033 698 109.251 1032.33 466.009
793 0 52.1003 17.1592 894 103.556 1031.06 464.379
794 0 54.2322 14.1798 769 108.074 1030.93 464.605
795 0 54.0787 15.311 828 107.58 1031.44 458.238
796 0 56.3475 18.2439 1028 101.796 1031 464.1
797 0 56.3475 17.9777 1013 112.015 1031.04 464.005
798 0 59.1718 15.5817 922 106.928 1030.32 457.432
799 0 60.1515 13.6156 819 109.816 1029.28 458.866
800 0 62.1534 15.8479 985 113.444 1028.34 456.246
801 0 66.0423 15.7778 1042 106.379 1030.49 451.859
802 0 67.168 12.8484 863 111.589 1031.24 449.958
803 0 67.31 11.1425 750 115.027 1032.43 445.904
804 0 72.3688 11.8421 857 112.544 1033.29 449.279
805 0 73.4107 12.0827 887 113.065 1033.02 439.884
806 0 77.257 11.3517 877 114.997 1033.71 440.266
807 0 79.3625 13.369 1061 111.809 1035.31 442.143
808 0 82.446 13.4391 1108 111.687 1034.53 438.833
809 0 85.3137 14.8862 1270 109.754 1035.46 431.942
810 0 85.3137 14.7807 1261 119.787 1036.48 432.001
811 1 46.3903 11.6835 542 115.581 1036.71 454.041
812 0 46.3903 11.6404 540 128.915 1035.7 454.117
813 0 52.1846 14.4104 752 109.455 1037.57 459.649
814 0 52.0421 11.0295 574 115.502 1037.16 458.038
815 0 53.057 13.3253 707 112.061 1038.04 456.277
816 0 55.0692 12.8565 708 113.12 1037.74 457.582
817 0 58.1346 13.6063 791 111.626 1039.44 458.014
818 0 58.1296 13.5903 790 120.259 1041.45 458.01
819 0 59.0843 8.78406 519 120.152 1038.14 461.665
820 0 60.3077 16.9796 1024 108.742 1038.22 457.644
821 0 63.4697 12.2421 777 117.346 1037.49 456.667
822 0 64.3503 14.4677 931 113.745 1037.98 455.905
823 0 67.1981 13.17 885 115.703 1038.52 458.038
824 0 71.283 12.4854 890 115.669 1036.1 460.39
825 0 72.1737 13.4952 974 115.736 1037.28 457.642
826 0 72.2476 11.4606 828 120.123 1034.4 456.678
827 0 77.4043 13.7718 1066 115.659 1036.23 453.579
828 0 79.4708 15.1125 1201 113.381 1035.61 450.698
829 0 81.2466 14.4006 1170 113.854 1034.57 450.553
830 1 43.0456 14.3336 617 108.831 1032.03 469.972
831 0 45.0975 11.5306 520 111.877 1032.54 471.01
832 0 49.1362 12.0888 594 112.2 1032.93 468.912
833 0 49.1691 12.9349 636 111.467 1035.26 462.392
834 0 52.1546 12.9231 674 110.108 1034.13 463
835 0 53.1066 11.298 600 113.945 1034.7 460.747
836 0 51.132 10.4044 532 117.622 1034.33 459.004
837 0 54.0649 13.6133 736 111.012 1032.42 460.234
838 0 54.0649 13.5208 731 121.068 1031.43 460.174
839 0 59.1643 17.3922 1029 104.371 1031.38 457.306
840 0 62.093 14.4944 900 108.718 1031.94 454.889
841 0 61.0733 13.361 816 112.099 1031.15 453.331
842 0 66.1869 14.3382 949 108.858 1031.07 451.54
843 0 66.0928 13.5416 895 111.378 1031.73 448.353
844 0 69.1514 14.5044 1003 108.534 1032.29 451.941
845 0 70.2027 15.0849 1059 110.563 1032.76 444.149
846 0 74.0788 16.5904 1229 107.356 1032.87 444.718
847 0 75.241 18.8195 1416 105.018 1033.55 441.17
848 0 77.0968 13.4895 1040 113.555 1035.06 442.241
849 0 83.1887 14.6775 1221 110.902 1034.9 439.927
850 0 85.312 15.707 1340 109.332 1034.63 439.734
851 0 90.11 15.0039 1352 110.595 1035.44 439.014
852 0 92.2341 17.2821 1594 107.805 1033.74 433.7
853 0 96.2811 16.0052 1541 108.812 1036.83 435.256
854 0 95.2568 13.4479 1281 114.472 1036.49 436.001
855 0 97.1419 12.8163 1245 115.39 1036.65 436.689
856 1 53.1438 13.7551 731 112.798 1036.46 457.471
857 0 55.1665 16.5318 912 103.066 1038.02 456.632
858 0 53.1502 11.5145 612 108.338 1038.25 450.922
859 0 55.16 10.6961 590 109.569 1038.78 450.688
860 0 60.115 15.7698 948 101.267 1038.98 453.636
861 0 60.1169 12.4092 746 106.248 1039.95 451.916
862 0 60.1801 13.4928 812 104.716 1040.12 451.548
863 0 64.1102 12.2757 787 104.304 1037.46 459.299
864 0 68.1412 15.0716 1027 100.846 1039.49 455.319
865 0 67.2013 12.6039 847 106.092 1039.08 452.95
866 0 74.2864 12.9768 964 103.755 1039.4 455.717
867 0 72.1176 13.5751 979 104.615 1037.98 452.634
868 0 77.2916 16.5348 1278 100.683 1037.19 450.782
869 0 80.2827 16.6786 1339 99.1008 1037.09 456.267
870 0 83.0876 15.2008 1263 102.446 1036.97 447.563
871 0 85.2418 13.7139 1169 104.231 1036.58 454.006
872 0 87.1843 10.7818 940 110.096 1036.66 446.623
873 0 92.4508 13.034 1205 106.969 1034.13 445.202
874 1 47.2125 11.8401 559 105.063 1034.7 469.32
875 0 47.265 11.7212 554 108.756 1034.31 466.542
876 0 51.2859 12.4401 638 108.723 1032.89 463.313
877 0 52.1642 13.8792 724 103.247 1032.86 458.478
878 0 50.2753 8.53302 429 111.837 1031.29 455.767
879 0 56.1915 13.4184 754 103.741 1033.12 457.952
880 0 60.1999 11.6279 700 105.246 1032.78 457.033
881 0 60.2719 16.044 967 100.515 1032.84 450.607
882 0 61.0637 13.3795 817 104.776 1032.32 453.037
883 0 63.1535 13.2217 835 105.653 1033.01 448.861
884 0 64.142 9.63487 618 111.134 1032.56 447.372
885 0 68.2536 12.1166 827 108.785 1033 445.262
886 0 69.1767 13.5595 938 106.712 1032.37 445.091
887 0 71.1058 13.9229 990 106.673 1032.43 443.243
888 0 73.4454 13.9423 1024 108.173 1033.78 439.732
889 0 74.2586 13.2375 983 109.729 1033.7 441.274
890 0 79.1836 15.0915 1195 106.802 1035.02 441.078
891 0 81.1789 14.7206 1195 108.839 1035.15 436.842
892 0 85.2355 15.6742 1336 107.379 1035.03 436.974
893 0 85.1339 13.8488 1179 111.975 1036.32 432.411
894 0 88.3936 17.0148 1504 107.971 1035.89 432.968
895 0 92.1421 14.4668 1333 113.054 1037.28 429.529
896 1 47.05 15.813 744 107.434 1037.16 454.054
897 0 45.0725 10.0283 452 113.635 1038.12 455.892
898 0 49.1515 12.0851 594 109.985 1038.01 453.178
899 0 51.0894 14.6019 746 106.672 1037.88 445.508
900 0 52.0576 13.3506 695 107.922 1039.94 451.6
901 0 57.08 17.0287 972 101.14 1040.21 454.431
902 0 58.2601 13.6114 793 106.363 1039.87 455.624
903 0 57.1398 10.3605 592 113.164 1039.62 452.549
904 0 61.0406 15.3832 939 104.485 1038.84 459.982
905 0 62.0724 14.1931 881 110.083 1039.99 456.619
906 0 62.0616 11.4564 711 115.37 1040.09 455.169
907 0 69.1066 12.6905 877 111.279 1039.8 456.949
908 0 66.1755 10.593 701 116.826 1039.89 456.2
909 1 143.35 12.166 1744 118.15 1039.15 414.584
910 1 74.1783 13.3193 988 111.301 1038.15 453.438
911 0 75.1169 13.246 995 113.766 1038 451.576
912 0 80.1868 13.4685 1080 112.538 1038.69 450.451
913 0 82.1922 12.9088 1061 114.351 1037.86 446.482
914 0 84.2048 12.1727 1025 113.965 1036.21 452.343
915 0 84.1124 11.9007 1001 116.152 1037.67 448.18
916 0 90.2442 14.4719 1306 112.135 1034.63 447.256
917 1 50.0966 11.7772 590 111.215 1034.76 463.485
918 0 50.1343 11.8083 592 111.975 1034.61 465.166
919 0 52.3267 13.817 723 110.147 1033.13 461.185
920 0 53.0691 11.6452 618 113.162 1032.36 463.838
921 0 56.0514 14.4689 811 110.677 1031.6 462.042
922 0 60.0901 15.9594 959 109.842 1032.71 463.28
923 0 59.1746 13.0968 775 117.465 1033.22 457.606
924 0 62.0938 11.5309 716 117.918 1033.56 458.899
925 0 63.0375 12.6591 798 116.826 1034.19 455.335
926 0 66.2501 14.883 986 112.723 1033.63 453.568
927 0 66.1192 12.7043 840 118.644 1033.09 449.615
928 0 71.1846 14.2306 1013 115.049 1033.2 448.355
929 0 74.2467 14.2094 1055 115.607 1032.69 448.187
930 0 73.0962 12.1757 890 119.897 1032 446.808
931 0 78.466 12.0052 942 120.174 1031.82 443.541
932 1 41.0573 10.3757 426 119.319 1031.57 463.312
933 0 44.054 12.6663 558 117.022 1032.04 461.066
934 0 44.0344 12.4448 548 117.874 1033.27 460.069
935 0 45.0586 13.1384 592 116.147 1033.82 460.41
936 0 49.2328 14.2994 704 112.575 1034.28 456.379
937 0 49.1516 12.4309 611 116.858 1034.02 457.214
938 0 50.1924 12.0337 604 117.985 1034.2 453.503
939 0 51.1859 14.7697 756 112.278 1034.77 455.279
940 0 53.0676 14.7924 785 113.899 1036.28 454.2
941 0 53.0676 14.8678 789 139.888 1037.32 454.158
942 0 54.0727 11.5215 623 120.836 1036.77 456.209
943 0 54.0727 11.577 626 147.917 1035.78 456.246
944 0 62.1026 13.9286 865 114.56 1037.49 452.436
945 0 63.1769 13.9766 883 114.337 1037.41 450.296
946 0 66.1186 14.4589 956 113.123 1038.11 451.723
947 0 67.0895 14.3987 966 115.133 1037.49 451.135
948 0 69.1688 14.4429 999 115.83 1038.78 450.065
949 0 71.0713 12.6633 900 119.278 1039.47 454.503
950 0 75.1858 13.7127 1031 116.277 1037.54 453.783
951 0 78.2766 12.5708 984 119.878 1037.26 451.078
952 0 82.184 14.9299 1227 115.525 1036.82 451.082
953 1 43.1014 14.2687 615 111.642 1036.33 472.093
954 0 44.048 12.0096 529 117.457 1034.71 471.096
955 0 44.048 11.9642 527 138.594 1033.68 471.089
956 0 45.2795 11.175 506 114.787 1036.37 467.184
957 0 47.2342 9.50583 449 114.584 1034.22 466.639
958 0 47.2898 12.3705 585 111.229 1033.99 467.103
959 0 49.2499 13.868 683 109.168 1033.11 464.28
960 0 53.1961 14.5499 774 107.199 1033.03 465.305
961 0 53.3018 10.7313 572 113.865 1031.64 462.876
962 0 52.2605 10.2563 536 116.759 1032.65 462.705
963 0 55.1274 11.0109 607 113.364 1031.32 463.11
964 0 55.2687 10.7294 593 116.369 1032.56 461.895
965 0 55.1146 7.29389 402 121.572 1032.12 460.045
966 0 60.2386 13.4963 813 112.215 1030.82 455.777
967 0 63.0646 15.9519 1006 106.474 1031.08 458.565
968 0 65.1175 12.2087 795 113.957 1030.49 453.538
969 0 67.1529 13.3129 894 112.078 1030.1 451.518
970 0 67.162 13.2813 892 130.001 1030.09 451.567
971 0 72.1684 12.7064 917 113.786 1030.96 447.734
972 0 76.0623 15.9737 1215 108.953 1032.61 447.156
973 0 74.2722 11.5521 858 117.181 1031.54 446.094
974 1 43.0407 11.1522 480 114.467 1032.81 458.16
975 0 44.1216 12.6242 557 110.776 1032.27 460.406
976 0 47.136 14.5748 687 111.898 1032.69 461.822
977 0 44.0549 10.782 475 120.781 1031.7 458.162
978 0 47.0301 12.4176 584 116.466 1033.87 459.135
979 0 51.3167 13.8551 711 111.271 1033.8 457.826
980 0 51.1228 13.1057 670 112.064 1034.41 460.185
981 0 54.1755 14.1023 764 111.195 1035.05 456.725
982 0 54.1614 12.315 667 118.322 1036.29 455.756
983 0 54.1332 13.2636 718 111.884 1036.15 454.89
984 0 56.1491 13.571 762 110.89 1037.11 455.684
985 0 57.0693 11.8102 674 111.03 1038.33 458.881
986 0 62.1292 15.5643 967 102.509 1039.04 456.028
987 0 65.5215 21.4891 1408 95.402 1038.74 457.992
988 0 67.1033 15.9605 1071 101.944 1039.35 457.696
989 0 66.1392 16.2838 1077 104.552 1040.21 454.046
990 0 71.2039 15.0554 1072 107.058 1039.16 455.311
991 0 73.1263 17.2578 1262 102.535 1039.44 455.031
992 0 77.3903 14.8856 1152 104.243 1038.71 455.194
993 0 81.5074 19.2989 1573 100.316 1038.57 443.462
994 0 83.4129 15.0576 1256 105.268 1039.02 444.751
995 0 86.3394 13.7828 1190 106.453 1037.81 448.296
996 0 85.1362 10.5948 902 119.827 1039.31 442.171
997 0 90.1678 12.9425 1167 118.889 1039.37 440.38
998 1 48.1527 11.3389 546 116.02 1037.51 465.734
999 0 51.3959 12.5691 646 112.508 1037.25 462.115
1000 0 54.293 13.9244 756 109.316 1037.16 465.139
1001 0 54.3214 14.0829 765 110.566 1036.13 458.499
1002 0 54.3323 14.0984 766 120.012 1034.1 458.516
1003 0 58.6174 11.5836 679 116.253 1034.61 455.948
1004 0 59.3495 13.3952 795 112.767 1034.71 458.985
1005 0 60.4855 14.1521 856 112.669 1033.9 460.057
1006 0 61.2979 11.648 714 118.798 1033.19 455.473
1007 0 63.3049 13.5377 857 115.922 1032.49 455.968
1008 0 63.5366 12.3551 785 119.161 1032.27 454.224
1009 0 69.4726 12.451 865 119.151 1032.92 453.513
1010 0 70.3422 14.1167 993 118.269 1032.58 448.469
1011 0 71.3068 14.3324 1022 118.898 1032.39 444.857
1012 0 75.6531 12.6102 954 121.537 1032.44 444.258
1013 0 77.5494 13.4882 1046 120.638 1032.27 442.146
1014 0 79.5687 12.9574 1031 121.032 1032.62 442.64
1015 0 83.612 13.8616 1159 121.248 1031.02 437.774
1016 1 44.4129 12.0686 536 119.118 1032.13 458.172
1017 0 42.2758 11.6852 494 121.789 1027.92 455.372
1018 0 46.2935 11.7727 545 122.288 1027.72 451.996
1019 0 48.3011 12.1943 589 123.62 1027.67 454.333
1020 0 49.4755 12.0666 597 120.355 1028.35 457.087
1021 0 50.2703 11.8758 597 121.63 1029 454.186
1022 0 51.2279 14.4648 741 117.613 1029.24 454.18
1023 0 52.2059 13.6 710 120.958 1030.09 451.207
1024 0 54.2573 12.0537 654 123.801 1029.75 450.96
1025 0 58.2915 14.1873 827 119.843 1031.54 450.397
1026 0 58.2889 11.7518 685 137.016 1032.34 452.753
1027 0 61.2427 11.1034 680 125.837 1034.05 451.718
1028 0 63.1496 12.415 784 122.134 1040.18 454.094
1029 0 65.4886 12.2769 804 123.96 1039.98 450.922
1030 0 65.2796 11.581 756 124.947 1039.62 452.935
1031 0 71.3171 11.8625 846 122.869 1041.09 448.831
1032 0 72.4848 14.403 1044 120.17 1041.21 445.001
1033 0 73.3646 12.5265 919 123.521 1041.97 448.125
1034 0 75.3301 13.9785 1053 121.887 1040.26 447.48
1035 0 78.404 12.5504 984 124.405 1041.22 448.349
1036 0 81.3479 19.0171 1547 113.365 1039.31 450.826
1037 0 84.3143 13.9359 1175 121.405 1040.75 449.923
1038 0 86.3828 13.7643 1189 123.17 1040.53 448.619
1039 0 92.5282 14.2659 1320 122.126 1039.81 445.461
1040 1 47.0825 10.7896 508 124.033 1039.17 470.142
1041 0 45.0865 10.6018 478 126.01 1039.73 469.885
1042 0 49.0622 12.8612 631 119.444 1037.13 471.474
1043 0 52.1796 13.7027 715 118.197 1036.27 473.164
1044 0 53.1203 16.0202 851 115.632 1035.59 469.854
1045 0 53.1127 11.7298 623 123.838 1034.04 470.953
1046 0 54.172 12.848 696 122.875 1034.61 468.096
1047 0 59.0839 13.8278 817 119.055 1033.08 468.674
1048 0 59.082 13.0835 773 122.427 1032.57 465.424
1049 0 62.1026 17.8092 1106 111.436 1033.39 468.721
1050 0 65.1333 14.7851 963 117.595 1031.21 463.427
1051 0 68.1797 13.9044 948 119.984 1033.19 461.918
1052 0 68.1136 11.5395 786 124.8 1032.35 462.35
1053 0 71.0799 13.1964 938 122.05 1032.76 458.126
1054 0 73.3323 14.032 1029 118.799 1031.79 452.681
1055 0 76.3869 13.484 1030 119.987 1032.74 452.006
1056 0 79.5028 16.7919 1335 114.58 1033.54 445.575
1057 0 80.3821 14.9785 1204 119.503 1033.29 442.262
1058 0 81.4212 14.9715 1219 119.848 1033.37 444.101
1059 0 86.3839 13.8799 1199 121.055 1034.3 443.877
1060 0 88.5319 15.1019 1337 119.235 1034.54 439.711
1061 0 91.4422 14.5338 1329 119.855 1033.95 439.236
1062 0 92.5537 13.5273 1252 122.661 1035.01 436.231
1063 0 97.53 14.4674 1411 120.528 1034.41 432.407
1064 0 102.555 14.2948 1466 118.989 1035.51 432.695
1065 1 53.4362 13.6986 732 116.676 1035.72 454.803
1066 0 52.3422 14.1568 741 118.491 1036.06 453.449
1067 0 57.3104 13.139 753 115.798 1036.01 453.596
1068 0 57.3268 12.8561 737 117.148 1037.37 449.404
1069 0 59.6491 13.8644 827 114.785 1037.73 448.539
1070 0 61.4448 14.2567 876 113.727 1038.32 450.251
1071 0 65.3915 14.2679 933 113.241 1039.91 446.654
1072 0 69.4094 17.3896 1207 108.37 1038.79 449.702
1073 0 70.3811 13.1285 924 119.973 1040.07 448.567
1074 0 73.7792 13.4049 989 119.313 1040.49 448.133
1075 0 73.7792 13.4455 992 144.075 1040.52 448.13
1076 0 76.7842 18.6887 1435 111.247 1040.88 449.148
1077 0 81.5485 13.6974 1117 119.713 1040.35 446.881
1078 0 83.4192 13.5221 1128 119.166 1039.57 449.872
1079 0 84.597 12.5773 1064 123.59 1040.09 446.905
1080 0 89.5583 14.7725 1323 120.049 1038.66 444.794
1081 0 93.5891 15.3437 1436 118.55 1039.83 442.54
1082 0 94.6182 15.0817 1427 120.425 1039.57 441.418
1083 1 49.4205 13.112 648 117.509 1040.8 465.489
1084 0 50.3471 11.1029 559 123.335 1038.72 466.608
1085 0 52.298 11.3962 596 122.824 1038.27 464.696
1086 0 53.1184 13.084 695 121.299 1038.24 462.967
1087 0 54.2263 13.2039 716 121.513 1038.02 463.898
1088 0 59.3407 15.2678 906 116.828 1035.86 465.126
1089 0 59.3407 15.2341 904 130.438 1033.85 465.095
1090 0 61.2031 14.1006 863 120.36 1033.5 460.249
1091 0 64.2371 15.4895 995 117.419 1034.19 458.931
1092 0 66.3226 15.304 1015 118.825 1034.61 456.004
1093 0 66.1332 14.0323 928 121.628 1034.1 457.03
1094 0 71.4097 15.054 1075 119.391 1032.77 451.426
1095 0 72.229 18.0675 1305 114.002 1033.13 453.841
1096 0 76.2912 14.3791 1097 120.675 1033.41 454.264
1097 0 76.2625 13.0077 992 124.867 1033.08 450.263
1098 0 83.2563 10.4977 874 127.211 1033.1 452.063
1099 0 81.1273 13.3617 1084 124.129 1033.05 445.689
1100 0 85.2694 15.9025 1356 119.504 1033.3 440.852
1101 1 42.1713 11.3347 478 122.119 1033.92 463.096
1102 0 43.0983 8.60822 371 129.313 1032.46 458.38
1103 0 44.1906 10.0248 443 126.485 1032.7 458.792
1104 0 46.1234 11.3175 522 125.077 1034.28 457.094
1105 0 49.0289 10.9731 538 124.967 1033.33 460.727
1106 0 49.0396 13.642 669 122.55 1033.82 454.211
1107 0 53.1106 13.8014 733 123.553 1034.75 454.241
1108 0 53.1106 13.8202 734 137.936 1035.74 454.221
1109 0 53.1044 13.8218 734 137.387 1036.76 454.278
1110 0 57.366 13.6841 785 124.288 1036.97 447.252
1111 0 55.1948 11.9395 659 129.106 1037.46 447.282
1112 0 59.216 13.6112 806 124.79 1037.76 450.092
1113 0 62.2043 14.8543 924 122.265 1037.83 450.068
1114 0 67.2324 17.1197 1151 115.578 1037.66 451.997
1115 0 80.1619 20.0594 1608 106.826 1037.02 441.939
1116 0 79.4565 25.0955 1994 100.698 1036.15 438.939
1117 0 82.7551 27.1645 2248 99.6588 1035.75 443.431
1118 0 78.1013 16.6835 1303 118.391 1038.42 445.424
1119 0 78.2832 16.2104 1269 120.73 1036.68 445.644
1120 0 78.2342 12.2069 955 131.333 1037.77 444.369
1121 0 83.2898 14.4676 1205 125.69 1037.5 447.216
1122 0 81.3441 14.076 1145 129.64 1036.96 444.04
1123 0 86.168 14.611 1259 128.228 1036.79 447.698
1124 0 88.1063 11.2932 995 135.147 1036.42 446.309
1125 0 91.2834 12.7515 1164 132.821 1036.57 446.084
1126 0 96.098 13.2053 1269 131.897 1036.27 444.414
1127 0 96.2153 11.9939 1154 136.959 1036 441.075
1128 1 56.1536 10.7384 603 125.648 1035.68 466.267
1129 0 56.044 12.401 695 124.033 1034.91 466.842
1130 0 60.0945 13.8615 833 120.987 1035.49 465.78
1131 0 62.0819 15.9145 988 117.176 1034.36 464.246
1132 0 58.1806 9.07518 528 132.199 1033.23 462.765
1133 0 62.0854 12.1285 753 120.025 1031.43 463.538
1134 0 66.1846 13.3264 882 116.702 1030.14 464.534
1135 0 66.1785 13.2672 878 122.423 1028.15 464.622
1136 0 70.1161 12.1941 855 117.952 1030.44 458.843
1137 0 70.14 11.0208 773 120.032 1030.59 462.048
1138 0 74.3856 13.0267 969 117.98 1029.26 454.363
1139 0 74.1164 12.4804 925 119.282 1028.05 455.358
1140 0 76.1546 10.807 823 122.288 1029.52 454.481
1141 0 77.2937 10.3889 803 122.154 1028.96 453.514
1142 0 83.2574 12.7916 1065 118.474 1027.47 450.218
1143 0 83.2397 12.7463 1061 123.669 1025.44 450.475
1144 0 88.324 10.9823 970 123.762 1028.86 440.903
1145 0 91.3871 11.413 1043 122.58 1029.62 444.987
1146 0 94.3686 14.7931 1396 118.511 1029.71 438.53
1147 0 96.731 12.5399 1213 124.164 1031.77 438.833
1148 1 46.13 8.0425 371 124.054 1031.49 458.558
1149 0 48.1798 13.0553 629 115.312 1032.95 459.043
1150 0 48.0238 11.6817 561 118.836 1031.53 455.501
1151 0 50.0797 12.6598 634 117.838 1033.07 456.65
1152 0 49.1595 9.94721 489 122.16 1034.4 457.62
1153 0 51.045 10.814 552 120.703 1033.7 457.56
1154 1 110.22 12.221 1347 126.95 1033.57 428.164
1155 0 117.754 11.9061 1402 128.627 1034.78 423.17
1156 1 57.0962 11.0865 633 121.466 1035.42 454.85
1157 0 60.2245 12.6361 761 118.059 1036.38 454.265
1158 0 60.1711 8.85807 533 123.028 1035.41 456.523
1159 0 63.114 12.6438 798 118.511 1037.38 456.175
1160 0 63.0893 8.76535 553 125.186 1036.8 455.613
1161 1 142.506 11.1785 1593 129.831 1038.75 413.696
1162 0 146.788 12.8689 1889 127.129 1037.15 411.066
1163 0 146.787 11.1113 1631 130.34 1034.99 414.683
1164 0 154.392 10.687 1650 129.418 1037.53 414.697
1165 0 160.501 11.5139 1848 126.317 1037.8 416.025
1166 1 40.0734 7.26167 291 124.313 1036.43 468.997
1167 0 45.0947 12.1522 548 115.08 1035.97 470.728
1168 0 43.0315 10.5504 454 117.991 1036.57 473.123
1169 0 43.0777 9.12305 393 121.972 1036.52 471.73
1170 0 44.0473 7.62816 336 124.298 1035.72 473.851
1171 0 50.1186 11.9317 598 115.271 1035.7 472.468
1172 0 48.1727 8.76014 422 120.156 1034.61 475.917
1173 0 47.1355 6.61921 312 124.115 1034.79 475.119
1174 0 49.0623 11.7606 577 113.856 1034.21 478.411
1175 0 54.1503 10.6925 579 117.321 1033.69 470.919
1176 0 57.0509 11.0428 630 115.586 1033.07 471.143
1177 0 58.1201 11.5451 671 115.551 1033.78 468.943
1178 0 59.1365 12.0399 712 114.721 1033.11 467.316
1179 0 62.1239 11.1551 693 117.518 1031.71 463.446
1180 0 63.2166 13.3351 843 113.412 1032.66 463.329
1181 0 67.296 15.5878 1049 107.004 1030.84 461.37
1182 0 67.5876 11.4962 777 114.529 1030.93 457.943
1183 0 70.1585 12.9279 907 112.294 1031.26 456.375
1184 0 69.2654 10.7124 742 116.648 1031.88 454.353
1185 0 72.1897 13.8662 1001 112.157 1031.44 449.802
1186 0 74.236 11.8002 876 116.368 1031.35 449.632
1187 0 77.2159 15.6962 1212 109.742 1032.15 444.87
1188 0 79.214 12.1569 963 115.803 1031.81 446.386
1189 1 41.0724 12.3927 509 115.511 1032.94 461.894
1190 0 40.1413 10.2139 410 120.432 1032.77 460.99
1191 0 42.0415 10.7988 454 119.504 1033.95 460.555
1192 0 45.0955 13.3495 602 114.895 1033.97 457.988
1193 0 46.0791 13.8023 636 115.498 1033.72 455.967
1194 0 47.0597 10.0298 472 124.036 1034.51 455.964
1195 0 48.1282 12.529 603 119.488 1034.48 453.106
1196 0 50.2112 13.0648 656 118.264 1036.09 452.189
1197 0 51.2148 11.5201 590 122.131 1036.61 455.353
1198 0 53.0422 13.6307 723 118.862 1036.27 453.799
1199 0 55.115 12.4286 685 122.378 1037.54 453.917
1200 0 55.0778 13.6171 750 120.788 1037.94 454.189
1201 0 58.0684 13.553 787 118.219 1038.49 457.003
1202 0 59.1527 15.553 920 116.926 1038.05 455.128
1203 0 60.0568 15.6685 941 116.606 1039.99 455.485
1204 0 64.1476 15.3084 982 117.525 1038.88 454.351
1205 0 66.0787 14.8459 981 117.738 1039.43 455.645
1206 0 69.0701 14.8979 1029 117.04 1040.66 456.832
1207 0 70.1377 14.3575 1007 119.611 1038.72 454.158
1208 0 70.1377 14.3575 1007 137.067 1036.72 454.158
1209 0 75.154 12.0686 907 123.664 1038.66 457.896
1210 0 75.1543 11.9088 895 146.197 1041.67 457.946
1211 0 81.07 16.2206 1315 118.398 1038.91 453.415
1212 0 83.1773 14.2347 1184 121.547 1039.67 456.35
1213 0 85.1307 14.9182 1270 122.002 1037.62 454.922
1214 0 89.2124 18.2038 1624 115.476 1038.37 452.959
1215 0 92.2112 15.2585 1407 121.375 1036.09 454.122
1216 0 95.2757 15.7228 1498 120.99 1034.97 447.124
1217 1 50.1343 11.6288 583 129.228 1036.11 473.089
1218 0 52.0383 12.7022 661 127.828 1034.87 472.625
1219 0 52.165 13.2848 693 125.836 1033.81 467.792
1220 0 55.2245 14.2871 789 122.601 1034.32 464.308
1221 0 57.1027 17.0045 971 117.144 1032.68 464.227
1222 0 57.0276 14.7648 842 122.068 1033.25 467.772
1223 0 60.1262 14.9851 901 120.873 1031.86 465.373
1224 0 62.1992 13.6979 852 123.576 1032.17 464.526
1225 0 63.0634 13.9701 881 123.755 1032.27 460.606
1226 0 64.1191 14.7538 946 122.391 1032.34 460.072
1227 0 66.0952 15.6895 1037 121.543 1031.5 457.405
1228 0 70.1396 14.0006 982 124.18 1031.27 456.053
1229 0 73.1377 14.6299 1070 121.164 1031.55 454.645
1230 0 74.2504 15.8114 1174 120.418 1031.16 450.481
1231 0 76.2313 13.4853 1028 124.199 1031.89 449.402
1232 0 81.1526 17.0173 1381 116.628 1031.8 447.911
1233 0 79.1308 12.2582 970 127.621 1032.87 445.99
1234 0 83.2005 15.6129 1299 120.858 1033.23 439.882
1235 0 86.2278 14.5081 1251 123.116 1034.24 442.006
1236 0 88.426 14.3962 1273 123.628 1033.38 439.815
1237 0 92.2107 16.8744 1556 118.675 1035.09 435.012
1238 1 49.1327 12.8428 631 124.494 1035.45 456.902
1239 0 53.0905 13.8631 736 122.423 1037.74 450.81
1240 0 53.0303 13.8034 732 113.404 1036.81 455.036
1241 0 54.2182 11.1033 602 117.947 1036.25 449.008
1242 0 57.0625 15.8948 907 108.552 1036.2 453.311
1243 0 58.1133 11.4604 666 117.456 1037.32 452.344
1244 0 58.1853 12.4774 726 114.415 1037.19 453.795
1245 0 60.1973 11.8278 712 116.633 1037.03 450.171
1246 0 63.1177 11.8667 749 115.854 1038.08 452.264
1247 0 63.266 12.7873 809 115.229 1038 449.402
1248 0 68.1479 15.0555 1026 110.261 1038.46 450.716
1249 0 68.1003 18.0763 1231 106.219 1037.16 452.323
1250 0 71.2855 15.0662 1074 111.132 1038.3 450.555
1251 0 72.2203 11.2018 809 117.618 1038.64 449.696
1252 0 76.1551 14.1816 1080 113.63 1038.14 448.712
1253 0 80.1624 12.6493 1014 116.183 1037.15 446.826
1254 0 79.172 12.5423 993 117.41 1037.04 449.06
1255 0 85.4292 12.4548 1064 117.955 1036.52 448.474
1256 0 87.4622 13.3886 1171 116.425 1036.31 449.016
1257 0 90.25 13.1302 1185 119.186 1036.01 443.84
1258 0 94.3043 12.0779 1139 119.824 1035.16 446.92
1259 1 46.2461 10.2928 476 118.468 1035.7 466.286
1260 0 49.3893 11.7434 580 121.497 1034 466.56
1261 0 51.3728 11.1343 572 122.733 1033.44 463.773
1262 0 53.2982 13.4526 717 118.915 1033.09 464.512
1263 0 55.2232 12.0782 667 121.844 1032.98 462.36
1264 0 57.1574 15.676 896 113.747 1033.14 463.743
1265 0 57.1786 12.8195 733 122.973 1030.1 464.302
1266 0 60.0329 13.5092 811 121.613 1030.36 461.271
1267 0 61.108 12.5188 765 123.314 1029.99 462.26
1268 0 66.1154 14.3083 946 121.043 1028.32 459.088
1269 0 66.1104 15.2624 1009 120.572 1027.9 454.479
1270 0 65.11 15.4201 1004 131.771 1026.89 454.334
1271 0 73.0882 15.5976 1140 117.956 1029.09 452.911
1272 0 72.0778 12.653 912 124.429 1028.59 450.548
1273 0 74.1639 11.2589 835 126.765 1028.96 446.459
1274 0 78.0991 12.1768 951 124.045 1031.55 449.798
1275 0 81.0609 14.3226 1161 120.345 1032.76 445.842
1276 1 48.0963 10.7285 516 121.688 1032.65 462.405
1277 0 47.1022 10.8063 509 126.248 1033.75 457.821
1278 0 50.0948 11.2786 565 123.411 1034.02 459.731
1279 0 51.2266 14.5628 746 115.879 1033.06 459.18
1280 0 51.2371 14.5402 745 130.458 1033.08 459.183
1281 0 53.0235 15.2574 809 119.083 1035.86 453.986
1282 0 57.0808 12.7188 726 123.745 1036.8 452.785
1283 0 56.0682 12.8594 721 150.218 1037.78 452.753
1284 0 59.0746 13.356 789 122.632 1038.7 452.243
1285 0 60.0983 15.7076 944 121.701 1037.84 446.221
1286 0 62.1244 14.8734 924 122.889 1037.63 447.269
1287 0 65.2789 13.3734 873 124.297 1037.64 451.969
1288 0 65.2943 13.4162 876 147.469 1038.65 452.017
1289 0 68.1625 12.0888 824 121.04 1037.11 451.959
1290 0 70.1136 11.7381 823 119.999 1037.99 455.921
1291 0 72.0998 12.5243 903 120.277 1038.64 451.205
1292 0 74.1643 13.2948 986 117.264 1036.89 455.35
1293 0 81.1215 14.4844 1175 114.845 1037.84 452.066
1294 0 83.1785 12.6475 1052 118.06 1037.65 450.363
1295 0 86.1916 13.8877 1197 117.017 1037.7 447.055
1296 0 88.1771 13.4615 1187 114.027 1036.62 455.087
1297 0 93.438 13.9344 1302 118.77 1037.92 444.757
1298 0 97.1968 14.4346 1403 117.016 1037.33 442.61
1299 0 99.2826 13.94 1384 121.661 1035.07 447.96
1300 1 51.1292 11.4025 583 121.545 1035.48 469.885
1301 0 53.0999 11.0923 589 122.764 1033.52 470.243
1302 0 63.1613 15.6267 987 110.163 1033.69 465.174
1303 0 56.0734 11.7168 657 121.542 1033.07 468.394
1304 1 69.144 9.3139 644 123.489 1031.98 468.219
1305 0 65.1514 12.1563 792 120.649 1032.1 462.258
1306 0 65.1514 12.2177 796 148.475 1032.1 462.29
1307 0 63.1389 10.1522 641 125.37 1030.75 462.696
1308 0 69.2053 10.9963 761 124.202 1028.78 458.645
1309 0 76.1539 13.8535 1055 117.803 1028.97 454.284
1310 0 82.1724 18.8506 1549 106.948 1028.73 446.721
1311 0 84.1365 18.6007 1565 108.244 1027.73 446.106
1312 0 83.1646 16.2449 1351 115.03 1027.41 443.394
1313 0 85.2348 15.0056 1279 114.704 1028.51 442.364
1314 0 86.2209 13.4306 1158 118.145 1027.39 443.53
1315 0 88.0945 11.1698 984 122.794 1028.49 443.331
1316 0 91.2887 10.308 941 121.922 1029.55 440.333
1317 0 89.2489 8.56033 764 126.949 1030.12 437.516
1318 0 92.1289 12.0483 1110 122.592 1030.31 439.41
1319 0 96.1154 11.9128 1145 123.521 1031.66 432.191
1320 1 47.1905 10.0656 475 119.968 1030.35 456.371
1321 0 50.1795 11.698 587 117.082 1031.5 453.946
1322 1 105.16 13.5032 1420 119.892 1031.76 428.994
1323 0 107.351 11.346 1218 122.845 1033.35 430.695
1324 0 110.174 13.2427 1459 121.083 1034.33 429.17
1325 0 113.31 12.5232 1419 121.502 1034.56 430.622
1326 0 119.534 13.4188 1604 120.095 1035.83 426.772
1327 0 120.255 14.0119 1685 121.115 1034.62 418.643
1328 0 123.284 12.167 1500 124.355 1035.78 421.136
1329 0 128.508 11.7502 1510 124.157 1037.04 424.03
1330 0 130.255 12.4525 1622 123.358 1036.83 418.056
1331 1 67.0657 12.8083 859 115.789 1036.81 452.048
1332 0 69.2128 14.925 1033 110.69 1036.47 456.637
1333 0 70.2254 12.5168 879 116.609 1038.03 451.548
1334 0 73.1904 14.6467 1072 113.076 1036.66 453.493
1335 0 73.0632 12.9614 947 116.662 1038.35 454.228
1336 0 76.2245 12.227 932 118.018 1037.25 450.913
1337 0 81.3327 12.7747 1039 115.745 1036.66 454.5
1338 0 82.3138 15.6717 1290 112.05 1037.12 453.548
1339 0 86.3263 14.5958 1260 113.338 1036.64 449.719
1340 0 87.3078 14.8898 1300 113.841 1035.69 449.028
1341 0 90.3235 11.6913 1056 119.349 1035.74 448.996
1342 1 47.0596 13.7273 646 114.858 1033.81 469.82
1343 0 50.2781 13.7634 692 114.717 1036.25 466.447
1344 0 50.2273 12.5629 631 117.867 1034.54 465.024
1345 0 53.2982 14.2969 762 113.89 1035.04 465.448
1346 0 52.2049 11.474 599 125.402 1033.33 463.402
1347 0 54.1682 13.1442 712 122.154 1032.63 465.459
1348 0 56.2845 14.9064 839 118.08 1032.42 465.049
1349 0 57.2752 11.0694 634 125.495 1030.82 459.325
1350 0 64.2487 11.6423 748 123.091 1031.1 460.398
1351 0 65.2513 11.4327 746 123.773 1030.1 456.607
1352 0 67.2791 13.6447 918 120.899 1029.75 453.757
1353 0 71.1946 16.5321 1177 114.186 1027.4 455.13
1354 0 72.1473 12.2666 885 123.346 1028.57 450.47
1355 0 76.1249 15.5403 1183 117.784 1026.69 448.692
1356 0 78.1564 13.7801 1077 121.435 1027.94 446.457
1357 1 42.093 9.00387 379 127.245 1029.24 466.003
1358 0 43.0315 9.38847 404 126.144 1028.53 464.661
1359 0 43.0315 9.27228 399 131.456 1028.53 464.749
1360 0 45.1016 11.8178 533 123.071 1029.04 464.416
1361 0 46.0574 13.6352 628 117.494 1031.59 459.151
1362 0 49.0402 13.0709 641 116.716 1031.02 458.248
1363 0 46.0857 12.4551 574 121.587 1032.92 455.949
1364 0 51.1528 15.5808 797 113.882 1032.99 455.463
1365 0 50.3218 11.7444 591 121.832 1034.2 455.744
1366 0 56.2 12.5979 708 119.428 1033.83 452.588
1367 0 53.1419 11.8362 629 122.45 1035.8 453.587
1368 0 57.1944 11.7319 671 123.224 1036.6 452.149
1369 0 58.1956 12.458 725 121.952 1036.83 451.961
1370 0 60.1082 11.3795 684 123.33 1036.67 450.304
1371 0 64.1243 11.3841 730 120.414 1038.04 453.511
1372 0 68.2274 12.2092 833 119.035 1038.24 451.121
1373 0 68.154 13.0587 890 117.845 1039.31 450.298
1374 0 70.1704 14.7926 1038 114.546 1038.16 450.262
1375 0 71.157 11.3552 808 120.954 1039.2 450.578
1376 0 76.1295 12.4393 947 117.232 1039.57 449.572
1377 0 80.1974 13.4543 1079 116.537 1039.13 443.988
1378 0 81.2378 13.0481 1060 117.276 1038.44 443.061
1379 0 87.1233 12.5569 1094 119.247 1037.38 450.205
1380 1 48.0698 10.9008 524 117.177 1035.19 469.552
1381 0 48.0465 10.4274 501 118.088 1035.47 471.343
1382 0 53.1519 11.7964 627 115.298 1034.39 468.053
1383 0 52.2081 10.8029 564 117.433 1035.75 467.59
1384 0 54.2355 14.142 767 112.458 1035.22 465.718
1385 0 52.2102 11.2622 588 125.728 1033.76 468.323
1386 0 56.0625 9.88183 554 125.572 1032.95 466.774
1387 0 58.0524 13.4706 782 119.766 1033.9 461.815
1388 0 59.0285 14.2812 843 119.231 1032.2 465.342
1389 0 61.0736 13.3282 814 121.081 1032.03 461.959
1390 0 61.0736 13.2791 811 120.248 1032.05 461.875
1391 0 64.0997 15.1327 970 118.285 1030.85 458.469
1392 0 67.058 12.7352 854 122.459 1030.93 454.687
1393 0 70.0877 12.9837 910 122.407 1029.59 453.388
1394 0 70.139 10.9069 765 126.025 1028.36 454.82
1395 0 71.0909 13.1944 938 123.463 1029.81 450.693
1396 0 74.0721 11.1243 824 127.376 1030.1 453.382
1397 0 76.212 12.5964 960 125.071 1031.34 449.78
1398 0 82.2077 14.1714 1165 122.984 1029.94 445.406
1399 0 83.1546 12.2783 1021 127.045 1031.4 445.853
1400 0 83.1546 12.3745 1029 134.588 1033.39 445.807
1401 0 88.2053 12.5389 1106 128.374 1029.2 438.082
1402 1 46.0316 10.8621 500 127.482 1030.7 459.354
1403 0 49.078 12.9182 634 122.91 1032.59 456.79
1404 0 50.1053 14.1502 709 119.814 1034.57 457.891
1405 0 52.251 11.6553 609 123.273 1031.56 453.051
1406 0 52.24 12.7871 668 119.094 1031.74 454.725
1407 0 52.0811 12.1733 634 121.218 1031.02 454.822
1408 0 56.1454 13.0198 731 119.278 1032.15 453.164
1409 0 56.1394 13.7693 773 119.206 1032.11 450.529
1410 0 57.108 13.0455 745 121.815 1035.48 453.711
1411 0 61.1068 12.47 762 121.399 1035.65 452.491
1412 0 61.0988 12.6025 770 122.57 1036.22 450.292
1413 0 61.0571 9.92513 606 127.276 1036.69 453.442
1414 0 66.1337 10.7207 709 124.312 1037.09 455.204
1415 0 68.0787 12.0008 817 122.969 1038.12 449.575
1416 0 71.1402 14.1411 1006 118.96 1038.08 446.785
1417 0 76.1567 11.2137 854 122.801 1039.28 450.804
1418 0 79.1179 13.2208 1046 119.311 1038.78 448.116
1419 0 78.1131 10.5744 826 124.408 1039.35 447.695
1420 0 83.2312 13.7328 1143 117.668 1039.28 449.176
1421 1 45.0999 13.0155 587 118.395 1038.91 470.327
1422 0 45.1178 10.6831 482 121.959 1038.85 468.1
1423 0 47.0197 10.7614 506 122.82 1038.81 468.208
1424 0 50.0457 12.9681 649 119.348 1038.89 465.414
1425 0 49.0214 11.6888 573 121.934 1039.54 464.503
1426 0 52.0447 13.3731 696 118.799 1038.47 465.208
1427 0 55.119 13.1715 726 117.669 1038.66 466.314
1428 0 54.0547 13.7268 742 118.478 1037.31 463.817
1429 0 54.0547 13.6343 737 109.126 1036.3 463.863
1430 0 59.1315 11.9057 704 120.602 1035.6 460.332
1431 0 61.1286 11.4022 697 121.623 1034.91 457.902
1432 0 64.0843 12.6552 811 118.494 1031.74 460.395
1433 0 64.1226 12.0862 775 120.721 1032.11 459.492
1434 0 68.1306 14.7804 1007 115.173 1030.63 457.144
1435 0 69.1496 11.627 804 121.193 1031.1 454.271
1436 0 70.13 11.6926 820 121.402 1029.08 452.005
1437 0 75.1407 11.4186 858 121.115 1030.41 451.097
1438 0 75.1346 12.8569 966 120.083 1029.64 453.287
1439 0 79.1477 12.4451 985 120.293 1028.81 449.296
1440 0 84.2488 15.5848 1313 114.885 1029.58 445.212
1441 0 87.1613 12.2302 1066 119.455 1029.15 447.454
1442 0 87.2286 8.46053 738 127.183 1028.86 442.335
1443 0 90.3357 12.2986 1111 121.937 1029.35 441.826
1444 1 44.1419 10.9193 482 124.278 1027.81 459.784
1445 0 45.0831 13.5306 610 118.862 1028.92 460.402
1446 0 48.0358 12.5323 602 121.158 1029.46 456.962
1447 0 50.1313 15.3198 768 115.859 1032.41 457.31
1448 0 52.1197 14.1022 735 117.371 1030.34 457.215
1449 0 53.1281 14.418 766 117.185 1031.8 454.774
1450 0 55.2362 16.529 913 113.926 1033.41 451.963
1451 0 56.3673 13.4652 759 119.345 1032.85 452.03
1452 0 57.3006 12.4606 714 121.153 1033.53 450.773
1453 0 62.5216 13.9792 874 117.132 1034.47 451.462
1454 0 62.5216 13.9472 872 118.505 1034.49 451.33
1455 0 64.33 12.9644 834 120.721 1036.5 448.753
1456 0 66.4793 14.937 993 117.835 1036.23 447.349
1457 0 69.473 13.9766 971 118.922 1037.18 446.114
1458 0 74.2964 15.4112 1145 119.143 1038.5 449.362
1459 1 148.654 8.61062 1280 133.734 1037.69 417.398
1460 1 75.3673 11.7823 888 127.398 1038.91 447.182
1461 0 79.2333 12.3559 979 125.495 1038.79 445.795
1462 0 82.5158 13.7186 1132 123.589 1037.65 442.785
1463 1 44.1096 9.83912 434 125.362 1037.83 465.334
1464 0 45.2301 9.88281 447 126.635 1036.97 462.687
1465 0 46.2017 12.9649 599 121.234 1037.35 465.417
1466 0 44.1307 11.262 497 126.791 1038.16 463.746
1467 0 48.2808 11.3503 548 121.686 1037.73 463.29
1468 0 50.2089 14.7384 740 113.586 1035.48 465.435
1469 0 49.3109 9.85583 486 122.891 1035.1 467.607
1470 0 53.1203 12.7635 678 117.612 1034.94 464.916
1471 0 53.3698 14.8773 794 114.997 1034.11 463.489
1472 0 55.2097 10.8858 601 121.554 1033.91 465.265
1473 0 55.3174 13.3593 739 118.23 1032.01 466.968
1474 0 57.2002 11.8356 677 120.858 1031.98 462.133
1475 0 56.2609 8.95826 504 127.609 1031.73 461.714
1476 0 60.1259 12.9063 776 121.209 1030.3 457.969
1477 0 65.3377 15.351 1003 115.885 1030.67 458.015
1478 0 66.2378 11.4436 758 125.077 1030.17 455.479
1479 0 68.297 12.797 874 122.816 1029.89 456.627
1480 0 69.2148 12.4106 859 124.896 1029.53 453.157
1481 0 73.2603 14.3734 1053 121.19 1029.57 451.164
1482 0 73.3272 12.1237 889 126.571 1029.48 451.504
1483 0 80.4002 14.5273 1168 120.029 1030.01 450.889
1484 0 83.243 15.0163 1250 118.934 1029.86 444.863
1485 0 85.1662 12.3054 1048 124.864 1029.6 438.323
1486 0 86.2036 16.0318 1382 128.528 1029.43 442.327
1487 0 91.3502 14.1105 1289 121.912 1029.74 437.683
1488 0 91.2984 12.1798 1112 132.978 1029.74 436.098
1489 0 91.2984 12.1908 1113 154.06 1027.73 436.206
1490 0 102.751 14.4038 1480 126.178 1029.53 428.716
1491 1 53.2382 11.6833 622 124.547 1030.58 451.376
1492 0 52.4459 11.4785 602 125.382 1031.33 453.277
1493 0 56.5459 13.8118 781 120.042 1031.75 452.277
1494 0 58.1358 13.4685 783 120.774 1031.73 450.047
1495 0 58.2038 13.3325 776 121.001 1032.55 448.588
1496 0 60.3215 16.727 1009 114.559 1033.82 447.661
1497 0 63.2082 14.824 937 117.715 1034.38 446.059
1498 0 67.2545 15.1663 1020 115.69 1033.45 452.196
1499 0 68.2567 13.9327 951 118.708 1035.8 448.567
1500 0 72.1842 13.7842 995 118.31 1035.09 449.134
1501 0 74.3042 13.3101 989 119.925 1036.03 449.07
1502 0 72.2967 11.9784 866 124.036 1036.7 447.898
1503 0 77.2459 15.7031 1213 114.98 1037.24 452.452
1504 0 79.1138 13.9672 1105 119.6 1037.3 448.388
1505 0 85.2843 14.2347 1214 118.806 1037.28 448.965
1506 0 84.1788 13.899 1170 120.95 1037.75 448.703
1507 0 86.1267 12.8067 1103 123.668 1037.02 446.348
1508 0 89.3172 12.5396 1120 121.912 1037.41 453.409
1509 0 92.1846 12.6377 1165 124.311 1036.99 448.433
1510 0 96.238 15.0045 1444 120.242 1037.31 447.364
1511 0 97.1248 12.6744 1231 125.364 1035.3 448.664
1512 0 102.212 11.7012 1196 127.573 1035.7 450.023
1513 0 104.167 12.4704 1299 127.577 1036.05 441.929
1514 1 56.0674 12.8417 720 123.379 1035 471.84
1515 0 54.1806 10.7788 584 131.926 1033.03 466.971
1516 0 54.1806 10.7788 584 149.664 1031.05 466.966
1517 0 62.338 13.9562 870 124.383 1032.04 465.116
1518 0 62.4289 15.6658 978 121.815 1032.33 463.837
1519 0 65.2803 14.0012 914 123.191 1031.54 465.524
1520 0 67.437 15.6442 1055 121.877 1031.82 461.088
1521 0 69.2867 13.8699 961 125.23 1031.76 458.297
1522 0 73.3573 11.0418 810 130.026 1030.65 458.468
1523 0 75.2312 12.8537 967 126.132 1030.4 454.425
1524 0 78.2874 14.7406 1154 122.746 1029.52 451.662
1525 0 80.4216 16.227 1305 119.228 1029.02 451.121
1526 0 82.2982 14.4961 1193 122.816 1029.06 450.775
1527 0 83.2834 11.743 978 128.922 1028.51 447.078
1528 0 88.2342 14.1328 1247 122.916 1029.48 443.706
1529 1 49.1001 12.7087 624 123.343 1027.39 463.636
1530 0 49.0257 12.8708 631 123.902 1028.84 460.789
1531 0 50.0611 12.5247 627 125.238 1028.03 456.995
1532 0 53.1169 11.5029 611 123.011 1029.59 459.242
1533 0 54.0328 11.382 615 119.498 1030.53 459.61
1534 0 56.072 13.5183 758 115.914 1031.2 459.728
1535 0 57.0645 12.372 706 118.125 1030.21 456.306
1536 0 62.1514 14.3682 893 113.867 1032.76 452.832
1537 0 63.0607 13.6377 860 116.085 1032.76 449.354
1538 0 65.1158 13.9444 908 114.663 1033.2 447.01
1539 0 69.133 13.4957 933 114.547 1034.29 449.002
1540 0 68.1301 12.8871 878 113.096 1034.56 447.74
1541 0 73.1843 14.0741 1030 110.491 1035.56 446.295
1542 0 75.1252 13.8569 1041 111.407 1035.89 444.622
1543 0 77.0718 12.7284 981 113.546 1035.77 446.914
1544 0 79.1143 13.2087 1045 113.016 1036.6 443.584
1545 0 84.2232 12.1463 1023 114.082 1037.28 446.994
1546 0 84.6679 11.8345 1002 115.391 1037.24 445.291
1547 1 45.118 12.1459 548 114.214 1036.76 465.265
1548 0 47.0954 12.9949 612 114.703 1037.51 467.487
1549 0 46.0966 11.7579 542 119.36 1036.7 458.847
1550 0 49.1292 11.6021 570 113.537 1036.64 460.228
1551 0 51.3456 14.4706 743 110.183 1037 457.76
1552 0 55.2301 16.2593 898 105.265 1036.68 457.437
1553 0 55.1792 12.3235 680 114.624 1036.37 458.007
1554 0 57.2065 14.0718 805 111.892 1037.01 458.779
1555 0 58.1029 14.612 849 111.249 1034.83 460.489
1556 0 61.1099 17.2803 1056 112.964 1034.48 463.934
1557 0 64.2264 13.7482 883 118.879 1033.63 465.948
1558 0 64.1018 12.9482 830 122.022 1032.11 463.825
1559 0 66.0789 16.2533 1074 113.97 1031.78 464.374
1560 0 68.1259 16.3227 1112 115.29 1031.45 460.772
1561 0 69.1725 14.4711 1001 119.514 1030.78 458.409
1562 0 73.1385 17.2549 1262 113.538 1030.99 455.845
1563 0 74.0832 14.4027 1067 119.164 1032.1 449.692
1564 0 75.2646 13.5655 1021 122.14 1031.59 446.927
1565 0 79.1971 17.9678 1423 114.004 1030.87 447.233
1566 0 79.4699 14.8358 1179 119.486 1031.23 447.897
1567 0 86.3267 20.6773 1785 108.338 1031.26 444.181
1568 0 87.307 14.89 1300 118.435 1030.09 442.542
1569 1 43.1905 12.7574 551 122.858 1029.61 460.143
1570 0 47.1681 13.1021 618 118.898 1028.62 460.325
1571 0 47.1793 13.9256 657 121.467 1029.6 454.767
1572 0 47.1283 13.1344 619 122.616 1029.96 452.569
1573 0 51.4206 16.1219 829 108.058 1031 454.259
1574 0 50.0998 11.8763 595 117.992 1030.39 450.19
1575 0 57.6027 18.2977 1054 105.196 1031.68 451.073
1576 0 53.1007 11.7701 625 120.278 1030.86 446.71
1577 0 57.0966 16.656 951 111.512 1031.97 445.533
1578 0 57.1582 15.6933 897 114.032 1031.74 443.386
1579 0 57.1582 14.5911 834 141.704 1031.67 442.422
1580 0 60.248 14.8553 895 117.47 1032.78 443.145
1581 0 60.25 14.8548 895 131.476 1033.8 443.192
1582 0 65.1482 14.9966 977 118.744 1032.63 443.901
1583 0 68.3063 14.3325 979 120.622 1033.4 442.826
1584 0 72.2193 14.8991 1076 118.222 1033.92 440.916
1585 0 74.2221 14.4836 1075 120.287 1034.95 437.733
1586 0 77.2446 16.9591 1310 116.3 1036.06 435.802
1587 0 79.2794 15.2499 1209 120.086 1034.98 435.241
1588 0 81.2705 16.3774 1331 118.599 1035.84 437.222
1589 1 41.3111 11.4739 474 123.882 1037.21 456.956
1590 0 44.4593 11.5161 512 122.334 1037.02 457.996
1591 0 49.6108 11.0057 546 119.608 1037.87 460.364
1592 0 46.2788 11.9925 555 121.804 1036.85 458.849
1593 0 49.4695 11.9468 591 120.882 1037.64 459.164
1594 0 50.1837 12.7731 641 119.482 1037.58 458.7
1595 0 50.1986 11.8728 596 120.008 1038.25 460.537
1596 0 53.4597 13.0566 698 118.699 1036.8 459.597
1597 0 55.7119 13.9288 776 116.802 1036.84 460.338
1598 0 56.7981 14.0146 796 118.681 1036.89 459.342
1599 0 57.2273 11.5329 660 124.271 1035.97 459.861
1600 0 61.6329 14.1483 872 118.104 1035.96 457.135
1601 0 61.4631 14.9195 917 117.643 1033.86 454.814
1602 0 67.4325 13.5395 913 118.312 1034.28 453.826
1603 0 64.4221 14.2187 916 118.895 1033.33 452.874
1604 0 68.3289 16.7425 1144 113.959 1031.77 453.926
1605 0 72.6322 13.4651 978 117.201 1031.59 460.21
1606 0 73.3698 14.7199 1080 117.444 1030.79 449.017
1607 0 76.3346 15.0915 1152 116.751 1031.77 447.586
1608 0 77.3107 12.4821 965 121.408 1030.25 446.427
1609 0 81.4298 15.7436 1282 114.551 1030.39 444.285
1610 0 84.5981 14.492 1226 117.299 1030.92 442.812
1611 0 86.4398 11.7885 1019 121.071 1031.01 442.716
1612 0 90.4201 14.3773 1300 116.588 1031.09 441.051
1613 0 90.3851 16.6399 1504 113.574 1029.85 440.263
1614 0 96.2712 19.7982 1906 108.047 1030.48 431.999
1615 0 99.4438 15.4358 1535 114.73 1030.14 431.44
1616 0 100.379 12.0643 1211 121.011 1031.67 429.675
1617 1 54.2932 10.5722 574 118 1032.25 452.685
1618 0 57.2075 14.9806 857 111.659 1031.45 453.771
1619 0 58.3303 14.6579 855 113.588 1031.38 446.878
1620 0 60.0744 14.482 870 114.245 1033.26 448.121
1621 0 62.1343 13.8893 863 114.446 1032.26 446.808
1622 0 65.1292 12.2833 800 117.006 1033.28 446.019
1623 0 65.1292 12.2526 798 142.174 1034.28 445.945
1624 0 71.2276 15.0644 1073 111.01 1033.86 446.807
1625 0 72.2017 14.0717 1016 113.598 1035.81 445.149
1626 0 73.2614 10.6195 778 120.308 1036.17 441.032
1627 0 75.0731 11.5354 866 118.68 1036.92 437.887
1628 0 79.3594 13.2435 1051 115.828 1036.99 437.435
1629 0 83.3722 15.1849 1266 112.029 1037.76 438.845
1630 0 83.4663 15.2157 1270 112.682 1037.75 439.57
1631 0 86.334 12.915 1115 116.921 1038.31 433.313
1632 0 86.334 12.996 1122 135.478 1038.3 433.175
1633 1 53.1891 11.2805 600 108.393 1038.45 460.012
1634 0 57.191 9.52947 545 107.881 1039.67 462.549
1635 0 56.1828 10.2345 575 110.64 1038.31 459.092
1636 0 57.1958 11.6617 667 107.237 1038.39 461.928
1637 0 58.1158 11.5459 671 107.51 1038.03 460.523
1638 0 58.0849 10.8118 628 108.669 1037.23 461.686
1639 0 63.0614 12.6385 797 106.488 1037.6 457.577
1640 0 63.1457 10.0878 637 111 1037.17 455.162
1641 0 67.0891 11.4475 768 107.645 1037.96 459.688
1642 0 67.0891 11.522 773 112.749 1037.93 459.77
1643 0 69.102 8.50916 588 112.782 1036.42 450.653
1644 0 72.2942 8.93571 646 112.811 1034.89 456.251
1645 0 75.1731 9.65771 726 111.472 1033.33 448.89
1646 0 75.1731 9.65771 726 118.804 1032.34 449.296
1647 0 80.1528 7.54808 605 114.988 1032.09 452.942
1648 0 83.0914 10.9879 913 110.967 1031.12 444.778
1649 0 87.1604 10.452 911 111.407 1031.83 441.561
1650 0 88.1724 13.1107 1156 107.889 1030.04 443.482
1651 0 93.172 10.5933 987 111.415 1030.99 442.435
1652 0 99.1824 13.6012 1349 106.821 1031.34 441.79
1653 1 51.0737 9.88766 505 107.867 1030.56 461.828
1654 0 53.1073 13.3127 707 104.434 1029.36 458.784
1655 0 55.1631 11.0219 608 107.508 1028.79 457.097
1656 0 53.0562 10.4606 555 107.092 1029.21 458.95
1657 0 55.0606 9.18987 506 109.628 1030.04 455.366
1658 0 56.0604 9.75732 547 108.773 1030.46 454.938
1659 0 62.1133 11.5112 715 106.287 1030.34 451.355
1660 0 59.0324 9.23222 545 110.409 1030.14 448.883
1661 1 127.362 12.2329 1558 114.09 1030.61 415.2
1662 0 131.739 9.03304 1190 118.976 1030.84 410.575
1663 0 137.401 14.5123 1994 110.99 1032.34 411.01
1664 0 141.321 11.2368 1588 115.965 1031.29 408.022
1665 0 147.592 13.6593 2016 113.085 1033.77 401.329
1666 0 153.757 13.1376 2020 114.469 1033.91 397.452
1667 0 159.385 14.4493 2303 112.98 1034.61 393.774
1668 1 123.412 11.6358 1436 114.226 1034.48 418.832
1669 0 122.382 6.88012 842 123.543 1035.47 410.454
1670 0 131.966 9.03264 1192 120.404 1035.54 413.593
1671 0 130.607 8.0164 1047 120.786 1036.36 419.84
1672 0 136.764 11.7282 1604 117.949 1036.71 408.439
1673 1 146.827 8.60198 1263 121.815 1037.75 407.614
1674 0 147.62 12.1935 1800 115.128 1037.36 411.231
1675 1 198.159 10.8146 2143 120.015 1037.5 388.564
1676 0 198.439 10.7892 2141 124.998 1037.66 381.159
1677 0 198.437 10.6734 2118 134.935 1038.66 381.006
1678 1 211.243 10.2394 2163 125.457 1037.45 380.669
1679 0 221.353 12.7805 2829 121.192 1037.76 382.531
1680 0 218.927 8.29042 1815 126.306 1037 379.171
1681 0 219.826 7.14656 1571 123.743 1036.6 398.556
1682 0 219.866 7.04974 1550 142.616 1036.6 398.884
1683 1 129.676 10.2178 1325 113.814 1036.21 428.882
1684 0 133.305 10.0896 1345 114.422 1036.53 428.135
1685 0 133.305 10.0821 1344 130.464 1036.52 428.409
1686 0 132.332 8.95472 1185 116.441 1034.63 429.965
1687 0 132.834 9.24462 1228 117.15 1034.42 424.438
1688 0 132.289 10.0764 1333 114.296 1034.32 430.429
1689 1 200.536 17.1042 3430 108.832 1032.15 390.075
1690 0 205.519 13.3418 2742 115.58 1031.97 381.032
1691 1 166.898 13.0498 2178 115.298 1030.95 401.861
1692 0 170.534 13.4812 2299 112.621 1029.31 402.082
1693 0 169.872 13.9104 2363 113.674 1029.87 408.231
1694 1 43.229 10.3634 448 103.696 1031.38 470.388
1695 0 41.1857 9.95492 410 107.468 1031.06 465.637
1696 0 43.2695 8.99017 389 108.267 1031.29 467.416
1697 0 45.1886 9.86975 446 107.762 1030.73 463.614
1698 0 47.1619 10.7926 509 107.411 1030.14 460.752
1699 0 48.256 8.66213 418 111.115 1030.38 456.699
1700 0 52.3286 11.9246 624 106.061 1031.14 456.885
1701 0 54.2803 16.4332 892 100.276 1031.22 456.962
1702 0 56.4847 12.6229 713 105.98 1030.38 453.791
1703 0 56.1149 12.4209 697 106.538 1031.72 454.341
1704 0 58.1501 11.7971 686 106.69 1030.84 454.657
1705 0 57.2862 12.5161 717 107.004 1032.45 453.169
1706 0 58.2672 10.6921 623 111.799 1031.84 446.661
1707 0 63.3084 11.9415 756 108.016 1032.99 449.88
1708 0 65.3166 13.0748 854 106.171 1033.58 449.119
1709 0 67.2116 13.5542 911 105.922 1035.17 447.96
1710 0 67.3694 12.7654 860 107.715 1034.57 446.509
1711 0 69.4051 9.63907 669 110.342 1035.62 450.23
1712 0 72.2751 12.9505 936 107.772 1035.53 444.066
1713 0 71.2657 8.46129 603 112.28 1035.43 449.859
1714 0 77.6999 14.9936 1165 104.53 1036.35 439.928
1715 0 81.5559 12.3841 1010 107.831 1036.43 442.848
1716 0 85.7229 14.9318 1280 104.06 1037.04 443.437
1717 0 85.7229 15.0718 1292 117.283 1038.08 443.354
1718 1 43.2517 8.55457 370 114.924 1037.76 461.676
1719 0 47.0754 12.8942 607 108.005 1039.22 462.064
1720 0 47.0507 12.0296 566 110.694 1039.31 462.94
1721 0 50.0984 11.5972 581 109.878 1038.35 464.737
1722 0 47.1068 10.2958 485 114.221 1037.48 464.726
1723 0 52.2702 10.8475 567 113.115 1037.97 465.231
1724 0 53.2349 10.294 548 114.535 1036.54 464.564
1725 0 57.1333 12.1645 695 110.4 1036.66 466.896
1726 0 58.1388 13.2614 771 110.613 1037.51 465.088
1727 0 59.1223 10.3176 610 114.507 1037.16 467.533
1728 0 60.1902 11.5301 694 114.307 1035.53 465.591
1729 0 60.1549 11.487 691 115.625 1035.91 461.666
1730 0 67.2759 12.9616 872 112.774 1032.65 461.424
1731 0 68.2189 9.24963 631 118.244 1034.18 462.461
1732 0 68.2139 15.2022 1037 111.23 1033.28 456.389
1733 0 72.1037 15.1032 1089 111.348 1032.84 455.672
1734 0 72.1074 15.1025 1089 118.185 1032.84 455.59
1735 0 76.2982 14.9283 1139 112.271 1032.34 453.734
1736 0 75.1825 12.4098 933 117.035 1031.53 451.116
1737 0 80.164 13.4599 1079 114.749 1031.07 451.26
1738 0 84.1804 13.186 1110 113.498 1030.28 454.11
1739 0 85.2575 13.4768 1149 115.106 1030.5 445.917
1740 0 87.4231 12.6168 1103 117.008 1030.34 443.092
1741 0 90.1602 15.2284 1373 114.176 1029.78 439.056
1742 0 92.2527 12.2923 1134 117.722 1030.7 442.342
1743 1 54.1915 15.722 852 110.1 1030.36 460.192
1744 0 53.1289 12.4414 661 118.002 1030.22 455.095
1745 0 54.2322 7.56008 410 121.093 1031.1 449.29
1746 0 55.3372 10.3547 573 116.565 1031.35 447.241
1747 0 59.234 14.1304 837 111.375 1031.4 442.622
1748 0 59.2808 9.10919 540 119.652 1032.84 445.876
1749 0 58.1503 11.711 681 118.413 1033.64 441.316
1750 0 65.1546 13.8593 903 112.105 1033.71 443.277
1751 0 66.2246 10.8117 716 117.99 1034.05 441.814
1752 0 66.2151 16.0538 1063 112.179 1034.84 437.583
1753 0 69.3039 14.5446 1008 112.947 1034.47 440.801
1754 0 73.1895 12.4745 913 117.574 1035.48 438.71
1755 0 72.2761 11.3731 822 121.645 1035.69 435.792
1756 0 75.4939 11.5506 872 120.828 1035.2 436.484
1757 0 75.4939 11.6168 877 148.48 1035.2 436.506
1758 0 80.3276 17.217 1383 112.453 1036.29 432.738
1759 0 84.1804 12.2475 1031 123.766 1038.08 441.481
1760 0 88.3525 12.767 1128 123.189 1038.92 439.823
1761 0 90.3188 12.7437 1151 122.913 1038.97 439.828
1762 0 95.3514 12.7423 1215 122.219 1038.39 441.564
1763 0 97.2619 13.3865 1302 122.697 1038.98 437.419
1764 0 101.249 17.1557 1737 115.942 1038.9 441.256
1765 0 106.16 16.2208 1722 117.822 1037.5 436.53
1766 0 109.134 15.0457 1642 117.667 1037.19 433.926
1767 0 106.295 10.6778 1135 123.313 1035.99 441.137
1768 1 62.1532 10.4902 652 117.537 1035.6 461.479
1769 0 63.1477 12.0353 760 117.725 1036.15 459.226
1770 0 67.1162 14.1993 953 114.533 1034.49 458.503
1771 0 71.1994 15.1546 1079 111.363 1034.92 461.661
1772 0 74.2277 13.0814 971 115.103 1033.54 457.952
1773 0 75.1093 11.7695 884 115.793 1033.8 457.584
1774 0 77.1167 16.0017 1234 109.129 1031.52 456.148
1775 0 81.2509 12.3937 1007 115.22 1031.99 452.757
1776 0 82.0968 11.7301 963 117.386 1030.72 446.069
1777 0 88.13 15.0233 1324 111.06 1030.4 449.03
1778 1 44.137 11.7815 520 112.956 1028.27 469.442
1779 0 47.0415 12.5846 592 110.459 1028.36 468.429
1780 0 45.1313 10.7243 484 112.762 1027.54 468.744
1781 0 49.1779 12.587 619 110.52 1029.59 466.153
1782 0 48.2303 12.3781 597 112.57 1030.76 462.819
1783 0 49.2793 14.428 711 109.62 1030.17 459.841
1784 0 53.3138 14.968 798 107.817 1029.74 458.711
1785 0 51.0584 13.2398 676 111.657 1029.96 460.124
1786 0 55.199 12.6089 696 111.068 1030.05 462.747
1787 0 55.1151 12.4104 684 113.77 1030.55 454.506
1788 0 55.1537 14.7588 814 110.796 1030.68 451.566
1789 0 58.0484 12.7652 741 115.422 1031.32 453.476
1790 0 59.0295 11.9601 706 117.483 1031.61 452.421
1791 0 60.0897 9.85194 592 120.502 1032.65 451.777
1792 0 59.0608 11.2765 666 119.949 1032.39 448.306
1793 0 67.2506 14.2304 957 113.885 1033.58 448.631
1794 0 68.1265 17.0565 1162 109.535 1033.26 444.856
1795 0 68.0461 12.6385 860 118.352 1034.57 443.874
1796 0 73.131 15.1099 1105 113.672 1034.5 445.348
1797 0 74.0872 11.3245 839 119.181 1035.83 447.794
1798 0 76.3862 11.0229 842 121.697 1036.2 444.69
1799 1 39.1554 9.29629 364 121.39 1036.08 462.758
1800 0 41.3184 13.4081 554 113.585 1036.81 462.047
1801 0 42.0694 11.9089 501 116.954 1038.42 462.337
1802 0 42.0689 11.8853 500 127.894 1039.44 462.294
1803 0 44.0837 9.36855 413 117.458 1037.82 453.237
1804 0 43.0871 10.9546 472 115.883 1038.81 455.875
1805 0 44.0145 10.8601 478 117.621 1039.46 457.184
1806 0 48.0313 12.471 599 114.07 1038.37 459.614
1807 0 49.0533 9.70372 476 118.17 1038.37 460.662
1808 0 50.062 12.9639 649 113.256 1038.85 459.065
1809 0 49.0991 7.82091 384 123.445 1037.94 458.979
1810 0 53.0375 11.0299 585 118.067 1037.53 459.451
1811 0 53.0782 11.0403 586 119.457 1035.9 460.534
1812 0 55.0654 10.7508 592 119.799 1036.68 461.723
1813 0 58.1291 11.6981 680 122.051 1035.89 465.913
1814 0 60.1316 15.6324 940 115.816 1034.92 465.558
1815 0 63.1346 13.3049 840 119.83 1034.22 460.725
1816 0 66.0755 14.6045 965 117.48 1034.93 462.625
1817 0 64.0997 13.6506 875 120.065 1033.35 461.208
1818 0 70.1878 12.7088 892 121.247 1032.92 456.782
1819 0 71.0567 10.5549 750 124.077 1032.88 457.273
1820 0 75.059 12.0039 901 122.312 1032.11 454.426
1821 0 74.087 10.1367 751 124.019 1031.07 459.29
1822 1 38.0221 10.5991 403 120.069 1030.87 471.357
1823 0 40.0847 11.5007 461 115.931 1030.85 471.505
1824 0 41.0512 9.96317 409 119.435 1031.19 470.374
1825 0 40.0156 8.62164 345 121.803 1031.59 468.472
1826 0 43.0267 15.4555 665 111.952 1029.96 468.304
1827 0 46.0597 13.0049 599 110.94 1028.5 462.881
1828 0 47.0392 13.0955 616 111.651 1028.46 465.14
1829 0 48.2009 10.9542 528 114.343 1027.89 462.047
1830 0 49.1502 10.6408 523 114.866 1028.4 459.57
1831 0 50.1261 9.7554 489 118.049 1028.35 458.487
1832 0 47.0709 10.3036 485 118.068 1029.07 456.237
1833 0 52.0748 10.2545 534 115.599 1028.1 454.639
1834 0 56.2857 11.1041 625 114.259 1027.46 451.229
1835 0 58.1397 12.1776 708 112.949 1030.26 448.254
1836 0 60.1851 13.2757 799 111.472 1029.71 450.949
1837 0 66.0872 9.03352 597 115.209 1030.93 451.735
1838 0 66.1555 14.9798 991 106.482 1031.27 450.045
1839 0 64.1321 10.9618 703 114.407 1031.88 448.378
1840 0 65.1002 12.3656 805 112.903 1031.94 449.749
1841 0 68.1078 10.3512 705 116.265 1032.99 446.197
1842 0 71.0535 14.0176 996 109.041 1032.94 445.84
1843 0 77.1341 12.4848 963 110.357 1033.42 446.363
1844 0 77.1974 12.4875 964 111.144 1035.03 442.98
1845 0 78.1614 10.1201 791 115.092 1034.6 446.209
1846 0 81.1547 12.9629 1052 111.945 1034.04 440.01
1847 0 83.2395 7.77276 647 119.286 1035.7 443.55
1848 0 84.2554 9.53054 803 117.806 1034.4 440.218
1849 1 48.0167 11.4335 549 111.406 1034.83 465.084
1850 0 51.1085 11.4267 584 111.783 1034.72 459.033
1851 0 52.2081 12.2778 641 112.988 1034.86 458.956
1852 0 48.1317 8.78838 423 116.064 1034.82 456.837
1853 0 50.1849 10.262 515 113.054 1033.76 460.676
1854 0 57.0641 14.4749 826 108.213 1034.17 461.098
1855 1 105.411 10.7959 1138 114.562 1035.67 441.99
1856 0 107.29 12.07 1295 113.799 1034.18 438.787
1857 0 115.465 12.5579 1450 112.425 1034.78 433.915
1858 0 115.465 12.6531 1461 126.611 1034.75 433.941
1859 0 116.242 11.0545 1285 112.76 1032.08 444.493
1860 1 83.2625 7.35024 612 112.119 1031.24 464.415
1861 0 84.1123 5.9801 503 114.183 1030 467.881
1862 0 83.3134 12.8911 1074 105.712 1029.93 460.926
1863 0 81.2508 12.3691 1005 108.094 1028.21 455.691
1864 0 82.1318 13.2835 1091 107.923 1028.59 452.883
1865 1 42.0526 9.55946 402 112.823 1027.69 470.02
1866 0 42.0526 9.60701 404 130.542 1028.74 469.7
1867 0 45.0447 15.5179 699 103.21 1027.32 470.804
1868 0 46.0753 17.7535 818 100.756 1026.64 469.15
1869 0 48.0431 13.03 626 108.045 1026.88 470.522
1870 0 49.0627 12.9834 637 110.245 1026.28 468.127
1871 0 49.0627 13.0242 639 118.637 1025.3 468.081
1872 0 48.0954 8.89898 428 118.792 1026.13 461.393
1873 0 52.0596 12.8699 670 111.993 1027.14 459.645
1874 0 52.0307 10.2055 531 115.861 1026.05 459.684
1875 0 55.1997 10.7247 592 114.677 1026.39 459.174
1876 0 55.0802 15.541 856 108.79 1028.17 455.374
1877 0 60.0899 14.0623 845 109.663 1028.71 454.237
1878 0 59.0494 14.6149 863 109.848 1028.89 450.895
1879 0 60.2561 13.7746 830 112.077 1029.77 449.939
1880 0 60.2561 13.7746 830 134.886 1029.79 449.901
1881 0 64.4795 18.1453 1170 105.14 1032.15 450.002
1882 0 64.4795 18.2073 1174 120.424 1034.15 449.961
1883 0 67.199 12.7234 855 114.26 1033.65 445.658
1884 0 70.3385 15.6529 1101 109.526 1034.61 446.092
1885 0 73.3144 13.749 1008 111.405 1035.21 445.978
1886 0 76.4882 14.9435 1143 110.748 1035.29 442.239
1887 0 75.4336 12.6867 957 114.717 1035.36 440.264
1888 0 80.5652 15.1182 1218 110.228 1036.12 437.554
1889 0 82.2967 14.1804 1167 112.512 1036.02 434.771
1890 0 86.5669 18.5637 1607 105.319 1037.67 437.904
1891 0 87.5681 16.5585 1450 109.321 1035.77 438.237
1892 1 46.3786 11.2121 520 114.4 1037.37 457.525
1893 0 45.3536 9.5913 435 117.609 1036.95 460.101
1894 0 48.102 11.2885 543 114.064 1037.51 459.129
1895 0 52.1428 12.9644 676 110.428 1035.58 466.186
1896 0 53.3951 11.6677 623 112.141 1035.93 458.197
1897 0 55.2528 15.5829 861 104.768 1036.53 459.798
1898 0 58.1504 16.8185 978 102.072 1036.4 463.773
1899 0 58.0877 12.6533 735 109.472 1036.73 462.506
1900 0 61.132 14.5587 890 106.97 1036.18 462.201
1901 0 60.2093 12.6891 764 110.183 1035.14 462.106
1902 0 63.1968 12.2158 772 112.049 1033.52 458.313
1903 0 66.0605 12.3826 818 111.619 1032.71 456.709
1904 0 70.2065 13.7167 963 109.231 1031.96 458.136
1905 0 72.2481 13.7858 996 108.999 1031.68 458.409
1906 0 71.2433 12.8714 917 112.55 1031.05 453.373
1907 0 75.2441 13.8615 1043 111.403 1031.01 452.114
1908 0 76.1358 14.553 1108 111.002 1030.18 448.078
1909 0 80.151 16.4689 1320 108.286 1030.38 446.552
1910 0 83.268 15.6363 1302 109.929 1028.69 444.353
1911 0 86.2205 15.7039 1354 109.126 1030.47 448.828
1912 0 87.1474 15.8697 1383 110.465 1029.04 442.82
1913 0 91.1978 17.5333 1599 107.543 1029.63 439.303
1914 0 94.3692 14.7612 1393 113.052 1028.63 434.417
1915 0 97.3412 13.4578 1310 114.699 1029.33 437.686
1916 0 96.2425 11.8451 1140 119.751 1028.69 432.531
1917 0 102.281 17.7942 1820 109.041 1029.8 433.88
1918 1 55.2718 13.6417 754 114.487 1029.65 456.139
1919 0 53.1733 12.8072 681 118.555 1030.34 454.345
1920 0 56.1796 14.3824 808 116.892 1031.97 453.746
1921 0 59.1163 14.8352 877 116.613 1031.82 454.007
1922 0 59.0747 13.2883 785 121.014 1032.26 447.868
1923 0 62.141 14.628 909 118.219 1033.39 449.131
1924 0 65.1684 12.859 838 120.942 1032.79 450.069
1925 0 69.1292 13.5688 938 117.989 1034.45 451.625
1926 0 71.0764 14.0694 1000 117.7 1034.87 448.534
1927 0 72.2025 16.6476 1202 115.369 1035.23 446.206
1928 0 74.1186 16.2982 1208 116.256 1035.63 446.068
1929 0 77.3361 15.1676 1173 118.087 1035.98 446.308
1930 0 77.2544 13.475 1041 121.26 1035.58 445.405
1931 0 82.2508 15.5986 1283 117.08 1036.8 443.212
1932 0 86.3586 16.0957 1390 114.884 1036.71 446.446
1933 0 87.5509 14.0947 1234 119.285 1036.34 443.428
1934 0 90.2434 17.7741 1604 114.703 1037.86 439.908
1935 0 94.5427 19.1448 1810 111.618 1037.8 441.962
1936 0 95.3973 15.4407 1473 118.403 1037.37 442.96
1937 1 52.1133 9.26826 483 124.532 1037.99 466.387
1938 0 53.1039 11.9577 635 121.167 1037.58 465.354
1939 0 57.077 12.9124 737 115.079 1036.26 460.316
1940 0 57.4786 13.8312 795 118.06 1037.61 463.221
1941 0 61.2038 12.826 785 118.192 1036.5 464.916
1942 0 65.2027 13.5271 882 116.912 1035 464.862
1943 0 66.1449 15.4812 1024 114.836 1034.25 463.124
1944 0 71.1844 15.5933 1110 114.585 1031.62 460.03
1945 0 70.1983 13.2197 928 119.123 1033.58 461.435
1946 0 72.1822 15.5994 1126 116.298 1032.68 454.299
1947 0 74.362 15.0749 1121 116.224 1031.3 456.252
1948 0 77.2433 13.93 1076 118.683 1031.12 447.65
1949 0 79.2284 14.6791 1163 117.599 1031.83 447.763
1950 0 83.2809 12.0796 1006 121.479 1030.54 447.908
1951 0 85.2766 11.4568 977 122.063 1029.67 445.709
1952 0 88.2509 11.9432 1054 122.661 1029.55 442.634
1953 0 90.241 13.4307 1212 120.032 1028.81 443.345
1954 0 92.2756 14.0991 1301 119.035 1029.88 438.772
1955 1 49.128 10.2996 506 120.022 1028.64 464.429
1956 0 49.2132 11.6635 574 117.99 1027.53 462.878
1957 0 53.112 12.1441 645 113.806 1027.17 459.518
1958 0 53.1576 12.7733 679 113.211 1026.25 458.557
1959 0 53.1576 12.6605 673 132.397 1025.22 458.568
1960 0 56.1037 13.7602 772 112.768 1027.59 457.975
1961 0 59.1103 17.4758 1033 106.931 1028.7 453.229
1962 0 61.1442 12.8222 784 113.676 1028.14 454.941
1963 0 62.1065 15.8921 987 109.63 1028.99 450.785
1964 0 63.2546 12.2204 773 116.378 1030.23 449.532
1965 0 68.1037 14.6101 995 111.319 1029.95 449.54
1966 0 70.1457 15.311 1074 110.104 1030.83 445.5
1967 0 72.2221 15.4523 1116 110.243 1031.56 447.03
1968 0 74.1696 15.3567 1139 110.992 1032.54 445.941
1969 0 76.2273 15.4931 1181 111.836 1032.86 443.003
1970 0 81.1129 17.6791 1434 108.017 1033.59 443.409
1971 0 81.2263 13.3824 1087 115.426 1034.52 445.239
1972 0 83.411 16.4727 1374 111.823 1034.22 442.708
1973 0 88.1935 15.0691 1329 114.094 1035.13 444.044
1974 0 87.1871 13.2703 1157 119.54 1034.79 441.182
1975 0 92.2221 16.9916 1567 112.501 1034.75 443.609
1976 0 94.1389 16.1145 1517 115.464 1035.1 440.574
1977 0 97.2296 14.3372 1394 118.965 1035.02 440.514
1978 0 101.138 15.5531 1573 117.27 1034.09 440.405
1979 1 208.654 13.4193 2800 121.689 1035.38 393.89
1980 1 107.195 15.2339 1633 118.794 1033.83 438.99
1981 0 112.346 15.4523 1736 118.51 1034.66 437.772
1982 1 61.0914 10.9017 666 123.201 1034.66 465.535
1983 0 63.2331 15.1029 955 118.553 1035.18 456.865
1984 0 66.2294 12.1849 807 124.778 1033.26 454.912
1985 0 68.4484 12.7103 870 123.734 1034.75 459.064
1986 0 71.1808 16.732 1191 117.082 1033.18 454.63
1987 0 74.219 13.2042 980 123.367 1033.85 455.823
1988 0 79.4241 17.1233 1360 116.02 1032.09 454.668
1989 0 80.2414 16.3008 1308 118.99 1032.47 451.36
1990 0 81.2153 16.4255 1334 119.007 1030.8 451.549
1991 0 87.2546 15.6783 1368 119.517 1030.59 448.58
1992 0 86.2206 12.4332 1072 126.814 1031.3 444.265
1993 0 91.2556 15.7251 1435 120.121 1029.73 445.102
1994 0 91.2005 13.8925 1267 123.597 1028.86 445.91
1995 0 96.2636 14.4915 1395 123.551 1029.34 439.279
1996 0 100.223 19.5565 1960 114.085 1028.11 440.469
1997 1 53.2063 11.3896 606 122.205 1029.55 462.736
1998 0 51.1767 9.94594 509 126.904 1029.42 460.723
1999 0 54.0583 10.3222 558 122.041 1028.39 462.333
2000 0 56.1498 12.3064 691 119.097 1028.82 457.569
2001 0 60.2052 13.3543 804 116.929 1030.43 458.31
2002 0 60.1308 19.2081 1155 107.231 1029.76 457.741
2003 0 61.0834 15.8963 971 113.167 1029.87 454.463
2004 0 64.0706 13.0013 833 117.708 1029.9 454.878
2005 0 67.0952 14.2484 956 115.537 1029.64 451.049
2006 0 70.158 16.5484 1161 111.007 1032.33 450.855
2007 0 70.1644 14.466 1015 115.752 1032.35 447.908
2008 0 75.1773 13.8473 1041 115.475 1032.92 449.72
2009 0 76.1041 14.8349 1129 114.441 1033.86 443.046
2010 0 77.2629 17.5893 1359 110.422 1033.81 439.264
2011 0 80.267 13.6918 1099 117.125 1035.71 442.45
2012 0 80.267 13.6544 1096 137.436 1037.72 442.432
2013 0 86.2854 15.8544 1368 112.949 1037.67 438.061
2014 0 88.2754 12.5063 1104 118.545 1036.62 440.951
2015 0 93.1071 15.0472 1401 114.639 1036.89 436.356
2016 0 94.1191 12.3354 1161 119.35 1037.53 439.567
2017 0 98.2193 14.6407 1438 115.929 1037.83 436.563
2018 0 99.1303 12.529 1242 118.895 1037.57 439.741
2019 0 106.418 16.9144 1800 111.219 1037.77 437.169
2020 0 108.234 15.6144 1690 113.925 1038.63 435.747
2021 0 110.354 17.1811 1896 112.679 1037.48 433.372
2022 1 59.2777 12.0113 712 117.24 1037.87 462.596
2023 0 60.4405 12.7067 768 115.88 1037.58 454.879
2024 0 62.5513 12.5497 785 112.604 1037.23 454.366
2025 0 63.3956 11.3888 722 115.464 1036.38 457.607
2026 0 63.24 12.0177 760 114.214 1034.74 458.825
2027 0 67.4374 13.3902 903 111.365 1036.32 457.8
2028 0 72.3142 12.3074 890 113.798 1034.86 452.521
2029 0 72.3142 12.3904 896 134.746 1033.84 452.507
2030 0 76.2881 13.4752 1028 111.546 1034.04 455.23
2031 0 82.4818 12.6816 1046 113.359 1032.18 451.832
2032 0 85.3464 11.6701 996 115.977 1031.85 446.229
2033 0 85.3464 11.6115 991 138.419 1030.84 446.117
2034 0 90.3081 11.5494 1043 117.134 1030.24 444.12
2035 0 89.2838 10.8866 972 133.426 1030.12 445.791
2036 0 98.4464 15.5719 1533 111.168 1029.87 437.982
2037 0 98.3278 12.3668 1216 116.344 1028.53 438.925
2038 1 56.2346 13.3548 751 109.831 1027.79 452.7
2039 0 56.2532 12.6926 714 110.786 1026.96 460.497
2040 0 58.4772 11.6627 682 113.937 1027.78 457.843
2041 0 60.1791 12.4296 748 112.813 1025.95 452.848
2042 0 64.2848 11.0913 713 114.651 1027.38 454.154
2043 0 63.2049 11.5181 728 114.604 1026.04 455.316
2044 0 61.1132 9.58877 586 120.222 1025.67 451.367
2045 0 62.1324 8.91645 554 120.874 1026.14 452.17
2046 0 66.1997 13.3837 886 113.833 1027.56 446.672
2047 0 68.1882 12.7441 869 116.522 1028.71 444.597
2048 0 69.2799 10.0895 699 121.299 1029.75 446.021
2049 0 74.1927 14.5297 1078 113.396 1027.86 445.134
2050 0 77.1019 12.9569 999 115.425 1029.5 444.407
2051 0 80.238 14.7312 1182 112.639 1030.8 442.377
2052 0 81.1824 12.3426 1002 117.121 1030.73 441.714
2053 0 84.0652 12.2167 1027 118.135 1030.97 439.253
2054 0 88.2804 14.3633 1268 114.548 1032.26 439.076
2055 0 92.2985 13.3913 1236 116.518 1032.36 437.488
2056 0 93.1399 13.5495 1262 116.234 1034.38 436.572
2057 1 49.0774 8.78204 431 122.564 1032.72 457.03
2058 0 53.0643 12.0608 640 116.623 1034.74 458.647
2059 0 55.3498 10.0452 556 119.723 1035.66 455.12
2060 0 57.2248 10.0131 573 121.855 1034.33 454.672
2061 0 59.3207 14.4132 855 114.753 1035.02 451.242
2062 0 62.3711 13.4838 841 116.829 1035.86 447.867
2063 0 66.3451 15.6002 1035 112.147 1036.83 448.187
2064 0 68.3451 13.7098 937 116.328 1035.66 450.294
2065 0 69.2571 16.5037 1143 112.28 1036.81 448.475
2066 0 72.2499 15.045 1087 115.058 1035.05 449.356
2067 0 75.2852 14.0532 1058 116.861 1035.68 451.425
2068 0 75.2437 13.33 1003 119.564 1035.89 452.371
2069 0 78.2302 14.2784 1117 119.99 1037.02 446.303
2070 0 81.2633 15.2713 1241 117.815 1034.92 456.662
2071 0 86.3371 14.177 1224 119.845 1033.54 449.482
2072 0 88.2712 17.3783 1534 116.064 1033.37 449.53
2073 0 90.2994 17.0433 1539 116.532 1031.68 448.723
2074 0 91.3417 14.4293 1318 121.648 1031.06 447.401
2075 0 95.4024 12.6517 1207 125.383 1028.85 444.467
2076 0 98.3977 15.041 1480 121.753 1029.06 441.591
2077 1 51.1878 8.45904 433 124.767 1028.05 468.912
2078 0 51.2522 8.585 440 125.27 1027.85 466.42
2079 0 51.237 10.5197 539 127.623 1027.19 460.076
2080 0 55.4231 12.1069 671 122.042 1027.93 460.437
2081 0 56.3152 11.187 630 126.456 1027.57 456.541
2082 0 60.1035 14.0258 843 118.368 1026.25 459.26
2083 0 59.212 14.2032 841 119.597 1027.4 454.004
2084 0 61.1728 10.9526 670 125.381 1027.43 449.946
2085 0 63.168 14.1369 893 119.01 1027.17 448.03
2086 0 62.1532 13.2576 824 120.087 1026.99 452.447
2087 0 66.2568 12.5723 833 120.107 1027.13 449.643
2088 0 70.1684 11.2159 787 121.825 1026.47 447.365
2089 0 69.1885 11.7505 813 121.659 1028.72 445.399
2090 0 74.1678 12.5931 934 120.149 1029.3 445.411
2091 0 75.2331 14.4219 1085 115.89 1028.91 441.813
2092 0 76.337 11.5802 884 120.575 1030.43 440.378
2093 0 76.337 11.5409 881 136.722 1032.45 440.41
2094 0 80.0992 13.7954 1105 117.341 1032.95 437.589
2095 0 84.2315 11.3734 958 121.413 1032.66 438.724
2096 0 85.3216 12.0251 1026 118.27 1033.55 437
2097 0 89.1996 14.2153 1268 115.528 1034.76 432.545
2098 0 91.2142 12.9037 1177 117.986 1034.16 430.756
2099 0 97.2933 12.8169 1247 116.792 1033.97 429.986
2100 0 97.3541 12.1104 1179 119.254 1035.07 424.022
2101 0 98.2462 13.2728 1304 117.597 1034.84 422.448
2102 0 102.244 13.0961 1339 116.59 1036.3 428.031
2103 0 102.244 13.0178 1331 133.727 1038.31 428.071
2104 0 109.199 13.9103 1519 117.312 1035.26 430.022
2105 1 59.1317 11.4998 680 114.768 1035.74 457.375
2106 0 62.3892 11.9572 746 115.606 1036.22 452.831
2107 0 67.2358 13.6832 920 113.247 1037.77 453.236
2108 0 68.1237 13.7691 938 110.321 1035.71 445
2109 0 72.4024 12.0024 869 112.296 1035.22 451.879
2110 0 73.2822 12.0357 882 111.783 1035.58 453.159
2111 0 77.3078 11.3184 875 114.63 1034.49 448.984
2112 0 80.6028 14.0194 1130 110.87 1033.99 447.273
2113 0 83.344 13.0423 1087 113.248 1033.33 445.584
2114 0 85.4421 19.522 1668 103.323 1033.13 449.105
2115 0 89.3339 12.7723 1141 114.054 1032.04 442.424
2116 0 91.3642 12.1054 1106 115.935 1031.76 441.197
2117 0 96.2628 12.7464 1227 115.031 1031.31 443.086
2118 0 99.163 13.2812 1317 114.51 1030.5 442.96
2119 0 106.248 14.4285 1533 111.834 1030.64 439.446
2120 0 106.515 16.0259 1707 110.785 1029.46 435.368
2121 0 108.176 13.3117 1440 114.561 1029.7 435.078
2122 1 56.2169 9.87247 555 118.259 1028.13 458.005
2123 0 56.2326 8.42927 474 118.466 1029.91 459.734
2124 0 64.1214 10.4801 672 114.976 1029.74 456.132
2125 0 65.0971 17.7427 1155 102.22 1026.65 459.675
2126 0 67.1487 14.4753 972 108.366 1026.65 456.366
2127 0 68.1292 10.9645 747 113.68 1027.73 453.922
2128 0 71.2624 12.5312 893 111.514 1027.13 450.917
2129 0 72.2988 11.9089 861 113.36 1028.16 448.113
2130 0 76.13 12.9909 989 111.658 1027.15 448.1
2131 0 76.1994 13.3991 1021 111.966 1027.91 443.01
2132 0 83.0843 13.9858 1162 109.88 1028.77 443.324
2133 0 82.1706 15.5408 1277 108.159 1030.65 442.75
2134 0 81.1673 13.6262 1106 123.196 1031.59 440.334
2135 0 86.1989 15.5686 1342 110.226 1030.89 433.065
2136 0 91.2639 15.1539 1383 110.342 1031.56 436.74
2137 0 94.2368 12.7551 1202 115.888 1031.99 429.696
2138 0 95.2227 12.4025 1181 116.453 1032.04 434.428
2139 0 98.2065 12.9727 1274 117.825 1032.61 428.969
2140 0 103.191 11.4254 1179 120.472 1033.35 430.696
2141 0 110.202 10.4807 1155 119.918 1033.44 434.657
2142 1 57.1084 10.2437 585 115.297 1033.95 456.59
2143 0 57.1378 10.6934 611 115.439 1034.54 455.553
2144 0 62.2443 15.3428 955 107.568 1035.47 451.231
2145 0 63.2569 13.1843 834 112.472 1037.24 454.459
2146 0 66.1652 14.6905 972 113.233 1038.15 451.93
2147 0 69.0951 14.0386 970 114.315 1037.86 452.062
2148 0 74.154 15.4273 1144 110.837 1038.1 452.866
2149 0 75.1615 14.4755 1088 113.433 1038.26 448.804
2150 0 77.1835 16.0786 1241 111.122 1038.17 452.146
2151 0 82.2895 16.4055 1350 110.79 1038.49 449.845
2152 0 82.3198 14.3951 1185 115.493 1036.56 451.22
2153 0 87.4146 16.0271 1401 112.252 1036.84 450.474
2154 0 91.7646 13.5782 1246 115.952 1036.79 449.249
2155 0 93.4391 17.102 1598 111.039 1035.43 446.151
2156 0 93.4391 16.9843 1587 133.544 1035.45 446.142
2157 0 93.4391 16.9736 1586 133.074 1035.45 446.172
2158 0 102.49 15.2991 1568 113.582 1033.4 436.089
2159 0 106.644 13.8592 1478 116.585 1032.51 433.652
2160 0 107.449 12.3966 1332 118.359 1031.93 433.245
2161 0 113.404 14.294 1621 114.143 1031.38 430.739
2162 0 115.359 12.6735 1462 117.311 1029.62 436.718
2163 1 62.3275 12.5787 784 113.952 1029.84 455.788
2164 0 61.1753 10.7233 656 118.047 1029.97 457.419
2165 0 66.3538 12.5388 832 113.397 1028.5 454.82
2166 1 132.567 13.4423 1782 115.964 1028.06 420.874
2167 1 69.241 11.1206 770 118.199 1029.58 447.573
2168 0 71.4526 12.0639 862 115.428 1028.28 449.802
2169 0 72.5601 10.3776 753 119.865 1029.43 446.428
2170 0 77.4341 14.3606 1112 112.963 1028.86 444.875
2171 0 77.2122 12.783 987 117.249 1028.79 438.39
2172 0 82.3198 16.9097 1392 110.38 1029.76 438.854
2173 0 75.3006 11.3014 851 121.752 1029.59 435.177
2174 1 86.3059 15.0048 1295 114.537 1030.67 432.032
2175 0 88.3293 13.9478 1232 115.728 1030.97 433.354
2176 0 92.7034 14.5302 1347 114.14 1030.97 430.125
2177 0 92.253 11.1107 1025 121.333 1032.29 426.387
2178 0 96.1863 13.5258 1301 115.563 1031.23 427.509
2179 1 53.0724 11.3618 603 111.294 1033.74 452.05
2180 0 55.0706 10.1688 560 118.682 1034.33 453.975
2181 0 55.0575 12.0601 664 116.468 1034.1 452.574
2182 0 58.0801 10.761 625 117.875 1035.04 448.011
2183 0 60.0867 13.1976 793 113.759 1034.26 446.357
2184 0 62.2413 13.8493 862 111.629 1035.8 449.158
2185 0 65.3712 14.563 952 110.876 1036.41 447.249
2186 0 65.3712 14.5477 951 132.452 1038.39 447.374
2187 0 67.1792 14.9451 1004 110.315 1037.41 446.918
2188 0 69.0566 12.9459 894 114.742 1039.03 445.865
2189 0 73.077 12.9589 947 113.495 1038.36 446.267
2190 0 76.1599 15.7957 1203 108.855 1039.31 445.101
2191 0 77.1036 14.0201 1081 113.093 1039.49 445.098
2192 0 79.2711 14.9992 1189 112.841 1038.82 441.743
2193 0 83.2553 17.6685 1471 108.599 1038.13 440.655
2194 0 92.1204 12.2774 1131 115.549 1038.13 444.916
2195 0 87.2315 9.5493 833 121.561 1038.22 444.947
2196 0 94.1607 15.4842 1458 111.313 1037.28 444.023
2197 0 96.1612 15.6196 1502 112.871 1035.38 440.034
2198 0 99.1687 15.7308 1560 112.648 1035.94 438.774
2199 1 53.1257 11.7081 622 114.823 1035.59 463.953
2200 0 53.0388 11.1051 589 117.438 1035.13 463.141
2201 0 57.1436 13.8948 794 112.592 1032.85 462.117
2202 0 58.2757 11.7202 683 116.069 1033.3 466.637
2203 0 60.2515 11.3192 682 115.626 1031.66 462.086
2204 0 63.4763 14.2888 907 110.817 1030.98 462.282
2205 0 64.2301 14.2612 916 111.379 1030.49 460.167
2206 0 66.2935 13.938 924 111.466 1030.27 460.568
2207 0 70.3831 18.0299 1269 105.14 1029.18 454.511
2208 0 70.2828 15.2669 1073 110.107 1029.67 454.128
2209 0 72.2887 15.5903 1127 108.985 1028.97 454.931
2210 0 78.4823 17.8129 1398 105.66 1028.1 451.083
2211 0 78.3442 15.8531 1242 109.449 1028.91 444.179
2212 0 78.4696 14.6171 1147 111.622 1028.51 446.479
2213 0 83.3832 14.7632 1231 111.521 1028.91 438.732
2214 0 84.5583 13.9312 1178 115.623 1027.4 439.519
2215 0 87.4727 14.3931 1259 115.233 1029.25 437.76
2216 0 88.4282 14.8369 1312 115.63 1028.61 434.651
2217 0 90.4159 12.4867 1129 118.05 1029.63 434.049
2218 0 95.6306 13.8554 1325 113.239 1029.52 436.13
2219 0 99.6796 12.5001 1246 114.628 1030.5 431.769
2220 0 102.248 15.0125 1535 110.443 1029.45 432.308
2221 0 105.482 18.098 1909 106.284 1030.3 426.25
2222 0 106.489 14.3959 1533 113.019 1031.85 423.536
2223 0 114.496 12.7341 1458 114.016 1032.8 426.689
2224 1 57.1766 13.1347 751 110.206 1033.7 452.905
2225 0 60.6497 11.3933 691 116.569 1034.18 451.142
2226 0 61.2348 13.7667 843 113.389 1036.24 450.488
2227 0 65.1684 13.0124 848 113.662 1035.6 450.093
2228 0 66.1636 14.2677 944 112.024 1037.25 448.21
2229 0 72.255 16.9123 1222 105.893 1036.64 453.097
2230 0 74.2278 16.6515 1236 107.582 1038.71 448.227
2231 0 75.3887 13.4636 1015 113.147 1037.03 449.161
2232 0 75.3887 13.4238 1012 143.88 1036.02 449.144
2233 0 80.5081 13.9862 1126 113.114 1037.94 448.393
2234 0 77.3409 12.3738 957 119.013 1038.04 441.648
2235 0 84.5712 13.3615 1130 116.871 1036.4 445.442
2236 0 90.4082 12.4878 1129 115.857 1036.17 445.19
2237 0 94.6899 16.2425 1538 109.431 1034.41 440.593
2238 0 97.2789 16.9821 1652 108.56 1034.83 434.321
2239 1 48.4664 10.6466 516 111.884 1034.41 462.607
2240 0 53.4016 11.4603 612 112.923 1033.51 463.776
2241 0 56.2009 13.1137 737 111.993 1033.24 464.453
2242 0 58.2179 13.0029 757 111.684 1033.99 461.572
2243 0 61.1791 11.4582 701 113.732 1031.93 461.822
2244 0 64.1801 14.506 931 108.606 1031.31 459.425
2245 0 68.2541 14.5193 991 108.002 1030.05 459.769
2246 0 66.276 12.8553 852 111.425 1029.64 462.303
2247 0 71.2039 13.7633 980 110.902 1028.79 457.502
2248 0 72.2294 12.3772 894 113.097 1028.31 457.688
2249 0 76.3238 15.4736 1181 108.325 1028.24 458.133
2250 0 79.2735 13.1444 1042 112.737 1028.95 453.458
2251 0 78.243 12.2056 955 115.369 1028.76 453.094
2252 0 84.1349 15.7248 1323 108.58 1029.07 451.853
2253 0 85.3036 13.0241 1111 114.222 1027.8 446.039
2254 0 91.2504 13.852 1264 112.797 1029.05 445.703
2255 0 90.1711 12.6426 1140 115.461 1029.88 445.668
2256 0 93.3827 13.7713 1286 115.002 1030.38 434.575
2257 0 94.4706 12.4271 1174 118.155 1030.18 431.21
2258 0 98.4497 13.7227 1351 116.006 1029.79 427.951
2259 0 104.349 15.0839 1574 112.923 1030.2 431.339
2260 0 104.239 14.2269 1483 116.55 1031.48 424.38
2261 0 112.32 11.4584 1287 121.897 1030.11 431.911
2262 1 57.1153 11.0478 631 116.81 1030.72 454.862
2263 0 59.0362 12.162 718 116.675 1030.31 448.382
2264 0 62.039 11.799 732 116.235 1030.79 448.414
2265 0 64.2114 11.8515 761 115.716 1032.01 447.129
2266 0 67.1263 14.361 964 112.583 1033.57 446.707
2267 0 68.0872 11.6321 792 116.798 1034.48 444.526
2268 0 69.1441 12.7126 879 116.131 1034.54 442.433
2269 0 72.2081 10.1512 733 119.186 1034.29 443.98
2270 0 75.2176 11.6994 880 116.674 1035.15 445.761
2271 0 78.1626 11.5656 904 117.967 1035.94 440.35
2272 0 82.1716 12.6321 1038 112.543 1034.45 444.343
2273 0 86.2344 13.301 1147 112.264 1035.41 438.556
2274 0 89.3817 13.9626 1248 110.846 1036.58 442.625
2275 0 90.244 12.8984 1164 114.565 1036.36 434.006
2276 0 91.2325 12.3859 1130 115.786 1036.45 434.188
2277 0 97.3075 10.4206 1014 117.191 1036.44 444.604
2278 0 102.205 17.2302 1761 106.476 1035.35 444.425
2279 1 62.1166 9.62705 598 113.893 1034.18 464.448
2280 0 62.0469 12.3616 767 112.417 1033.91 463.302
2281 0 66.1327 14.7582 976 108.427 1037.3 462.274
2282 0 66.1207 14.7306 974 110.628 1037.16 456.059
2283 0 65.1159 10.9958 716 116.673 1034.28 463.554
2284 0 76.1353 9.02341 687 118.907 1033.76 463.22
2285 0 75.1555 14.6762 1103 110.645 1032.15 455.937
2286 0 74.1179 10.8611 805 116.942 1031.44 459.735
2287 0 78.2604 14.6179 1144 110.196 1031.48 460.883
2288 0 80.1864 13.4312 1077 114.561 1029.43 451.796
2289 0 82.1501 15.1065 1241 113.34 1029.63 447.638
2290 0 84.1714 12.2845 1034 116.831 1026.5 454.372
2291 0 87.1767 12.5378 1093 118.391 1028.8 447.586
2292 0 90.327 14.8682 1343 114.526 1028.35 444.734
2293 0 95.1214 14.1924 1350 114.722 1028.36 445.099
2294 0 98.1713 17.3472 1703 109.985 1027.38 445.308
2295 0 99.142 13.4353 1332 117.244 1028.37 441.02
2296 1 55.1421 9.84729 543 121.764 1026.89 462.593
2297 0 57.0528 12.9354 738 115.959 1027.05 461.244
2298 0 57.1434 11.0249 630 121.486 1026.85 457.878
2299 0 60.1387 12.4545 749 116.761 1027.93 457.421
2300 0 62.1419 13.6784 850 114.775 1028.1 454.433
2301 0 63.1396 12.2744 775 117.874 1027.3 452.999
2302 0 66.2875 16.0211 1062 111.202 1028.1 448.995
2303 0 66.2369 12.5157 829 119.193 1029.98 450.297
2304 0 69.181 12.6913 878 116.731 1029.28 451.137
2305 0 73.1379 14.0009 1024 114.817 1030.4 443.823
2306 0 73.223 12.9604 949 117.321 1029.65 443.654
2307 0 74.277 11.4437 850 119.732 1031.7 445.986
2308 0 78.3169 16.9695 1329 110.676 1031.36 444.131
2309 0 79.1533 13.6444 1080 117.744 1033.16 440.639
2310 0 84.2744 15.3071 1290 113.755 1031.52 442.863
2311 0 85.2316 13.6804 1166 117.051 1032.86 443.154
2312 0 85.2398 13.2684 1131 118.149 1034.19 443.351
2313 0 91.2544 14.5856 1331 117.186 1034.72 436.385
2314 0 93.1669 15.8855 1480 116.482 1034.39 436.174
2315 0 95.33 13.983 1333 120.76 1035.57 433.569
2316 0 101.228 16.9716 1718 114.246 1034.95 435.998
2317 0 104.273 13.6469 1423 121.471 1036.78 436.814
2318 0 106.17 14.3261 1521 121.889 1036.64 435.13
2319 1 55.3045 13.9591 772 118.635 1036.46 460.082
2320 0 60.3253 12.0182 725 120.561 1036.36 459.99
2321 0 61.3504 13.0887 803 121.263 1035.71 459.321
2322 0 62.0805 14.159 879 119.283 1034.86 459.702
2323 0 65.2697 15.8879 1037 116.153 1033.93 455.393
2324 0 68.1553 12.8237 874 121.029 1034.22 458.714
2325 0 72.229 14.5371 1050 117.453 1033.29 458.862
2326 0 74.229 12.0842 897 123.227 1032.71 457.36
2327 0 78.2655 15.4602 1210 116.664 1032.6 455.82
2328 0 78.1465 16.0468 1254 116.273 1030.12 456.179
2329 0 81.3659 14.8219 1206 119.182 1030.35 451.06
2330 0 85.1831 14.099 1201 120.453 1030.49 451.662
2331 0 87.2547 16.6524 1453 115.467 1030.16 451.681
2332 0 89.249 14.4876 1293 120.94 1030.01 445.918
2333 0 92.1952 16.6495 1535 117.313 1029.19 444.415
2334 0 96.1613 13.4358 1292 120.855 1029.32 449.853
2335 0 101.217 10.4331 1056 128.802 1029.4 436.435
2336 1 51.2018 12.1089 620 122.747 1028.42 463.555
2337 0 58.1446 14.8767 865 119.129 1027.24 458.407
2338 0 56.2721 13.7013 771 121.16 1028.01 457.328
2339 0 60.3956 12.832 775 119.785 1028.63 452.667
2340 0 60.1893 14.8199 892 117.729 1028.34 451.954
2341 0 62.2122 14.1612 881 119.47 1027.34 450.691
2342 0 61.1373 11.5314 705 124.209 1028.4 448.501
2343 0 68.4031 12.748 872 121.425 1027.86 443.818
2344 0 67.1285 12.707 853 121.54 1028.75 444.291
2345 0 72.2705 16.1892 1170 112.846 1028.58 443.901
2346 0 71.1965 15.6047 1111 116.649 1029.6 437.237
2347 0 72.1309 12.9625 935 121.289 1030.09 435.534
2348 0 79.1629 14.0344 1111 118.482 1030.96 420.609
2349 0 80.119 15.0152 1203 113.562 1032.8 417.072
2350 0 79.2167 12.611 999 119.168 1031.56 413.588
2351 0 84.2671 13.4097 1130 116.148 1033.54 417.706
2352 0 84.2753 11.6879 985 122.372 1033.9 413.156
2353 1 49.3054 9.75552 481 115.476 1034.45 433.516
2354 0 51.1811 10.5312 539 117.646 1034.62 430.417
2355 0 51.0897 11.8419 605 116.068 1035.48 438.54
2356 0 53.0243 9.01473 478 117.791 1036.94 449.09
2357 0 55.0219 14.9577 823 115.673 1037.66 440.021
2358 0 58.2107 12.6265 735 117.917 1037.54 446.128
2359 0 60.0638 14.4846 870 114.849 1038.56 446.225
2360 0 61.1161 11.8299 723 119.231 1037.23 449.329
2361 0 67.1759 15.5115 1042 111.585 1038.2 452.503
2362 0 68.0777 14.2044 967 113.279 1038.9 453.434
2363 0 70.0836 12.1141 849 118.001 1037.95 453.263
2364 0 73.1285 15.5753 1139 111.489 1037.17 453.738
2365 0 74.0532 15.921 1179 112.204 1036.29 449.681
2366 0 76.2147 11.8612 904 118.19 1037.18 450.366
2367 0 80.1242 14.5399 1165 113.93 1035.98 445.296
2368 0 81.0811 12.4567 1010 118.932 1034.51 443.704
2369 0 84.0688 16.0702 1351 111.929 1034.21 445.988
2370 0 85.1108 15.3329 1305 114.977 1031.83 440.737
2371 0 91.0517 13.9811 1273 116.75 1031.36 441.464
2372 0 94.0783 14.0202 1319 117.034 1030.42 443.011
2373 0 93.0876 15.856 1476 134.243 1030.57 445.055
2374 1 53.0416 12.1603 645 112.845 1029.59 465.58
2375 0 52.1075 10.9389 570 115.137 1028.7 461.907
2376 0 55.3584 10.9469 606 115.931 1028.29 454.979
2377 0 56.2325 12.1816 685 115.21 1027.53 452.861
2378 0 61.2943 12.7907 784 113.149 1028.02 454.199
2379 0 62.1053 13.1229 815 112.876 1027.62 454.386
2380 0 63.3403 12.9617 821 113.674 1027.36 451.022
2381 0 61.2671 11.1316 682 118.855 1027.98 447.962
2382 0 68.3846 12.2835 840 115.555 1026.63 446.487
2383 0 68.2368 9.95064 679 120.906 1028.45 445.398
2384 0 70.2994 13.9546 981 113.8 1028.67 445.172
2385 0 73.128 16.0814 1176 111.827 1027.93 439.776
2386 0 77.1583 15.0859 1164 113.422 1028.98 438.691
2387 0 77.3187 15.8694 1227 113.52 1028.97 439.808
2388 0 81.2672 12.5266 1018 119.058 1030.1 435.14
2389 0 83.4022 15.1555 1264 115.88 1030.81 432.102
2390 0 85.3237 14.2633 1217 115.859 1029.88 435.179
2391 0 87.43 13.3707 1169 119.424 1031.79 427.673
2392 1 48.491 12.0022 582 114.826 1031.76 453.108
2393 0 48.2235 9.39376 453 120.903 1031.39 451.227
2394 0 53.1406 14.17 753 110.784 1033.45 452.6
2395 0 50.1529 11.4051 572 118.533 1032.25 449.92
2396 0 53.1962 13.2152 703 114.757 1032.81 451.403
2397 0 54.1586 11.5771 627 121.244 1031.56 453.434
2398 0 58.0899 14.9596 869 113.716 1031.31 453.986
2399 0 63.1026 15.7363 993 111.55 1032.18 456.323
2400 0 61.1292 13.1361 803 117.89 1033.46 455.276
2401 0 62.0769 12.7261 790 117.772 1033.72 456.265
2402 0 67.116 13.4096 900 115.727 1033.39 456.409
2403 0 71.2135 11.29 804 119.098 1033.96 457.371
2404 0 73.139 12.9479 947 117.572 1033.39 455.449
2405 0 75.3211 10.9531 825 119.519 1032.26 457.406
2406 0 79.2629 15.1647 1202 113.53 1032.24 453.371
2407 0 84.102 11.7595 989 117.525 1032.3 454.088
2408 0 87.4426 12.3167 1077 115.071 1032.11 456.202
2409 1 50.0422 13.3687 669 108.368 1031.25 475.335
2410 0 48.1147 11.244 541 112.237 1029.7 468.348
2411 0 49.0657 10.8018 530 109.438 1029.12 467.206
2412 0 51.1632 12.509 640 107.108 1029.04 467.203
2413 0 54.1919 16.2939 883 103.173 1028.16 467.297
2414 0 54.197 17.6947 959 102.805 1027.52 465.514
2415 0 56.0969 14.0115 786 107.662 1027.4 464.908
2416 0 56.2039 11.6896 657 110.546 1026.99 468.195
2417 0 60.0793 12.833 771 110.294 1026.98 462.982
2418 0 63.0938 17.2283 1087 103.064 1026.53 463.622
2419 0 63.1168 12.5165 790 109.916 1026.56 461.782
2420 0 65.0643 13.8017 898 109.646 1026.15 457.22
2421 0 68.1181 15.297 1042 106.915 1026.46 458.883
2422 0 72.1409 11.4498 826 111.655 1025.93 457.143
2423 0 71.1035 12.7139 904 111.837 1026 451.685
2424 0 75.2508 13.6477 1027 110.036 1026.47 452.273
2425 0 75.0488 13.4846 1012 111.44 1026.05 448.453
2426 0 77.2934 14.4773 1119 109.912 1026.68 449.219
2427 0 77.2934 14.4514 1117 127.698 1027.69 449.466
2428 0 81.2452 13.3054 1081 113.57 1028.08 442.858
2429 0 85.2184 14.2692 1216 111.621 1028.62 443.706
2430 0 87.3567 12.0197 1050 116.491 1028.68 435.889
2431 0 91.1287 13.3108 1213 114.096 1029.55 433.849
2432 0 90.4342 13.2804 1201 114.687 1029.93 435.68
2433 0 92.3889 15.4023 1423 112.677 1030.13 428.599
2434 0 95.4466 11.5248 1100 118.537 1030.76 426.317
2435 0 102.358 13.7459 1407 114.181 1031.89 430.314
2436 0 105.637 16.5661 1750 111.406 1033.14 424.923
2437 0 110.399 14.7013 1623 113.121 1032.2 421.805
2438 0 113.407 14.0556 1594 114.252 1033.24 421.723
2439 0 117.48 13.2192 1553 115.626 1032.97 421.321
2440 0 119.244 13.5772 1619 115.854 1031.91 420.305
2441 0 128.192 15.0945 1935 113.662 1033.66 415.75
2442 0 128.192 15.1257 1939 135.676 1034.66 415.696
2443 1 74.3643 13.3801 995 114.912 1034.18 453.215
2444 0 75.3318 13.872 1045 115.272 1033.28 450.843
2445 0 79.4622 13.1761 1047 117.565 1035.06 451.529
2446 0 81.2106 15.6507 1271 114.193 1032.36 450.78
2447 0 85.4779 13.3017 1137 117.511 1032.52 452.433
2448 0 88.3462 12.0888 1068 118.572 1034.21 450.047
2449 0 92.4017 13.7227 1268 118.382 1033.83 446.569
2450 0 94.4912 14.7421 1393 117.314 1031.4 442.434
2451 0 96.675 14.5332 1405 118.384 1031.93 440.788
2452 0 101.494 15.5674 1580 115.37 1030.46 440.239
2453 0 105.276 13.3268 1403 119.053 1029.84 436.154
2454 0 106.236 13.3665 1420 118.337 1028.65 434.004
2455 0 106.189 9.30416 988 126.208 1027.26 432.87
2456 0 115.259 12.0077 1384 119.757 1027.56 436.034
2457 0 117.225 10.7145 1256 125.135 1026.9 428.893
2458 1 65.256 12.5352 818 116.324 1026.9 454.612
2459 0 68.1285 12.2709 836 117.444 1028.23 454.282
2460 0 69.1648 14.8197 1025 113.132 1027.67 452.006
2461 0 75.2453 14.26 1073 117.374 1026.9 453.067
2462 0 77.1508 13.5708 1047 118.759 1027.17 448.811
2463 0 77.1248 9.45222 729 126.309 1028.92 450.901
2464 0 80.1418 10.7684 863 123.975 1028.43 448.284
2465 0 84.0858 13.0819 1100 120.816 1028.19 444.052
2466 0 87.118 15.0026 1307 117.78 1028.96 443.244
2467 0 91.2128 14.3291 1307 118.679 1028.46 441.597
2468 0 88.0795 12.0573 1062 125.616 1028.55 436.747
2469 0 94.3049 13.52 1275 122.045 1029.46 436.093
2470 0 95.1394 13.0966 1246 123.788 1030.14 435.921
2471 0 100.149 14.9078 1493 119.602 1031.05 435.839
2472 0 102.163 13.8015 1410 122.052 1031.22 435.774
2473 1 55.1522 13.9432 769 118.449 1031.28 454.473
2474 0 55.0541 13.8591 763 119.058 1031.24 456.74
2475 0 59.1928 13.6334 807 115.83 1029.34 451.373
2476 0 59.1422 13.5605 802 116.475 1031.93 451.14
2477 0 60.0985 13.2449 796 119.357 1032.18 453.234
2478 0 62.0822 13.4016 832 117.837 1033.59 454.71
2479 0 63.069 13.509 852 117.649 1033.28 454.452
2480 1 129.468 13.5014 1748 124.058 1035.05 419.357
2481 1 70.1369 12.0051 842 120.181 1035.51 454.001
2482 0 72.1475 13.5278 976 117.764 1035.49 450.812
2483 0 77.2126 12.5109 966 119 1034.48 450.88
2484 0 80.1693 11.1888 897 120.713 1035.31 454.349
2485 0 81.1557 12.5931 1022 118.744 1033.89 452.272
2486 0 84.2669 15.0474 1268 114.621 1034.62 452.232
2487 0 88.2604 13.6528 1205 115.837 1033.46 455.368
2488 0 92.2869 12.4611 1150 118.47 1033.62 452.075
2489 0 97.3892 15.0119 1462 113.852 1033.33 453.863
2490 1 55.1782 14.8428 819 113.905 1034.31 473.313
2491 0 55.2694 11.5254 637 122.055 1034.18 470.926
2492 0 58.1631 15.4737 900 114.2 1032.99 470.833
2493 0 61.137 14.721 900 118.078 1032.03 468.597
2494 0 63.156 13.9179 879 120.363 1030.75 467.535
2495 0 62.1291 13.488 838 123.854 1030.13 464.416
2496 0 66.2788 14.0166 929 122.421 1029.93 463.052
2497 0 65.2585 11.9218 778 126.607 1028.4 463.275
2498 0 70.2377 16.8428 1183 117.58 1028.66 461.307
2499 0 68.3223 12.3678 845 127.415 1029.01 458.863
2500 0 76.1648 14.206 1082 122.413 1026.65 458.289
2501 0 76.1648 14.206 1082 146.832 1023.63 458.24
2502 0 81.2431 15.5829 1266 120.65 1026.56 453.664
2503 0 86.2725 18.0475 1557 115.059 1026.95 456.038
2504 0 86.2662 17.1214 1477 117.938 1026.09 453.217
2505 0 90.3328 18.1108 1636 117.523 1025.58 446.112
2506 0 92.3123 15.7725 1456 122.376 1026.63 443.688
2507 1 49.1558 11.6568 573 127.911 1027.42 464.822
2508 0 52.201 11.245 587 129.535 1026.66 461.327
2509 0 56.2241 13.8908 781 118.005 1027.2 457.878
2510 0 55.0422 15.6244 860 117.803 1028.08 456.714
2511 0 58.1112 15.281 888 121.745 1029.29 460.052
2512 0 61.1269 17.3083 1058 118.057 1030.51 459.148
2513 0 62.1535 15.2365 947 122.22 1029.63 456.413
2514 0 65.198 16.1662 1054 118.126 1030.21 458.07
2515 0 65.2112 17.2823 1127 118.406 1030.53 453.917
2516 0 66.0808 13.9677 923 124.068 1030.77 454.107
2517 0 68.0972 13.3486 909 126.431 1032.35 450.385
2518 0 68.0972 13.3926 912 161.069 1034.37 450.286
2519 0 73.2181 16.007 1172 121.472 1033.63 449.494
2520 0 71.1791 11.3657 809 130.645 1034.97 449.391
2521 0 78.1976 13.3764 1046 125.755 1034.26 448.66
2522 0 84.147 19.8581 1671 112.486 1035 450.025
2523 0 85.1859 16.599 1414 119.576 1035.08 446.925
2524 0 88.3438 16.4245 1451 120.833 1036.16 445.409
2525 0 92.2218 13.4025 1236 124.155 1035.78 447.824
2526 0 95.1452 14.9666 1424 121.23 1035 446.497
2527 1 52.0516 15.5807 811 115.128 1034.17 469.621
2528 0 51.3879 12.4738 641 120.293 1035.22 470.944
2529 0 51.3879 12.3375 634 139.806 1036.19 470.998
2530 0 52.4344 11.9769 628 121.502 1032.39 468.221
2531 0 61.0621 13.822 844 117.559 1032.43 464.618
2532 0 64.0676 15.7334 1008 112.915 1031.56 465.932
2533 0 68.2153 14.6008 996 113.764 1031.1 465.035
2534 0 70.1247 14.5313 1019 114.353 1029.06 459.73
2535 0 72.1173 14.5596 1050 113.715 1029.83 462.96
2536 0 77.1464 17.1881 1326 109.289 1030.2 459.3
2537 0 78.2139 17.8101 1393 108.808 1028.86 455.799
2538 0 82.221 13.9624 1148 114.801 1028.86 453.869
2539 0 85.1191 16.4005 1396 111.365 1028.22 452.261
2540 0 87.261 14.6228 1276 114.498 1027.6 451.437
2541 0 90.2142 14.4102 1300 115.26 1026.31 448.058
2542 0 94.1196 16.1284 1518 113.389 1026.02 443.367
2543 0 98.393 16.3934 1613 112.471 1025.72 445.229
2544 0 101.298 15.8344 1604 114.081 1026.12 440.779
2545 0 103.191 14.5265 1499 116.97 1026.98 437.312
2546 0 108.316 15.1962 1646 115.761 1025.27 433.382
2547 0 110.303 14.4602 1595 117.966 1026.94 430.464
2548 1 58.3334 12.5143 730 120.633 1027.01 454.042
2549 0 61.2599 14.4793 887 116.91 1026.37 447.404
2550 0 64.076 15.029 963 113.66 1026.5 451.344
2551 0 66.1229 16.7567 1108 112.726 1027 452.07
2552 0 67.0626 13.5247 907 119.151 1028.91 452.528
2553 0 60.1044 9.05092 544 129.233 1027.85 448.566
2554 0 72.2142 11.909 860 123 1029.21 445.004
2555 0 82.0976 12.4486 1022 121.349 1027.76 440.421
2556 0 84.0782 13.1187 1103 118.239 1028.84 444.196
2557 0 78.09 11.7045 914 123.479 1029.81 438.269
2558 0 83.2019 12.055 1003 123.09 1031.92 439.508
2559 0 87.3486 14.3448 1253 118.223 1031.18 438.191
2560 0 85.1993 12.7466 1086 122.599 1032.1 434.599
2561 0 94.2038 15.3178 1443 114.238 1031.51 439.96
2562 0 99.3252 16.9947 1688 112.849 1032.08 434.616
2563 0 101.212 12.4887 1264 120.638 1032.3 436.725
2564 1 56.1271 12.3113 691 117.978 1031.81 453.742
2565 0 57.0722 8.93605 510 121.847 1032.88 456.737
2566 0 64.2498 11.1596 717 112.813 1033.7 455.139
2567 0 64.1456 15.496 994 107.554 1033.69 455.438
2568 0 67.1289 14.569 978 112.08 1032.67 462.106
2569 0 71.1662 13.9954 996 111.401 1032.68 463.902
2570 0 72.1088 12.3841 893 114.812 1031.81 463.185
2571 0 77.5335 14.3551 1113 112.384 1032.51 457.703
2572 0 80.2241 12.8515 1031 115.877 1032.21 457.015
2573 0 86.2279 16.5144 1424 108.952 1030.27 459.48
2574 0 85.1007 16.5686 1410 108.918 1029.86 458.902
2575 0 89.2534 10.3301 922 118.665 1030.27 446.529
2576 0 93.1902 12.0828 1126 116.431 1028.41 449.945
2577 1 51.101 12.3481 631 112.811 1027.59 472.487
2578 0 46.0757 10.1138 466 117.294 1026.53 475.064
2579 0 46.0757 10.1789 469 129.175 1026.54 475.07
2580 0 54.0524 13.4499 727 112.85 1027.47 461.71
2581 0 55.0631 13.8205 761 111.804 1025.56 460.597
2582 0 55.0631 13.9658 769 130.013 1024.49 460.507
2583 0 58.1063 16.2633 945 107.507 1025.42 460.698
2584 0 61.2152 16.1888 991 106.747 1024.86 466.283
2585 0 60.1195 15.1032 908 108.88 1023.75 460.724
2586 0 60.1049 12.7111 764 112.064 1025.13 459.898
2587 0 65.1936 14.2959 932 108.412 1023.12 454.65
2588 0 67.1338 16.4746 1106 104.904 1024.84 459.04
2589 0 69.2438 13.8785 961 106.205 1024.3 461.991
2590 0 72.162 16.2412 1172 104.358 1024.82 454.41
2591 0 72.2059 14.5694 1052 107.173 1025.71 447.953
2592 0 73.1647 14.8432 1086 107.174 1026.23 450.552
2593 0 79.2895 14.3146 1135 107.04 1026.61 449.15
2594 0 78.1348 15.9084 1243 106.076 1026.74 445.073
2595 0 81.2612 14.2134 1155 107.93 1026.45 443.924
2596 0 84.2373 16.4773 1388 104.902 1028.08 441.233
2597 0 87.2773 13.6462 1191 108.903 1026.97 433.908
2598 0 90.3789 16.4972 1491 104.351 1027.84 438.024
2599 0 91.4235 13.9789 1278 107.518 1030.18 438.442
2600 0 91.4235 14.0883 1288 135.304 1032.21 438.458
2601 0 100.277 17.5913 1764 103.235 1030.72 433.558
2602 1 61.2533 16.7338 1025 101.771 1030.08 450.5
2603 0 58.0721 11.5202 669 106.022 1030.94 452.522
2604 0 62.2169 12.6814 789 102.186 1032.08 455.379
2605 0 63.1571 17.3377 1095 96.474 1031.48 459.77
2606 0 66.3939 14.3236 951 98.4869 1031.74 458.116
2607 0 68.2284 15.2136 1038 98.9682 1031.54 458.181
2608 0 71.1604 12.254 872 103.981 1031.1 454.623
2609 0 75.1805 16.0813 1209 98.7337 1032.59 454.988
2610 0 80.1474 13.0011 1042 102.152 1032.26 459.722
2611 0 78.2455 12.8698 1007 106 1031.65 453.565
2612 0 84.4571 12.1482 1026 106.536 1032.02 451.161
2613 0 86.3063 12.2007 1053 106.736 1031.86 446.896
2614 0 87.1365 12.4173 1082 106.538 1030.62 444.059
2615 0 95.4864 14.2533 1361 102.697 1030.7 447.493
2616 0 99.2178 15.8338 1571 101.344 1028.63 447.004
2617 0 101.203 14.8612 1504 104.39 1027.97 446.805
2618 0 107.2 15.1119 1620 104.744 1026.95 437.604
2619 0 109.332 12.8964 1410 107.589 1026.15 436.255
2620 1 59.4752 13.2156 786 105.106 1027.14 443.239
2621 0 65.2192 14.8116 966 99.3892 1026.24 444.183
2622 0 66.5193 13.6802 910 101.493 1026.08 443.855
2623 0 67.1481 17.1114 1149 97.1436 1025.37 439.775
2624 0 67.1008 15.052 1010 120.037 1024.45 437.918
2625 0 75.0895 19.0706 1432 95.3554 1025.06 437.58
2626 0 78.3251 15.8825 1244 99.5563 1025.43 432.099
2627 0 79.1629 16.7882 1329 101.303 1024.18 440.891
2628 0 80.1583 14.3092 1147 104.484 1024.8 451.275
2629 0 81.3493 12.6492 1029 106.729 1026.32 449.427
2630 0 86.1635 16.3526 1409 101.813 1025.37 447.192
2631 0 89.288 14.0668 1256 104.49 1026.07 443.928
2632 0 90.2906 13.6891 1236 130.778 1027.06 444.011
2633 0 96.4269 17.0699 1646 100.239 1028.46 437.521
2634 0 95.5184 11.9977 1146 108.838 1028.78 431.635
2635 0 101.334 15.7401 1595 104.278 1028.23 427.103
2636 0 103.354 12.1718 1258 109.237 1028.36 422.401
2637 0 115.601 15.6746 1812 103.702 1029.13 422.776
2638 0 114.622 12.6852 1454 138.153 1030.2 427.939
2639 1 60.206 11.1617 672 104.504 1030.61 452.79
2640 0 63.4437 16.03 1017 98.7532 1030.58 447.825
2641 0 64.3408 12.7913 823 103.507 1031.1 446.375
2642 1 82.7329 12.353 1022 101.958 1034.26 450.957
2643 0 84.543 10.1014 854 103.205 1035 450.893
2644 0 85.5417 13.1632 1126 105.131 1035.46 443.786
2645 0 89.3133 13.7382 1227 103.007 1034.03 442.191
2646 0 93.3644 13.3456 1246 103.125 1033.78 447.73
2647 0 96.8084 12.1994 1181 105.391 1033.15 444.807
2648 0 99.3254 14.6891 1459 103.484 1032.82 442.774
2649 0 104.609 14.1097 1476 103.2 1033.03 446.689
2650 0 104.541 12.4353 1300 107.071 1031.18 436.745
2651 1 58.1795 13.0115 757 100.863 1031.83 463.683
2652 0 60.2251 11.3906 686 103.883 1030.3 462.908
2653 0 64.3304 11.3632 731 103.205 1030.02 463.94
2654 0 66.0844 16.7967 1110 97.4423 1028.12 465.326
2655 0 67.4418 13.0335 879 102.126 1025.84 458.975
2656 0 70.3938 15.8253 1114 99.5799 1026.03 454.702
2657 0 72.8205 12.2905 895 103.825 1025.87 455.175
2658 0 74.3178 14.9628 1112 101.286 1024.39 453.479
2659 0 74.3178 14.9897 1114 132.002 1022.4 453.677
2660 0 78.342 11.4115 894 108.147 1024.18 446.621
2661 0 80.5288 12.2813 989 107.009 1025.07 447.699
2662 0 86.4596 17.0484 1474 99.9912 1024.66 449.275
2663 0 84.7634 11.7739 998 109.911 1023.32 441.272
2664 0 87.4486 12.8304 1122 107.91 1023.52 443.172
2665 0 92.4226 14.2281 1315 106.765 1023.55 439.775
2666 0 94.3775 15.8089 1492 105.168 1023.52 440.242
2667 0 95.343 11.2331 1071 113.474 1024.44 431.583
2668 0 99.1531 14.5734 1445 110.372 1023.06 413.182
2669 0 103.498 15.7298 1628 108.111 1025.2 423.843
2670 0 107.32 16.3249 1752 107.334 1026.19 434.681
2671 0 106.378 14.8902 1584 111.398 1027.12 430.825
2672 0 113.686 17.0733 1941 108.13 1027.07 427.312
2673 0 114.601 16.7363 1918 109.778 1028.04 417.374
2674 0 114.601 16.841 1930 148.173 1029.04 417.362
2675 0 115.785 17.3598 2010 145.3 1030.02 418.213
2676 1 71.3539 13.2859 948 111.614 1028.99 439.245
2677 0 75.1956 12.8332 965 110.807 1030.05 439.263
2678 0 76.1843 15.725 1198 107.626 1031.69 439.187
2679 0 78.1531 13.4608 1052 111.572 1032.03 437.495
2680 0 81.1524 17.2515 1400 105.841 1032.02 436.784
2681 0 85.1617 13.398 1141 111.472 1033.11 436.593
2682 0 84.1803 12.2475 1031 115.035 1031.77 432.815
2683 0 91.1153 12.0507 1098 112.81 1032.71 436.005
2684 0 89.0552 12.1273 1080 114.401 1032.19 435.411
2685 0 95.2863 15.0074 1430 110.148 1033.99 432.039
2686 0 96.1294 12.0879 1162 116.111 1033.24 429.802
2687 0 102.637 14.8387 1523 108.413 1032.68 437.746
2688 0 106.612 10.8899 1161 112.974 1031.21 438.884
2689 0 110.768 13.1265 1454 115.534 1030.31 430.341
2690 0 113.589 14.3147 1626 113.234 1031.94 430.189
2691 0 118.058 14.0354 1657 113.393 1029.94 432.132
2692 0 118.69 17.1961 2041 103.108 1029.59 429.448
2693 0 121.275 11.9398 1448 111.75 1030.03 429.099
2694 0 128.477 15.8549 2037 106.163 1028.53 428.256
2695 0 130.436 15.3179 1998 107.943 1028.66 419.774
2696 0 133.604 10.8679 1452 115.122 1028.64 415.289
2697 0 141.678 17.4339 2470 105.075 1027.19 419.276
2698 0 145.461 14.8287 2157 108.943 1026.69 415.247
2699 0 150.582 12.0532 1815 110.305 1027.34 412.436
2700 0 157.671 15.5323 2449 105.627 1026.6 414.384
2701 0 161.578 14.705 2376 108.277 1025.7 409.934
2702 1 95.7951 8.98794 861 94.2137 1025.37 440.287
2703 0 101.742 17.4657 1777 88.4873 1024.86 439.633
2704 0 99.5335 10.6396 1059 96.4108 1024.29 435.566
2705 0 104.431 15.0625 1573 92.0833 1024.12 438.371
2706 0 108.765 15.2071 1654 91.9873 1023.41 437.309
2707 0 108.593 13.8222 1501 93.8175 1023.46 436.789
2708 0 111.428 15.2744 1702 93.9495 1023.6 427.882
2709 0 115.721 13.714 1587 94.184 1023.33 432.115
2710 0 116.598 12.1957 1422 97.7581 1024.32 424.863
2711 0 125.447 11.6225 1458 97.6296 1024.82 425.647
2712 0 126.88 13.6507 1732 97.0595 1025.3 418.774
2713 0 131.729 13.7176 1807 96.404 1024.48 421.732
2714 1 239.871 13.9825 3354 101.885 1026.84 361.476
2715 0 239.871 13.9658 3350 151.167 1028.84 361.667
2716 1 208.746 18.41 3843 94.7864 1027.49 381.14
2717 0 214.043 17.4311 3731 95.8255 1027.81 375.365
2718 0 222.66 13.7339 3058 98.8973 1026.74 380.819
2719 0 230.96 15.4399 3566 97.9795 1028.48 373.168
2720 0 233.844 10.4472 2443 106.359 1028.46 358.115
2721 1 94.2559 11.437 1078 96.9212 1030.92 425.425
2722 0 100.165 11.0318 1105 96.0615 1030.18 419.137
2723 0 101.282 11.1471 1129 96.3224 1030.9 421.794
2724 0 106.411 12.3577 1315 94.949 1031.74 422.128
2725 0 109.252 13.4368 1468 93.344 1031.48 425.95
2726 0 109.258 10.4431 1141 97.3812 1031.98 420.918
2727 0 117.4 13.2709 1558 95.3992 1031.75 432.472
2728 0 121.45 10.9592 1331 97.6582 1031.89 428.317
2729 0 126.407 10.6402 1345 98.632 1031.99 420.138
2730 0 127.358 14.5259 1850 95.1168 1031.48 423.961
2731 0 130.441 11.1698 1457 98.4695 1031.9 425.398
2732 0 134.973 11.6097 1567 100.932 1031.55 421.193
2733 0 140.689 13.7396 1933 98.6658 1030.67 426.889
2734 0 133.999 13.8658 1858 98.9634 1030.56 418.087
2735 0 127.056 5.85568 744 100.081 1031.09 439.515
2736 1 86.2445 11.0152 950 93.1379 1032.13 441.718
2737 0 90.4066 8.69406 786 94.5534 1030.92 449.972
2738 0 90.6188 15.8907 1440 88.6715 1031.01 446.213
2739 0 92.493 12.7361 1178 92.1341 1029.57 447.521
2740 0 97.6889 15.6313 1527 90.127 1029.36 448.96
2741 0 95.4562 12.7912 1221 95.0442 1028.14 443.317
2742 0 100.418 12.0198 1207 95.6819 1027.22 445.799
2743 0 104.546 14.1373 1478 94.249 1027.95 440.037
2744 0 104.61 10.802 1130 98.5257 1026.18 440.002
2745 0 105.541 10.7731 1137 101.335 1026.28 428.746
2746 0 105.541 10.7731 1137 131.197 1027.28 428.746
2747 0 115.544 11.8136 1365 98.9136 1024.98 429.723
2748 0 119.71 9.9156 1187 100.193 1025.59 432.776
2749 0 121.525 12.2114 1484 99.5411 1023.44 424.078
2750 1 185.748 11.3164 2102 100.65 1025.86 409.076
2751 1 129.595 12.8477 1665 99.009 1026.03 422.166
2752 0 136.669 12.2924 1680 96.5899 1026.15 429.459
2753 0 137.565 13.31 1831 98.3736 1025.76 414.229
2754 1 77.2942 12.239 946 101.762 1027.12 442.68
2755 0 82.2905 13.0027 1070 100.166 1027.58 444.322
2756 0 85.3357 14.3668 1226 98.3556 1027.28 440.112
2757 0 87.2811 11.4343 998 103.103 1028.46 439.738
2758 0 89.2812 11.895 1062 102.693 1028.14 438.637
2759 0 92.4217 17.3552 1604 95.8373 1030.76 435.944
2760 0 94.3289 15.2657 1440 98.7583 1030.25 435.438
2761 0 99.483 16.3143 1623 97.9852 1031.72 433.07
2762 0 99.2345 15.2064 1509 100.328 1031.42 432.75
2763 0 100.218 12.1235 1215 105.171 1030.99 429.588
2764 0 103.212 10.8514 1120 106.545 1032.99 430.123
2765 0 107.266 13.0517 1400 104.071 1033.12 426.971
2766 0 112.202 12.5221 1405 104.722 1034.86 428.974
2767 0 113.315 13.2992 1507 104.708 1033.47 426.157
2768 0 113.315 13.3698 1515 140.535 1033.46 426.22
2769 1 62.0978 10.6606 662 103.489 1036.6 453.992
2770 0 69.1625 11.4657 793 102.213 1035.09 454.869
2771 0 68.1701 13.2169 901 101.23 1034.4 450.811
2772 0 69.1914 11.3887 788 103.269 1034.52 454.693
2773 0 75.1438 13.4675 1012 100.164 1034.87 451.467
2774 0 74.3391 15.1199 1124 99.1966 1035.16 448
2775 0 76.1688 12.4329 947 102.216 1032.03 454.593
2776 0 82.1781 14.1522 1163 99.6285 1031.61 452.978
2777 0 82.3034 13.3044 1095 101.848 1030.74 448.698
2778 0 82.3034 13.2801 1093 131.141 1029.76 448.677
2779 0 86.16 13.0107 1121 102.641 1030.54 452.032
2780 1 156.62 8.60682 1348 108.435 1030.95 433.179
2781 1 99.3962 7.95805 791 108.688 1029.93 451.008
2782 0 99.3607 9.4001 934 108.024 1029.09 446.625
2783 0 97.2525 10.8892 1059 105.683 1029.4 445.353
2784 0 101.199 14.0219 1419 101.56 1028.77 445.281
2785 0 105.331 13.9846 1473 100.2 1028.77 448.545
2786 0 107.38 16.0459 1723 98.7028 1028.53 441.484
2787 0 110.226 10.1519 1119 106.004 1027.57 436.584
2788 0 113.544 11.5198 1308 105.85 1027.5 432.752
2789 1 63.1373 10.5643 667 104.588 1026.01 458.58
2790 0 67.3124 14.1282 951 98.4132 1026.7 456.877
2791 0 70.5118 14.6642 1034 96.8704 1025.51 455.573
2792 0 69.1165 12.4572 861 99.8537 1025.31 453.44
2793 0 69.2046 12.5136 866 99.4527 1024.44 450.808
2794 0 73.1468 10.144 742 102.391 1026.24 444.478
2795 0 76.1906 13.8993 1059 97.6601 1025.18 445.863
2796 0 81.2632 14.3484 1166 96.8302 1024.94 445.528
2797 0 81.2505 16.1845 1315 95.146 1023.98 444.955
2798 0 85.2457 10.5343 898 102.471 1025.03 437.32
2799 0 88.1773 20.6516 1821 90.9314 1025.69 438.893
2800 0 90.2974 14.12 1275 98.338 1025.14 430.053
2801 0 92.4687 11.8851 1099 101.388 1027.04 437.697
2802 0 96.395 15.1668 1462 97.383 1027.1 430.969
2803 0 98.2439 13.8024 1356 99.8142 1028.14 428.262
2804 0 101.119 17.1086 1730 95.9769 1028.62 428.446
2805 0 101.234 11.992 1214 103.289 1030.36 427.985
2806 0 105.169 13.445 1414 101.775 1029.2 422.692
2807 0 110.257 14.9106 1644 100.67 1030.97 423.804
2808 1 59.2821 7.91133 469 107.62 1031.44 444.04
2809 0 62.1442 12.3584 768 101.701 1033.39 450.001
2810 0 68.2656 12.2316 835 100.013 1034.28 448.741
2811 0 66.1741 11.0617 732 99.9112 1033.07 437.663
2812 0 64.1223 10.3708 665 102.353 1031.77 439.728
2813 0 65.1481 7.78226 507 105.477 1032.83 443.227
2814 0 64.0728 13.3754 857 99.0782 1033.42 443.487
2815 0 71.1232 12.401 882 99.5283 1033.73 441.574
2816 0 74.1762 8.56069 635 104.063 1033.41 443.635
2817 0 77.3302 12.5953 974 98.6478 1032.61 446.573
2818 0 78.3921 10.8174 848 100.725 1033.69 444.366
2819 0 76.2696 8.22084 627 104.126 1032.3 443.097
2820 0 75.167 10.8558 816 100.059 1033.32 447.412
2821 0 82.1336 12.8571 1056 100.041 1033.08 441.956
2822 0 93.1844 18.6297 1736 95.3312 1033.65 448.643
2823 0 96.2275 13.2395 1274 101.22 1032.3 446.321
2824 0 99.1235 13.5992 1348 101.277 1031.87 444.695
2825 0 102.555 16.4009 1682 97.4358 1032.71 442.546
2826 0 104.195 11.5648 1205 104.058 1031.13 439.673
2827 0 107.227 12.9631 1390 102.186 1030.35 435.644
2828 0 107.199 12.099 1297 103.18 1029.61 439.013
2829 0 113.368 13.1696 1493 102.512 1027.74 430.259
2830 0 113.368 13.0725 1482 132.818 1025.75 429.89
2831 1 72.2113 6.24556 451 141.417 1023.53 454.643
2832 0 64.1189 7.0962 455 108.123 1028.18 448.2
2833 0 76.5219 7.5926 581 100.945 1030.23 459.929
2834 0 75.1552 13.4788 1013 96.3583 1029.69 447.738
2835 0 76.2246 10.4035 793 99.9256 1029.75 447.393
2836 0 82.2717 15.4853 1274 93.9199 1029.37 446.276
2837 0 85.176 15.8026 1346 93.5788 1028.47 442.652
2838 0 89.2584 16.3122 1456 92.8111 1028.79 441.457
2839 0 89.1867 18.2426 1627 91.4186 1028.93 436.974
2840 0 90.3197 15.3676 1388 95.3746 1030.13 436.387
2841 0 93.2833 19.2317 1794 91.5028 1028.85 431.682
2842 0 93.2833 19.0924 1781 113.522 1026.85 431.596
2843 0 99.2273 13.6656 1356 98.205 1030.9 428.392
2844 0 100.454 14.6534 1472 97.8424 1029.54 421.476
2845 0 107.36 14.6516 1573 97.5614 1030.47 419.558
2846 0 107.36 14.6795 1576 124.743 1031.53 419.464
2847 0 116.66 21.1727 2470 90.3765 1031.54 425.81
2848 0 113.288 14.1497 1603 99.4311 1031.57 416.492
2849 0 111.232 12.8021 1424 100.285 1033.22 410.255
2850 1 68.1014 10.6018 722 98.9169 1033.37 440.193
2851 0 69.4713 12.1057 841 99.3769 1033.25 444.9
2852 0 74.2874 16.1266 1198 92.2963 1032.5 443.578
2853 0 74.2662 10.3546 769 100.259 1033.95 435.312
2854 0 77.1121 16.0935 1241 94.029 1032.93 441.469
2855 0 80.2999 13.8854 1115 97.2619 1034.09 437.619
2856 0 83.3822 17.2459 1438 93.9611 1032.31 438.307
2857 0 87.2684 15.2289 1329 95.5538 1034.27 442.114
2858 0 86.3356 12.1734 1051 100.827 1034.82 436.647
2859 0 90.4054 15.0987 1365 98.6886 1033.97 436.642
2860 0 93.3219 18.313 1709 94.5881 1033.88 442.717
2861 0 96.4228 13.2023 1273 101.191 1034.09 438.175
2862 0 98.3101 11.3518 1116 103.48 1034.27 440.728
2863 0 102.369 16.0401 1642 98.0627 1035.01 439.57
2864 0 105.455 14.9353 1575 101.798 1034.38 430.126
2865 1 60.3226 10.5433 636 106.591 1033.45 456.121
2866 0 62.3379 14.5818 909 102.578 1033.13 455.487
2867 0 66.0947 19.2905 1275 92.3404 1034.7 462.135
2868 0 66.3226 11.3084 750 103.085 1035.01 458.213
2869 0 67.1491 12.2563 823 102.931 1033.83 454.289
2870 0 69.2747 12.27 850 103.429 1033.9 456.512
2871 0 71.1489 18.6229 1325 95.8219 1031.25 456.497
2872 0 73.1957 11.9406 874 104.818 1031.87 449.772
2873 0 78.2946 18.8391 1475 95.8359 1030.91 449.57
2874 0 82.1002 15.0791 1238 100.04 1032.08 450.804
2875 0 82.4594 13.2065 1089 103.075 1031.16 447.173
2876 0 85.1938 14.4377 1230 102.298 1031.09 444.015
2877 0 89.7153 12.8295 1151 103.942 1029.48 442.953
2878 0 89.7153 12.9521 1162 133.15 1028.5 442.863
2879 0 97.3294 14.5794 1419 102.216 1029.43 438.101
2880 0 98.1547 17.7577 1743 99.0034 1030.05 432.777
2881 0 99.3077 15.5577 1545 102.508 1028.44 434.276
2882 0 104.564 13.6663 1429 105.141 1029.18 429.018
2883 0 106.512 11.2757 1201 108.221 1027.31 429.104
2884 0 108.391 8.87528 962 111.57 1029.32 428.371
2885 1 63.3099 12.6204 799 103.053 1030.02 449.22
2886 0 65.3209 11.8645 775 103.658 1030.3 447.532
2887 0 67.4219 15.5439 1048 97.459 1030.04 449.226
2888 0 68.2072 13.8842 947 102.086 1031.37 445.705
2889 0 71.4164 13.7223 980 104.692 1031.49 440.855
2890 0 72.6604 13.8315 1005 104.558 1031.27 444.279
2891 0 72.4975 9.6831 702 110.803 1032.52 442.187
2892 0 76.6252 12.92 990 105.371 1032.89 442.784
2893 0 82.898 16.1644 1340 100.896 1033.32 440.99
2894 0 81.896 11.5757 948 108.407 1032.74 439.649
2895 0 86.7157 14.9108 1293 103.994 1033.11 435.857
2896 0 88.8939 13.9717 1242 104.771 1034.36 434.156
2897 0 90.5167 15.8424 1434 100.586 1033.53 428.72
2898 0 93.7268 14.0942 1321 103.25 1035.02 426.986
2899 0 95.7401 12.7011 1216 105.778 1034.74 424.098
2900 0 98.9821 12.8205 1269 106.377 1035.28 426.913
2901 0 100.866 15.6048 1574 103.045 1036.24 430.882
2902 0 103.489 14.2913 1479 104.759 1035.23 434.696
2903 0 105.602 12.424 1312 107.963 1036.2 430.426
2904 0 107.643 12.6808 1365 108.473 1035.31 433.174
2905 0 113.609 14.9724 1701 105.747 1034.1 432.54
2906 0 114.676 13.8651 1590 108.063 1035.58 425.968
2907 0 119.614 14.6136 1748 106.921 1034.82 430.205
2908 0 123.65 13.2147 1634 109.498 1034.43 421.293
2909 1 75.5221 12.4997 944 103.019 1035.06 455.962
2910 0 78.3183 11.7469 920 102.884 1033.54 455.842
2911 0 79.337 13.1086 1040 102.062 1033.5 450.266
2912 0 84.3664 13.1687 1111 101.51 1032.93 450.588
2913 0 83.1993 13.0891 1089 102.913 1031.57 449.05
2914 0 83.3293 10.1405 845 107.757 1030.73 444.425
2915 0 90.161 10.7807 972 107.254 1030.68 441.328
2916 0 91.2657 13.2799 1212 105.121 1030.11 441.139
2917 0 91.2657 13.1375 1199 124.618 1030.12 440.949
2918 0 95.409 14.1391 1349 105.375 1028.81 437.714
2919 0 100.246 15.2725 1531 103.486 1028.92 435.738
2920 0 102.827 13.09 1346 105.334 1028.64 438.585
2921 0 109.632 13.6457 1496 104.807 1028.97 435.678
2922 0 108.248 14.4852 1568 104.233 1028.63 434.834
2923 0 111.271 14.7748 1644 105.296 1029.05 432.147
2924 0 120.323 8.16967 983 111.537 1028.89 433.39
2925 0 120.198 12.6624 1522 109.089 1027.83 419.68
2926 0 127.23 12.7329 1620 106.595 1029.12 426.439
2927 0 130.28 15.7891 2057 104.055 1028.56 420.051
2928 0 134.35 13.8296 1858 106.922 1029.86 415.048
2929 1 76.2114 12.4522 949 100.898 1029.41 446.026
2930 0 76.2114 12.4128 946 117.844 1028.42 446.084
2931 0 84.1385 14.3811 1210 99.776 1030.24 440.207
2932 0 83.1603 12.7224 1058 109.057 1031.26 438.187
2933 0 88.3092 15.491 1368 102.507 1030.95 440.968
2934 0 87.3722 12.5097 1093 111.579 1031.77 434.136
2935 0 90.327 13.8386 1250 110.908 1032.16 429.749
2936 0 93.3669 12.1563 1135 113.235 1031.17 431.671
2937 0 98.255 16.9559 1666 103.013 1033.42 433.798
2938 0 99.306 14.1381 1404 107.801 1032.1 428.642
2939 0 100.387 11.0573 1110 109.002 1033.8 429.972
2940 0 107.22 13.4396 1441 105.248 1034.91 431.713
2941 0 108.583 12.7368 1383 107.094 1035.68 425.166
2942 0 110.394 17.0752 1885 102.397 1036.64 423.447
2943 0 114.196 13.7834 1574 108.211 1036.14 429.677
2944 0 115.245 12.8422 1480 111.171 1035.72 425.997
2945 0 120.28 14.0339 1688 109.681 1036.34 423.789
2946 0 123.201 13.7011 1688 110.31 1036.02 422.232
2947 0 128.395 14.4165 1851 108.964 1036.02 427.702
2948 0 127.56 11.4769 1464 115.437 1035.6 418.275
2949 0 133.58 12.5393 1675 114.682 1035 411.771
2950 0 137.465 12.4759 1715 113.729 1035.36 419.678
2951 0 144.557 16.1598 2336 108.503 1035.41 414.372
2952 0 147.551 15.2219 2246 110.041 1034.69 415.909
2953 0 152.577 17.0603 2603 106.692 1034.36 419.964
2954 0 159.427 14.7968 2359 111.183 1034.66 411.586
2955 0 161.443 12.7599 2060 115.247 1033.31 408.544
2956 0 168.455 14.9239 2514 111.451 1034.6 408.44
2957 0 172.331 18.5399 3195 105.465 1033.49 413.792
2958 0 177.637 14.4733 2571 112.255 1033.8 406.331
2959 0 183.494 16.6164 3049 109.474 1031.7 403.273
2960 0 186.535 13.0002 2425 116.417 1031.84 393.575
2961 0 194.404 14.5933 2837 113.48 1031.4 394.183
2962 0 200.641 17.6534 3542 107.161 1030.99 403.945
2963 0 205.372 15.4987 3183 113.084 1029.86 387.993
2964 0 209.584 13.2357 2774 117.453 1030.15 379.348
2965 0 216.414 15.0914 3266 113.99 1028.79 384.816
2966 0 222.69 15.9235 3546 113.389 1028.14 378.116
2967 0 226.346 13.285 3007 119.364 1028.75 363.783
2968 1 55.3235 8.38703 464 111.373 1026.52 456.972
2969 0 59.6564 13.3934 799 103.429 1027.48 453.18
2970 0 58.5301 13.1044 767 106.45 1027.73 451.188
2971 0 59.5264 13.1538 783 107.732 1030.72 450.621
2972 0 64.2328 11.7385 754 109.155 1030.38 452.089
2973 0 64.1653 14.6029 937 105.099 1029.66 452.528
2974 0 66.2863 11.3749 754 110.202 1030.32 449.001
2975 0 67.2162 14.7881 994 104.216 1030.69 450.615
2976 0 70.3845 15.9126 1120 102.965 1032.79 444.626
2977 0 70.1478 11.5328 809 108.493 1032.82 445.011
2978 0 72.0984 12.8019 923 106.515 1033.02 442.59
2979 0 76.1597 14.1938 1081 105.166 1032.66 444.878
2980 0 77.2498 13.5016 1043 106.412 1033.67 440.392
2981 0 80.2284 14.7828 1186 104.61 1034.02 442.636
2982 0 82.7938 11.5226 954 109.352 1034.37 437.177
2983 0 82.2055 13.7704 1132 107.115 1035.73 437.614
2984 0 85.3571 13.2034 1127 107.699 1035.71 438.906
2985 0 89.2554 16.5592 1478 99.774 1036.39 446.386
2986 0 90.4725 17.1765 1554 100.927 1035.94 440.146
2987 0 108.547 17.2551 1873 95.5846 1036.32 421.176
2988 0 102.247 17.047 1743 99.2995 1036.49 435.17
2989 0 103.407 22.5807 2335 94.2244 1036.17 427.629
2990 0 103.271 14.9122 1540 104.694 1036.07 439.91
2991 0 102.2 13.5322 1383 105.261 1036.86 437.983
2992 0 102.18 10.3053 1053 109.655 1035.15 439.685
2993 0 98.2624 11.3675 1117 110.4 1035.5 434.026
2994 0 97.2381 12.1249 1179 110.865 1034.71 431.603
2995 0 103.204 9.7477 1006 110.572 1034.55 440.343
2996 1 178.107 13.1045 2334 99.3646 1034.48 415.34
2997 0 180.763 13.9022 2513 97.4174 1033.2 414.154
2998 0 183.206 21.7624 3987 87.4199 1031.52 398.559
2999 0 181.19 15.8894 2879 93.7114 1031.38 380.975
3000 0 179.439 6.48689 1164 114.748 1031.93 403.292
3001 0 180.715 8.71536 1575 109.975 1031.39 415.813
3002 0 179.342 11.0794 1987 109.74 1030.7 410.042
3003 1 88.1678 12.3288 1087 100.221 1030.49 445.212
3004 0 88.1678 12.567 1108 117.457 1030.5 445.259
3005 0 88.3076 20.2248 1786 94.1282 1029.36 444.472
3006 0 88.3935 22.6374 2001 92.2699 1028.73 436.913
3007 0 85.276 8.30246 708 112.833 1026.61 436.34
3008 0 93.2856 13.1639 1228 106.038 1027.61 437.87
3009 0 94.348 11.6908 1103 109.046 1026.99 436.207
3010 0 95.4697 7.41596 708 117.496 1028.62 425.001
3011 0 100.199 12.4952 1252 108.57 1026.84 435.713
3012 0 100.373 12.1646 1221 109.991 1027.51 435.143
3013 0 109.267 16.9768 1855 102.884 1027.48 427.932
3014 0 109.267 16.7938 1835 125.257 1027.49 428.013
3015 0 113.415 13.9575 1583 108.686 1027.97 429.749
3016 0 116.173 15.012 1744 107.734 1028.95 423.995
3017 0 115.353 12.8735 1485 111.061 1028.04 419.37
3018 0 119.228 13.7217 1636 111.68 1028.19 423.593
3019 0 125.149 14.6465 1833 110.033 1027.33 416.074
3020 0 128.295 15.5969 2001 109.702 1029.8 422.075
3021 0 132.46 12.6454 1675 113.603 1030.64 414.254
3022 1 81.4041 13.3654 1088 106.008 1031.01 445.595
3023 0 81.2671 13.954 1134 106.547 1031.79 440.004
3024 0 83.3242 13.0214 1085 108.123 1032.63 439.153
3025 0 82.1856 11.5714 951 110.064 1032.59 439.714
3026 0 86.1415 11.6436 1003 108.996 1033.23 435.377
3027 0 93.2655 13.81 1288 105.096 1032.79 438.496
3028 0 92.1369 9.96343 918 111.041 1033.45 439.924
3029 0 96.3638 14.082 1357 106.129 1031.91 437.612
3030 0 96.1444 11.8884 1143 109.206 1033.3 436.22
3031 0 102.201 10.176 1040 111.608 1032.71 432.908
3032 0 105.3 14.3399 1510 105.66 1034.16 435.279
3033 0 106.2 9.60452 1020 112.46 1033.69 429.409
3034 0 109.286 14.4483 1579 105.858 1033.61 427.697
3035 0 116.301 17.2398 2005 101.873 1033.44 429.202
3036 0 115.144 11.8721 1367 108.868 1032.83 425.004
3037 0 114.335 10.1631 1162 110.722 1033.3 425.299
3038 1 129.248 13.6095 1759 105.458 1032.69 419.765
3039 1 70.1192 7.4302 521 112.061 1032.42 446.854
3040 0 75.1992 9.85383 741 108.521 1031.97 445.066
3041 0 82.1211 11.6657 958 105.484 1030.72 453.9
3042 0 81.1954 15.6536 1271 101.208 1030.85 450.243
3043 0 78.1196 12.212 954 107.136 1029.17 453.498
3044 0 87.3594 13.3128 1163 104.127 1029.04 455.542
3045 0 89.2998 15.4872 1383 100.709 1026.89 451.014
3046 0 89.152 11.3402 1011 107.299 1027.4 443.308
3047 0 85.1952 12.7942 1090 106.158 1027.02 445.324
3048 0 91.1229 10.8645 990 108.448 1026.01 436.32
3049 0 98.1775 12.1515 1193 105.109 1027.04 437.68
3050 0 94.2174 11.4735 1081 106.046 1026.56 440.228
3051 0 98.3223 13.7609 1353 104.101 1025.95 429.497
3052 1 10.0076 7.89401 79 85.8354 1026.14 480.772
3053 0 9.00166 6.33217 57 89.2982 1027.39 477.368
3054 0 13.0495 4.67452 61 97.2131 1024.74 479.164
3055 0 13.0033 2.1533 28 96.5714 1025.46 482
3056 0 16.0195 8.86418 142 92.5845 1026.77 476.796
3057 0 18.0633 7.47374 135 92.7926 1025.49 477.015
3058 0 10 1 10 98.5 1025.9 475.4
3059 0 10.0118 5.79318 58 89.5862 1027.21 473.414
3060 0 11.0043 7.08812 78 88.9103 1027.92 472.846
3061 1 84.3267 16.7325 1411 95.5967 1027.96 445.04
3062 0 82.1226 10.0703 827 104.513 1029.18 438.368
3063 0 89.115 15.7437 1403 96.814 1031.25 443.145
3064 0 92.2888 15.5165 1432 96.8813 1031.03 438.832
3065 0 91.2258 14.0092 1278 100.019 1031.09 438.306
3066 0 100.477 17.8748 1796 93.9237 1032.55 440.666
3067 0 97.1905 10.7109 1041 104.115 1032.53 436.037
3068 0 100.279 7.5689 759 107.233 1033.27 439.689
3069 0 105.18 13.9475 1467 100.183 1033.45 432.401
3070 0 107.293 12.7128 1364 102.864 1032.85 432.195
3071 0 110.495 11.5481 1276 104.38 1033.44 430.817
3072 0 115.289 13.5919 1567 102.586 1033.12 425.882
3073 0 117.501 15.353 1804 99.98 1034.49 425.813
3074 0 121.392 13.7159 1665 101.861 1035.05 430.265
3075 0 124.356 12.424 1545 104.659 1035.43 427.331
3076 0 130.364 20.1435 2626 95.6489 1034.52 427.382
3077 0 130.424 17.6501 2302 99.9726 1033.94 422.216
3078 0 131.384 15.4661 2032 102.719 1034.07 421.117
3079 0 138.464 14.4225 1997 104.268 1033.36 420.913
3080 0 144.449 19.6125 2833 97.7861 1033.58 426.562
3081 0 142.646 11.9948 1711 108.21 1033.03 421.584
3082 0 151.354 14.0003 2119 106.175 1033.14 417.61
3083 0 158.465 14.1672 2245 103.294 1031.64 429.943
3084 0 161.569 14.9286 2412 106.057 1030.96 415.799
3085 0 165.459 17.6661 2923 101.292 1030.13 423.964
3086 0 166.407 11.3096 1882 111.765 1031.48 407.593
3087 0 174.374 16.998 2964 104.861 1029.41 402.184
3088 0 183.764 14.4806 2661 107.758 1028.95 408.821
3089 0 189.003 14.6136 2762 107.249 1028.83 408.139
3090 0 193.858 16.6823 3234 106.874 1029.54 401.407
3091 0 197.583 15.2594 3015 109.888 1028.88 395.145
3092 0 202.74 15.4582 3134 110.309 1026.72 393.725
3093 0 209.739 13.822 2899 113.433 1026.61 386.54
3094 0 211.523 13.1664 2785 115.564 1025.44 375.916
3095 0 222.727 16.3653 3645 111.363 1025.77 372.707
3096 0 231.9 16.6365 3858 109.924 1026.01 376.773
3097 0 235.837 15.5574 3669 112.852 1024.79 362.983
3098 1 292.008 11.7257 3424 115.905 1026.49 357.136
3099 1 54.2215 7.28493 395 102.861 1026.67 459.043
3100 0 57.2386 12.1946 698 97.1146 1025.63 458.868
3101 0 59.2052 7.95538 471 102.834 1026.25 458.382
3102 0 59.1261 15.4754 915 94.3967 1027.38 455.58
3103 0 63.2725 12.3276 780 97.1615 1027.27 455.609
3104 0 64.2141 13.4394 863 96.9467 1027.15 454.618
3105 0 69.0806 19.3108 1334 90.6702 1028.54 451.754
3106 0 65.1278 15.3851 1002 95.0878 1027.88 450.125
3107 0 69.2285 10.227 708 100.849 1028.73 449.306
3108 0 73.1796 9.1009 666 100.94 1028.49 450.417
3109 0 74.2389 9.95435 739 100.173 1030.13 444.333
3110 0 77.1988 11.5028 888 98.4336 1030.72 447.123
3111 0 77.1988 11.4898 887 114.458 1030.75 447.172
3112 0 77.2074 9.09239 702 96.5313 1030.4 459.832
3113 0 87.3152 12.0941 1056 98.2074 1031.87 443.742
3114 0 89.2932 9.37362 837 100.619 1031.53 446.775
3115 0 94.4077 8.64336 816 101.431 1033.4 443.551
3116 0 95.3721 7.61229 726 103.267 1030.51 429.988
3117 0 103.317 15.312 1582 95.0512 1033.49 438.418
3118 1 56.237 9.51331 535 100.093 1031.48 462.077
3119 0 60.3834 12.9671 783 95.7982 1031.74 461.436
3120 0 63.3927 10.3955 659 98.2337 1030.75 458.291
3121 0 61.3251 12.4256 762 101.554 1029.76 459.596
3122 0 62.1997 12.9743 807 97.7695 1030.48 465.924
3123 0 67.0611 10.9602 735 99.9129 1029.9 467.124
3124 0 63.112 12.0104 758 101.306 1029.41 460.748
3125 0 72.1834 13.5073 975 98.4708 1027.23 457.264
3126 0 74.2848 14.6194 1086 96.7026 1029.4 462.825
3127 0 77.2283 15.6031 1205 95.0896 1029.47 456.402
3128 0 78.4116 14.7555 1157 97.6059 1027.96 463.378
3129 1 91.8742 14.4763 1330 96.8023 1027.83 454.823
3130 0 91.8742 14.3239 1316 120.062 1027.82 454.992
3131 0 91.7166 20.0509 1839 92.8912 1026.58 448.27
3132 0 95.6778 21.6978 2076 91.4923 1026.02 448.619
3133 0 92.3627 17.702 1635 97.8281 1026.04 455.459
3134 0 91.3733 16.1645 1477 102.257 1025.51 449.297
3135 0 93.3449 13.8197 1290 105.246 1023.72 450.944
3136 0 101.296 18.7667 1901 96.7028 1025.37 453.476
3137 0 98.4861 11.7682 1159 109.496 1024.85 446.459
3138 0 104.292 13.606 1419 107.436 1025.39 441.915
3139 0 113.369 12.0315 1364 109.204 1024.85 443.224
3140 1 60.1158 12.8585 773 107.772 1024.73 461.564
3141 0 58.2389 8.65401 504 115.994 1024.7 462.3
3142 0 60.3984 11.9871 724 112.086 1024.27 455.698
3143 0 63.3632 16.3818 1038 101.308 1026.68 460.739
3144 0 63.0702 15.998 1009 102.193 1026.13 460.858
3145 0 65.1025 12.6723 825 107.589 1027.22 457.758
3146 0 68.1801 15.3271 1045 101.597 1026.04 461.156
3147 0 69.2114 13.2059 914 106.649 1026.44 455.151
3148 0 71.2886 14.5465 1037 105.185 1027.34 452.844
3149 0 77.1908 14.7297 1137 103.506 1027.46 455.713
3150 0 79.331 14.3828 1141 103.245 1028.14 450.895
3151 0 81.3144 14.8559 1208 105.514 1028.57 436.553
3152 0 83.5102 14.3695 1200 106.894 1028.18 438.145
3153 0 85.1966 14.1438 1205 108.105 1029.28 438.237
3154 0 85.1966 14.2142 1211 147.129 1031.28 438.221
3155 0 89.2295 16.3063 1455 105.677 1029.09 442.985
3156 0 90.5269 13.1674 1192 109.882 1030 442.095
3157 0 93.4943 14.1078 1319 108.979 1030.65 440.75
3158 0 98.3356 15.4674 1521 105.771 1029.95 446.562
3159 0 99.7144 15.5945 1555 106.574 1029.52 445.459
3160 0 100.654 12.7864 1287 111.023 1030.3 442.738
3161 0 108.59 27.0836 2941 93.7334 1029.06 440.818
3162 0 106.51 15.2286 1622 108.75 1030.55 437.438
3163 0 112.784 14.6297 1650 109.095 1031.49 442.081
3164 1 60.1487 11.5547 695 110.019 1031.03 466.626
3165 0 65.2063 12.8515 838 108.443 1030.71 465.414
3166 0 67.1123 14.9749 1005 104.625 1031.01 464.149
3167 0 66.24 14.1304 936 109.186 1030.77 454.688
3168 0 71.09 17.3723 1235 104.413 1031.32 453.27
3169 0 69.3061 11.4131 791 112.582 1030.58 465.287
3170 0 70.1114 12.3946 869 110.443 1030.68 468.972
3171 0 76.3069 12.9215 986 110.753 1029.03 457.788
3172 0 81.3164 14.7203 1197 106.781 1028.79 458.575
3173 0 83.3224 14.7499 1229 107.96 1027.9 457.858
3174 0 83.3224 14.6059 1217 138.191 1026.9 457.748
3175 0 86.3201 16.8674 1456 105.841 1026.11 455.277
3176 0 88.0955 17.4243 1535 105.775 1027.33 455.616
3177 0 91.0808 16.8312 1533 106.583 1025.28 453.061
3178 0 94.3493 13.5772 1281 111.45 1025.94 448.38
3179 0 101.319 15.6536 1586 107.005 1024.72 450.901
3180 0 101.223 19.63 1987 103.021 1025.36 447.773
3181 0 104.282 14.921 1556 109.366 1025.05 446.361
3182 0 105.204 11.9102 1253 114.804 1024.72 440.115
3183 0 113.195 18.1634 2056 106.081 1025.94 429.611
3184 0 114.244 15.2043 1737 110.005 1025.87 433.781
3185 0 120.431 14.3734 1731 111.318 1025.36 430.381
3186 0 125.282 14.8705 1863 109.133 1025.3 425.435
3187 1 67.2298 14.3389 964 104.685 1025.96 444.674
3188 0 72.1544 16.0905 1161 106.456 1026.43 443.483
3189 0 72.1139 11.6621 841 111.101 1026.66 453.765
3190 0 76.1124 12.2582 933 109.921 1027.67 453.576
3191 0 81.1863 11.7631 955 109.087 1028.28 453.97
3192 0 82.0703 13.9027 1141 108.051 1026.98 448.589
3193 0 84.341 16.5637 1397 103.225 1028.78 453.251
3194 0 84.341 16.5637 1397 131.819 1029.76 453.327
3195 0 88.05 14.5258 1279 108.802 1029.84 445.507
3196 0 92.1483 15.844 1460 107.325 1029.07 443.099
3197 0 98.3372 17.7756 1748 104.116 1030.79 440.288
3198 0 99.2653 16.2897 1617 107.293 1030.73 438.06
3199 0 101.232 15.5879 1578 107.921 1031.71 437.316
3200 0 102.234 14.8777 1521 108.848 1030.54 439.641
3201 0 107.287 13.7202 1472 110.242 1029.75 435.97
3202 0 109.318 14.252 1558 110.278 1031.75 433.67
3203 0 116.471 14.4843 1687 108.818 1031.35 432.552
3204 1 70.2314 11.7896 828 109.291 1029.78 458.279
3205 0 73.1692 14.323 1048 107.886 1033.27 453.357
3206 0 73.1692 14.2 1039 138.139 1035.24 453.331
3207 0 76.1054 12.8506 978 108.73 1032.63 451.601
3208 0 75.1376 10.9 819 111.799 1030.42 448.578
3209 0 80.1984 11.3219 908 111.085 1030.74 451.138
3210 0 83.2363 13.0352 1085 109.583 1029.84 451.583
3211 0 89.1769 12.0883 1078 109.547 1030.27 455.164
3212 0 92.3656 15.0056 1386 106.372 1030.19 455.558
3213 0 93.2018 14.8817 1387 107.43 1029.55 452.213
3214 0 97.2821 12.1091 1178 112.396 1028.93 441.188
3215 0 101.343 13.8441 1403 109.097 1028.25 449.402
3216 0 100.166 12.7089 1273 111.105 1027.32 443.933
3217 0 105.247 12.1809 1282 112.006 1028.38 442.522
3218 0 108.369 15.1612 1643 108.073 1026.77 441.379
3219 0 108.369 15.2166 1649 125.948 1024.78 441.439
3220 0 115.371 12.2821 1417 112.559 1026.78 437.748
3221 0 118.427 11.8639 1405 114.865 1024.38 434.226
3222 0 121.697 13.3693 1627 113.25 1024.88 429.567
3223 0 127.401 12.6687 1614 113.762 1025.87 430.084
3224 1 74.3804 11.1051 826 109.368 1026.99 456.107
3225 0 75.3554 8.10825 611 114.565 1025.93 451.691
3226 0 77.3527 10.6008 820 111.567 1027.22 447.398
3227 0 83.5145 13.1594 1099 108.025 1024.46 450.705
3228 0 84.7617 14.2989 1212 105.601 1025.83 441.054
3229 0 87.6685 14.8514 1302 104.874 1026 440.096
3230 0 90.6727 13.852 1256 105.702 1027.46 441.621
3231 0 91.4543 12.5637 1149 109.034 1025.66 437.536
3232 0 99.6166 16.3427 1628 102.832 1027.21 438.642
3233 0 100.939 16.5546 1671 104.583 1027.62 431.221
3234 0 103.909 12.8189 1332 112.703 1026.91 428.686
3235 0 107.716 14.9559 1611 109.523 1028.21 428.087
3236 0 110.282 14.9888 1653 105.862 1028.32 423.302
3237 0 110.547 12.9628 1433 109.115 1030.04 420.841
3238 0 113.616 11.3804 1293 111.653 1030.51 424.121
3239 0 118.585 16.056 1904 104.58 1030.05 427.841
3240 0 122.649 13.3715 1640 109.411 1030.92 422.074
3241 0 125.585 12.8439 1613 109.978 1029.71 422.105
3242 0 129.525 13.6962 1774 108.33 1031.57 421.477
3243 0 135.478 11.5296 1562 112.435 1032.11 413.21
3244 0 138.726 18.0068 2498 103.799 1032.5 412.53
3245 0 143.41 11.7495 1685 112.603 1032.53 403.841
3246 0 148.533 12.2666 1822 111.981 1031.29 408.042
3247 1 93.2784 14.9981 1399 100.072 1031.81 443.142
3248 0 93.2784 14.9552 1395 118.833 1031.81 443.275
3249 0 97.4483 14.7258 1435 101.768 1031.4 441.846
3250 0 101.348 20.8489 2113 94.284 1031.59 445.404
3251 0 102.318 12.7055 1300 105.048 1030.98 431.49
3252 0 106.441 12.9461 1378 102.726 1032.29 443.795
3253 0 107.364 9.82634 1055 108.553 1031.69 436.759
3254 0 112.432 10.0327 1128 108.176 1032.13 429.549
3255 0 116.666 9.01718 1052 107.44 1031.95 440.414
3256 0 118.418 9.99003 1183 108.199 1031.39 428.588
3257 0 126.358 13.256 1675 103.913 1031.94 431.527
3258 0 128.461 13.2414 1701 103.998 1030.91 427.924
3259 0 135.496 12.3694 1676 103.824 1029.78 424.447
3260 0 142.449 11.6954 1666 104.708 1029.71 423.621
3261 0 142.302 14.1108 2008 103.962 1027.58 414.076
3262 0 152.329 18.5454 2825 96.8421 1029.44 423.898
3263 1 83.0789 17.2487 1433 93.6518 1029.01 452.268
3264 0 86.2767 12.5642 1084 99.8266 1028.25 447.271
3265 0 88.1872 12.4395 1097 98.35 1027.32 450.7
3266 0 91.2347 12.7254 1161 99.0973 1028.12 440.645
3267 0 93.139 11.9499 1113 101.026 1026.46 436.358
3268 0 91.1349 12.9259 1178 124.162 1024.37 437.348
3269 0 101.428 11.4169 1158 100.408 1027.64 441.952
3270 0 101.839 17.0367 1735 95.3009 1027.1 435.514
3271 0 106.717 12.8939 1376 99.7224 1026.73 431.807
3272 0 106.358 10.7843 1147 103.344 1026.04 427.527
3273 0 108.472 9.72604 1055 104.985 1027.96 418.806
3274 0 116.59 17.8575 2082 94.6599 1028.67 425.748
3275 0 109.548 12.8162 1404 101.92 1028.55 421.614
3276 0 118.67 11.6457 1382 103.219 1028.16 417.365
3277 0 123.457 9.66328 1193 105.787 1029.58 412.12
3278 0 131.713 18.1835 2395 95.5382 1029.4 411.305
3279 0 136.604 13.0743 1786 101.633 1030.63 411.433
3280 0 138.666 10.2548 1422 105.144 1030.06 409.182
3281 1 77.1962 10.972 847 100.499 1031.1 439.257
3282 0 77.1626 15.0202 1159 95.8378 1033.15 442.12
3283 0 80.2729 12.1959 979 99.5322 1033.15 436.698
3284 0 85.2504 11.3196 965 100.064 1033.51 441.436
3285 0 88.2353 15.232 1344 95.535 1034 439.713
3286 0 89.1326 12.0383 1073 103.894 1033.13 433.958
3287 0 91.1096 13.6539 1244 103.735 1034.03 435.018
3288 0 95.204 15.7556 1500 100.558 1034.05 437.196
3289 0 98.4012 12.947 1274 104.341 1034.43 435.41
3290 0 102.341 14.911 1526 101.917 1034.83 436.024
3291 0 107.458 13.2238 1421 103.083 1035.12 439.482
3292 0 104.223 12.195 1271 104.893 1034.81 434.659
3293 0 111.409 15.4116 1717 102.296 1034.47 433.792
3294 0 115.456 14.6809 1695 102.249 1034.73 436.857
3295 0 118.291 14.3121 1693 103.839 1034.27 434.314
3296 0 121.216 15.7488 1909 102.568 1032.94 432.133
3297 0 125.197 15.232 1907 103.181 1033.63 428.032
3298 0 126.369 14.9483 1889 103.915 1034.04 424.809
3299 0 137.433 17.3975 2391 98.4563 1033.55 424.524
3300 0 143.466 22.737 3262 92.1689 1033.29 419.31
3301 0 141.314 14.4218 2038 101 1032.02 427.784
3302 0 145.286 16.8082 2442 99.2224 1031.12 424.123
3303 0 149.474 14.3436 2144 103.737 1031.36 412.827
3304 0 157.455 14.5312 2288 103.177 1030.78 412.885
3305 1 93.23 11.6486 1086 103.017 1030.68 445.321
3306 0 97.317 15.0744 1467 99.1234 1029.6 441.119
3307 0 99.3313 16.6916 1658 98.6725 1030.83 425.782
3308 0 101.23 15.3216 1551 99.4823 1030.96 427.53
3309 0 107.344 13.1726 1414 102.617 1030.92 424.453
3310 0 109.178 15.9007 1736 100.211 1030.67 415.768
3311 0 111.273 15.035 1673 101.73 1030.07 425.559
3312 0 117.346 19.0632 2237 96.3992 1029.55 426.059
3313 0 122.285 16.2244 1984 99.7802 1029.17 423.196
3314 0 128.259 20.5366 2634 95.2016 1029.84 410.986
3315 0 128.38 14.2078 1824 103.498 1029.48 412.891
3316 0 132.222 19.4143 2567 97.4647 1030.37 414.8
3317 0 134.486 18.9165 2544 96.577 1030.55 421.853
3318 0 140.419 21.7919 3060 94.6703 1030.02 413.549
3319 0 148.592 16.2323 2412 102.445 1032.11 412.4
3320 1 76.4457 10.9751 839 103.688 1031.38 437.85
3321 0 78.2946 10.9969 861 103.446 1031.04 436.748
3322 0 84.5468 10.3138 872 104.804 1032.19 435.797
3323 0 88.5208 13.4997 1195 100.808 1032.87 434.782
3324 0 92.2315 17.2067 1587 96.0769 1033.03 434.291
3325 0 94.1935 12.7822 1204 102.303 1033.59 432.004
3326 0 93.3485 13.8835 1296 102.525 1035.68 425.978
3327 0 102.654 20.3791 2092 93.098 1033.83 433.324
3328 0 99.286 11.0086 1093 107.499 1033.98 425.6
3329 0 105.353 17.3227 1825 97.9474 1034.55 427.464
3330 1 117.367 17.7562 2084 96.0643 1034.93 421.536
3331 0 119.445 20.7544 2479 92.7894 1035.34 416.98
3332 0 114.341 22.7477 2601 93.6063 1034.04 420.226
3333 0 114.341 22.7477 2601 114.933 1032.04 420.226
3334 0 124.43 13.8874 1728 101.958 1036.07 430.741
3335 0 122.361 13.8197 1691 103.888 1036.94 419.556
3336 0 129.744 18.2128 2363 97.5167 1035.05 424.284
3337 0 131.539 13.6461 1795 103.887 1035.2 415.649
3338 0 136.299 14.6002 1990 102.749 1035.45 412.617
3339 0 138.61 12.2141 1693 106.288 1035.33 410.396
3340 1 80.206 13.4653 1080 102.475 1032.9 443.472
3341 0 81.144 10.4875 851 106.649 1034.29 446.662
3342 0 83.3746 10.8906 908 107.055 1033.2 441.78
3343 0 89.4268 11.7974 1055 105.152 1032.96 438.885
3344 0 90.5117 11.888 1076 105.109 1032.39 437.669
3345 0 95.4409 14.0925 1345 101.619 1031.61 440.78
3346 0 96.351 12.278 1183 105.559 1031.42 436.09
3347 0 99.2737 12.6821 1259 104.346 1030.98 435.168
3348 0 104.172 14.4665 1507 101.742 1030.31 437.555
3349 0 106.377 14.7024 1564 102.263 1029.95 430.5
3350 0 107.327 12.7368 1367 106.122 1031.08 423.685
3351 0 114.312 14.2067 1624 103.869 1030.41 426.741
3352 0 115.401 11.0398 1274 109.228 1029.59 421.358
3353 0 121.329 13.4593 1633 105.849 1031.03 416.955
3354 0 125.463 14.5701 1828 104.279 1029.89 419.396
3355 0 128.294 11.5048 1476 108.029 1030.37 413.1
3356 0 135.392 16.6258 2251 101.062 1030.13 414.507
3357 1 73.266 12.011 880 99.6977 1029.07 449.217
3358 0 78.299 10.5238 824 103.329 1030.62 441.583
3359 0 79.2198 12.9387 1025 100.353 1030.52 443.876
3360 0 81.3236 13.1204 1067 100.186 1032.19 431.481
3361 0 86.3682 14.4035 1244 98.701 1031.67 431.596
3362 0 90.7098 13.2511 1202 99.1206 1032.76 435.3
3363 0 95.6604 16.7154 1599 95.8261 1032.22 433.615
3364 0 98.6176 17.938 1769 93.2742 1032.89 434.902
3365 0 98.5447 14.8461 1463 98.7539 1033.21 429.939
3366 0 105.8 18.1663 1922 94.0947 1033.3 428.675
3367 0 107.67 14.3679 1547 100.456 1034.62 420.687
3368 0 109.586 16.4529 1803 97.3616 1034.99 425.979
3369 0 111.464 12.9099 1439 103.534 1034.98 416.582
3370 0 112.799 10.5586 1191 106.112 1035.25 418.825
3371 0 121.69 16.6406 2025 97.7748 1036.01 423.665
3372 0 124.639 16.2229 2022 98.6988 1035.77 422.056
3373 0 129.293 20.6585 2671 93.1801 1035.9 425.907
3374 0 133.527 13.3007 1776 103.249 1036.5 413.658
3375 1 77.4424 10.6531 825 97.743 1036.15 448.646
3376 0 82.8236 14.5007 1201 95.6986 1036.47 444.555
3377 0 82.3442 13.1278 1081 99.1924 1036 443.008
3378 0 89.6833 13.4139 1203 98.4115 1036.45 447.074
3379 0 86.5196 13.0375 1128 100.123 1035.89 444.43
3380 0 91.35 10.9031 996 102.604 1036.76 442.208
3381 0 93.3796 10.2913 961 104.512 1034.55 439.997
3382 0 96.3057 13.0418 1256 101.6 1034.45 437.556
3383 0 102.379 14.4366 1478 98.1468 1034.63 444.39
3384 0 99.3972 8.96404 891 106.881 1035.2 438.383
3385 0 104.299 15.8007 1648 99.2075 1034.82 437.414
3386 0 106.398 12.8668 1369 102.447 1034.22 435.657
3387 0 111.422 12.6097 1405 102.931 1034.74 434.156
3388 0 117.247 13.1091 1537 102.753 1033.1 431.668
3389 0 117.276 16.8833 1980 98.4808 1034.13 430.185
3390 0 121.508 15.1759 1844 100.191 1033.13 431.899
3391 0 122.481 12.9163 1582 104.03 1031.68 426.994
3392 0 130.444 13.799 1800 102.95 1031.19 422.197
3393 0 130.444 13.707 1788 139.867 1031.17 422.173
3394 0 135.506 10.6342 1441 107.5 1030.12 415.126
3395 0 144.547 15.1923 2196 101.874 1030.34 413.889
3396 1 80.1132 13.8928 1113 100.272 1028.81 445.188
3397 0 81.1808 14.5601 1182 100.176 1028.3 448.218
3398 0 82.2614 10.5274 866 108.734 1029.58 439.193
3399 0 85.3182 14.3932 1228 103.542 1029.56 438.879
3400 0 91.3583 16.2875 1488 100.605 1030.09 436.702
3401 0 93.3193 15.5488 1451 103.088 1028.62 430.616
3402 0 98.1826 16.3573 1606 101.102 1029.78 431.872
3403 0 101.324 19.6992 1996 97.0967 1029.5 433.876
3404 0 103.249 15.0026 1549 103.438 1030.14 427.328
3405 0 106.247 14.6545 1557 104.613 1030.41 422.855
3406 0 109.701 15.132 1660 104.55 1031.28 420.263
3407 0 113.297 12.5776 1425 104.738 1032.52 428.178
3408 0 111.278 10.8018 1202 108.556 1032.22 413.938
3409 0 118.319 12.2128 1445 105.824 1032.29 413.894
3410 0 125.338 13.8346 1734 102.527 1032.54 418.595
3411 0 131.491 16.1532 2124 99.0857 1032.43 412.873
3412 0 131.377 13.8456 1819 102.476 1034.71 413.65
3413 0 135.37 12.8537 1740 103.534 1034.95 414.416
3414 0 136.382 12.9856 1771 104.889 1036.33 407.842
3415 0 148.443 13.837 2054 104.182 1036.44 405.497
3416 0 147.332 13.9073 2049 104.969 1036.76 401.16
3417 0 155.334 13.6222 2116 104.817 1036.17 403.748
3418 0 162.54 18.4139 2993 98.5286 1036.31 409.918
3419 0 163.385 13.3611 2183 104.634 1035.2 409.469
3420 0 171.653 16.3702 2810 99.7488 1035.66 413.149
3421 0 175.548 15.2835 2683 104.873 1035.48 390.117
3422 0 180.406 13.2534 2391 107.255 1035.43 394.319
3423 0 185.449 11.2214 2081 110.439 1035.19 395.443
3424 0 185.449 11.119 2062 151.497 1034.18 395.51
3425 1 199.552 16.3316 3259 104.589 1035.94 390.893
3426 0 203.746 13.4432 2739 108.323 1035.56 389.605
3427 1 149.359 12.9285 1931 107.784 1035.62 408.021
3428 0 154.491 14.7129 2273 105.798 1035.21 411.301
3429 0 163.211 18.3198 2990 101.432 1034.88 411.3
3430 0 164.358 15.9895 2628 103.524 1033.04 416.693
3431 0 168.319 14.9834 2522 107.363 1032.04 400.445
3432 1 187.463 6.04385 1133 111.402 1031.87 425.867
3433 0 181.496 14.8874 2702 106.987 1031.04 385.986
3434 0 188.685 15.1469 2858 105.491 1031.9 394.88
3435 0 190.569 14.483 2760 109.787 1032.67 373.34
3436 0 197.571 15.8526 3132 109.107 1030.72 373.825
3437 0 203.463 12.3856 2520 113.602 1031.08 378.216
3438 0 211.843 13.4061 2840 114.234 1030.39 368.467
3439 0 216.492 14.6426 3170 113.062 1029.47 363.55
3440 0 221.661 11.2875 2502 117.923 1030.14 370.766
3441 0 232.303 16.1643 3755 111.122 1030.94 361.96
3442 0 239.663 14.9168 3575 114.776 1030.68 346.803
3443 0 244.703 15.0345 3679 114.567 1029.4 353.665
3444 0 254.971 14.2212 3626 116.804 1030.73 344.769
3445 0 261.563 13.0867 3423 117.341 1030.56 348.765
3446 0 269.814 11.671 3149 119.695 1030.09 342.251
3447 0 278.763 15.9526 4447 114.57 1029.47 333.857
3448 0 289.034 17.6069 5089 111.893 1030.8 334.877
3449 0 297.916 13.8898 4138 118.359 1030.52 327.833
3451 1 97.3333 10.7363 1045 110.653 1031 424.121
3452 0 98.092 12.5596 1232 107.208 1031.77 429.518
3453 0 101.693 13.059 1328 107.944 1032.35 424.716
3454 0 102.456 9.00872 923 114.887 1034.08 414.701
3455 0 107.451 14.118 1517 107.868 1034.36 413.788
3456 0 111.516 19.3246 2155 99.4213 1033.41 421.141
3457 0 114.63 12.5098 1434 109.532 1034 405.741
3458 0 115.782 11.0812 1283 111.873 1034.4 410.938
3459 0 119.601 8.37785 1002 117.777 1035.17 400.101
3460 0 127.663 14.9143 1904 105.862 1035.14 408.305
3461 0 131.64 11.8885 1565 110.312 1034.8 407.904
3462 0 131.475 6.16085 810 121.435 1036.11 394.553
3463 0 141.819 11.4442 1623 110.502 1034.62 408.384
3464 1 74.5354 10.9747 818 99.8888 1034.42 449.192
3465 0 78.2747 14.5769 1141 100.001 1035.39 449.022
3466 0 79.6861 13.6285 1086 104.195 1035.25 445.238
3467 0 80.4648 9.46998 762 106.753 1034.91 445.667
3468 0 80.7597 9.69543 783 106.31 1034.33 443.8
3469 0 87.3228 9.31028 813 103.555 1033.05 449.943
3470 1 98.6183 21.0204 2073 88.2335 1032.68 433.657
3471 0 98.8843 18.284 1808 92.0194 1032.43 436.12
3472 0 95.3443 13.9704 1332 98.4827 1031.93 441.676
3473 0 96.6779 12.4744 1206 102.135 1030.73 435.638
3474 0 101.496 11.2714 1144 103.666 1029.71 436.341
3475 0 101.451 12.4888 1267 103.639 1029.69 436.774
3476 0 103.656 12.995 1347 102.809 1029.09 432.354
3477 0 100.708 6.93094 698 108.265 1027.95 439.828
3478 0 106.554 9.69457 1033 108.392 1027.79 425.546
3479 0 111.747 12.8773 1439 103.766 1028.04 428.931
3480 0 115.693 19.0676 2206 96.2366 1027.99 428.034
3481 0 116.399 12.0963 1408 105.178 1028.57 426.765
3482 0 117.464 11.0417 1297 107.392 1028.62 419.927
3483 0 120.476 12.3759 1491 104.357 1027.36 426.574
3484 0 121.623 11.1821 1360 106.051 1028.6 425.256
3485 0 130.802 14.0288 1835 103.458 1028.27 420.159
3486 0 132.642 19.9484 2646 96.1319 1027.51 420.173
3487 0 130.43 8.41062 1097 113.341 1028.99 406.976
3488 0 140.701 13.6388 1919 105.888 1029.06 403.548
3489 0 146.811 15.1283 2221 102.205 1028.89 412.977
3490 0 148.598 10.027 1490 111.643 1029.75 399.784
3491 1 92.5031 10.8429 1003 102.865 1030.62 434.445
3492 0 93.3203 7.13671 666 107.578 1029.34 436.464
3493 0 93.3228 7.22225 674 146.264 1028.35 436.463
3494 0 99.3746 10.8177 1075 105.54 1030.34 432.329
3495 0 98.3651 9.86123 970 106.068 1031.03 434.76
3496 0 104.395 10.5657 1103 107.104 1032.24 428.243
3497 0 106.347 10.2588 1091 107.772 1032.96 421.774
3498 0 103.684 9.99194 1036 106.138 1033.97 427.416
3499 0 115.748 12.1557 1407 104.459 1034.32 422.089
3500 0 118.58 13.8556 1643 102.974 1034.17 413.946
3501 0 122.568 10.8022 1324 107.768 1035.6 415.926
3502 0 120.42 9.05162 1090 111.717 1034.38 408.56
3503 0 128.558 13.1458 1690 104.595 1033.89 416.419
3504 0 128.484 11.5267 1481 108.912 1034.36 410.055
3505 0 129.429 12.4933 1617 107.129 1034.39 412.537
3506 0 135.381 11.6634 1579 105.94 1034.28 423.006
3507 1 241.81 11.9185 2882 113.729 1034.17 365.291
3508 1 142.504 13.8101 1968 107.226 1035.04 405.789
3509 0 147.433 10.2487 1511 111.268 1034.49 412.415
3510 0 154.421 15.2311 2352 105.557 1034.13 406.109
3511 0 158.61 15.6106 2476 104.362 1033.53 414.159
3512 0 160.398 10.4615 1678 112.358 1033.2 410.23
3513 0 165.557 12.2073 2021 111.604 1033.09 399.511
3514 0 168.627 10.4491 1762 115.383 1032.18 395.048
3515 0 177.865 12.9705 2307 111.364 1032.12 395.694
3516 0 180.507 12.2322 2208 112.847 1030.9 395.603
3517 0 187.709 12.578 2361 113.388 1029.77 391.367
3518 0 194.473 16.2336 3157 108.977 1030.8 385.279
3519 0 198.596 13.8875 2758 112.973 1030.07 383.36
3520 0 207.861 18.9358 3936 106.274 1029.16 372.939
3521 0 210.702 15.9088 3352 109.832 1029.4 388.155
3522 0 217.734 17.2137 3748 108.967 1028.32 381.228
3523 0 223.83 21.3689 4783 104.006 1028.15 370.051
3524 0 228.744 15.8911 3635 111.952 1028.77 371.989
3525 0 237.746 16.5765 3941 109.955 1028.49 373.168
3526 1 171.42 8.55792 1467 115.063 1028.83 407.761
3527 0 175.801 11.5813 2036 110.654 1027.62 404.058
3528 0 183.395 14.297 2622 109.049 1026 389.709
3529 0 188.817 14.1089 2664 109.61 1027.29 382.995
3530 0 194.83 15.0284 2928 108.523 1026.95 382.709
3531 0 196.803 11.5445 2272 113.604 1026.09 377.014
3532 1 71.3592 12.0517 860 103.226 1025.48 440.251
3533 0 74.4521 11.8197 880 103.036 1027.1 440.684
3534 0 75.3863 14.0344 1058 101.044 1028.75 440.244
3535 0 78.4137 12.3575 969 101.498 1029.98 442.446
3536 0 79.3244 10.7407 852 105.563 1028.97 437.126
3537 0 80.3075 12.614 1013 103.31 1030.41 436.114
3538 0 82.4965 13.7945 1138 102.008 1030.93 435.137
3539 0 83.3097 12.7476 1062 104.525 1031.17 432.237
3540 0 87.3092 16.3671 1429 99.1183 1031.86 430.569
3541 0 90.2923 11.7286 1059 106.068 1031.95 428.314
3542 0 90.4107 9.57852 866 109.038 1032.47 432.483
3543 0 98.3149 13.6297 1340 102.125 1033.62 434.518
3544 0 94.3224 12.7117 1199 104.018 1032.48 433.163
3545 0 96.4084 12.6441 1219 103.918 1034.44 434.812
3546 0 96.2789 10.3449 996 108.613 1033.88 427.239
3547 0 104.323 13.0364 1360 102.714 1034.82 437.657
3548 0 108.446 12.4302 1348 104.384 1034.42 435.384
3549 0 110.366 11.2807 1245 106.659 1035.04 430.665
3550 0 112.648 11.7623 1325 106.167 1034.35 433.019
3551 0 116.303 13.5852 1580 104.927 1033.4 426.939
3552 0 119.556 15.2732 1826 102.116 1032.48 431.777
3553 0 119.556 15.4321 1845 142.203 1029.5 431.797
3554 0 127.51 14.093 1797 104.82 1032.51 421.07
3555 0 130.67 15.1986 1986 104.084 1031.86 419.069
3556 0 132.672 10.07 1336 108.629 1033.22 426.396
3557 1 80.1817 13.6939 1098 99.9754 1032.11 448.571
3558 0 84.4101 15.247 1287 96.7187 1031.94 445.169
3559 0 84.5598 11.3529 960 99.6729 1030.33 444.927
3560 0 90.4286 14.2543 1289 97.9597 1029.54 440.685
3561 0 90.8281 13.6081 1236 97.8981 1028.84 441.649
3562 1 149.738 8.24107 1234 99.0032 1029.37 441.099
3563 0 150.487 7.91428 1191 99.6146 1028.76 441.846
3564 0 146.303 7.77837 1138 101.739 1028.97 430.808
3565 1 103.658 15.117 1567 98.7384 1027.5 404.236
3566 0 103.283 13.7293 1418 101.231 1028.23 400.616
3567 0 107.265 15.9418 1710 98.3696 1027.98 404.827
3568 0 108.562 18.3398 1991 96.4003 1027.4 401.635
3569 0 110.343 13.2405 1461 102.934 1026.45 402.721
3570 0 113.504 14.0083 1590 102.554 1026.41 395.93
3571 0 117.301 10.5967 1243 108.007 1026.17 389.599
3572 0 117.651 17.5689 2067 98.9265 1026.08 396.706
3573 0 122.508 16.7825 2056 98.4377 1026.78 400.465
3574 0 122.421 14.9403 1829 102.437 1026.79 390.418
3575 0 127.326 14.1448 1801 103.762 1026.36 391.851
3576 0 127.166 16.8992 2149 100.345 1026.82 395.998
3577 0 132.44 15.9091 2107 101.658 1027.82 393.956
3578 0 136.281 15.8129 2155 103.329 1027.34 384.487
3579 0 140.587 15.855 2229 102.967 1028.12 391.441
3580 0 147.506 15.1384 2233 104.066 1028.64 392.356
3581 0 146.356 12.6814 1856 110.062 1028.22 381.679
3582 0 154.546 15.4258 2384 105.404 1029.08 388.489
3583 0 153.439 11.9982 1841 111.831 1029.84 381.552
3584 0 163.37 20.6709 3377 99.6879 1029.69 389.534
3585 0 164.423 14.5417 2391 106.295 1030.84 402.478
3586 0 173.445 15.6822 2720 106.297 1030.35 389.776
3587 0 172.477 17.3009 2984 105.413 1031.4 388.319
3588 0 174.406 10.3322 1802 111.642 1032.31 402.002
3589 0 178.516 12.5759 2245 111.198 1032.46 393.46
3590 0 179.521 9.57546 1719 114.101 1033.04 394.96
3591 1 199.337 13.3793 2667 111.954 1032.63 375.968
3592 0 206.22 13.8735 2861 110.645 1032.85 375.815
3593 0 212.577 13.3363 2835 111.668 1032.13 373.962
3594 0 216.417 16.9719 3673 105.888 1032.83 379.399
3595 1 230.462 14.9309 3441 108.722 1032.94 371.838
3596 0 237.723 15.2488 3625 108.75 1032.52 359.086
3597 0 243.521 13.1775 3209 111.311 1032.02 366.715
3598 0 254.588 15.2953 3894 109.783 1031.41 353.461
3599 0 330.1 8.2672 2729 119.316 1031.62 334.075
3600 1 60.0294 8.69574 522 101.481 1030.78 447.695
3601 0 68.0758 9.78321 666 97.4114 1029.32 458.021
3602 0 67.1413 10.4407 701 99.7475 1029.17 453.344
3603 0 66.034 11.5395 762 99.8333 1029.08 453.335
3604 0 74.1606 15.5608 1154 95.2158 1027.72 461.285
3605 0 75.2818 11.6097 874 101.118 1026.73 457.72
3606 0 77.3564 10.471 810 103.609 1027.55 448.758
3607 0 79.2025 12.7521 1010 96.896 1027.19 454.612
3608 0 79.2629 13.4489 1066 97.0685 1026.55 453.306
3609 1 31.0338 8.53909 265 91.4415 1027.71 478.906
3610 0 31.2031 11.7617 367 88.6621 1026.41 476.005
3611 0 34.2201 11.5721 396 86.0177 1024.7 471.604
3612 0 33.0532 6.26264 207 93.2899 1024.8 476.604
3613 0 33.0532 7.86611 260 107.881 1025.72 477.446
3614 0 36.1494 9.54374 345 89.6435 1025.01 472.864
3615 0 32.0694 6.33002 203 92.335 1025.02 477.645
3616 0 35.0172 11.3944 399 87.203 1026.01 471.872
3617 0 31.2493 13.8243 432 83.7384 1025.5 462.039
3618 0 37.0734 10.6815 396 91.9217 1024.15 466.379
3619 0 40.5666 19.5481 793 80.7667 1024.33 466.719
3620 0 37.1899 9.22294 343 91.586 1024.77 465.913
3621 0 41.1985 13.0345 537 84.8864 1026.35 468.667
3622 0 36.0614 10.9813 396 87.0101 1025.55 469.023
3623 0 36.3576 9.73662 354 90.2542 1025.94 465.537
3624 0 37.2654 11.7267 437 90.1442 1027.07 462.76
3625 0 40.1973 15.5732 626 84.2508 1026.64 464.107
3626 0 38.0628 16.499 628 82.6768 1027.89 465.967
3627 0 38.0628 16.3414 622 104.764 1028.92 466.138
3628 0 38.0632 16.2099 617 104.464 1029.91 466.112
3629 0 36.1448 13.9992 506 80.0929 1029.92 459.686
3630 0 34.0927 10.4714 357 82.9076 1032.5 468.98
