time division length width area intensity CMx CMy
0 0 49.2232 15.6837 772 133.917 1194.45 467.165
1 0 51.1623 16.4183 840 131.619 1193.82 466.589
2 0 52.2312 20.0072 1045 119.14 1193.59 468.608
3 0 53.1884 15.3793 818 127.322 1192.62 467.962
4 0 53.2192 17.9446 955 129.175 1191.95 468.422
5 0 54.1356 19.0632 1032 125.454 1190.47 467.88
6 0 54.1395 15.4231 835 136.762 1188.99 466.457
7 0 53.1147 15.0053 797 143.37 1187.95 465.905
8 0 55.053 13.5869 748 139.408 1188.95 468.434
9 0 58.1078 15.7638 916 132.473 1187.86 467.873
10 0 59.0946 15.619 923 131.791 1186.82 465.001
11 0 62.1215 16.8702 1048 127.948 1186.44 464.969
12 0 62.2278 16.0378 998 131.056 1186.95 460.821
13 1 34.0844 11.6769 398 133.53 1185.65 473.553
14 0 36.0753 11.7255 423 132.582 1186.17 472.979
15 0 38.1247 14.1903 541 128.072 1185.96 471.349
16 0 37.1415 11.6043 431 130.278 1186.44 471.921
17 0 40.0823 15.2935 613 121.104 1185.75 466.938
18 0 44.3108 14.7594 654 126.442 1185.86 468.372
19 0 42.1083 14.9614 630 127.183 1184.88 465.094
20 0 44.0664 13.4116 591 129.792 1186.21 463.225
21 0 43.1433 13.1422 567 132.109 1186.69 462.406
22 0 47.0661 14.1715 667 130.688 1186.13 459.21
23 0 48.1115 14.0091 674 133.553 1187.23 459.599
24 0 50.1447 14.179 711 132.193 1187.48 459.636
25 0 53.1427 14.5269 772 127.964 1188.35 457.573
26 0 53.1241 12.9132 686 131.532 1189.05 456.649
27 0 54.0555 14.0781 761 131.457 1188.91 454.535
28 0 59.087 15.8918 939 123.624 1190.12 456.018
29 0 61.0785 14.3422 876 125.462 1190.97 452.886
30 0 60.094 13.9448 838 128.681 1190.98 453.023
31 0 65.1142 15.2962 996 123.445 1192.67 452.877
32 0 65.1507 15.656 1020 124.893 1193.46 451.189
33 0 71.4339 20.9844 1499 111.761 1194.21 450.163
34 0 72.0727 15.4566 1114 123.192 1194.86 446.847
35 0 74.2058 17.4649 1296 121.688 1195.13 444.603
36 0 78.568 16.8898 1327 119.042 1196.89 445.851
37 0 83.2921 17.2045 1433 115.556 1196.73 449.645
38 0 84.338 14.9162 1258 120.781 1196.97 444.809
39 0 89.5718 19.1467 1715 109.578 1196.5 453.09
40 1 43.1184 12.9179 557 119.11 1196.28 465.955
41 0 45.0476 12.3425 556 122.752 1196.16 467.75
42 0 49.1471 13.775 677 115.152 1195.64 468.458
43 0 49.1687 12.935 636 118.005 1196.48 469.673
44 0 49.17 13.1788 648 127.005 1194.58 466.71
45 0 52.1096 15.8896 828 129.103 1194.55 468.579
46 0 52.1695 13.7245 716 134.05 1195.09 470.233
47 0 57.0641 15.4563 882 130.955 1193.35 468.125
48 0 58.0613 13.0896 760 139.496 1191.8 466.632
49 0 60.0637 15.8332 951 129.067 1192.37 465.131
50 0 63.1476 16.6119 1049 129.868 1190.63 467.118
51 0 62.1657 16.8582 1048 141.745 1188.62 466.871
52 0 63.2179 15.0432 951 136.521 1188.85 461.68
53 0 68.0866 12.9981 885 139.18 1188.64 461.928
54 0 69.2169 15.3142 1060 135.182 1187.17 458.676
55 0 69.3766 15.4519 1072 132.992 1187.63 460.298
56 0 72.1449 12.461 899 139.24 1187.69 458.709
57 0 78.3338 18.1403 1421 126.844 1186.55 453.358
58 0 79.1622 14.1734 1122 135.621 1186.48 452.446
59 0 81.2518 13.5382 1100 137.786 1187.88 451.625
60 0 84.307 14.1625 1194 135.136 1186.55 449.84
61 0 89.3493 16.1165 1440 130.062 1185.74 444.483
62 0 91.3015 14.9614 1366 132.704 1186.07 441.303
63 1 48.162 14.2643 687 130.338 1186.38 463.47
64 0 49.2808 10.7953 532 133.57 1185.18 464.853
65 0 52.067 12.3687 644 131.59 1186.71 460.474
66 0 54.1755 14.3423 777 127.64 1187.5 458.291
67 0 57.1636 14.8346 848 123.242 1188.29 459.921
68 0 60.2421 12.2838 740 129.578 1188.67 457.828
69 0 60.1438 12.5034 752 129.516 1188.5 456.476
70 0 62.1528 12.9198 803 129.748 1188.8 453.427
71 0 66.1572 15.2213 1007 123.805 1190.17 452.776
72 0 66.1051 12.9945 859 129.014 1190.32 452.355
73 0 69.0842 15.1699 1048 123.826 1190.96 450.625
74 0 69.085 14.0841 973 126.276 1192.03 452.049
75 0 73.3019 14.0924 1033 126.051 1192.15 449.915
76 0 73.3019 14.0788 1032 145.322 1193.16 449.943
77 0 81.3266 11.9518 972 128.632 1192.42 447.311
78 0 83.1949 15.3255 1275 122.245 1193.54 446.584
79 0 84.2908 12.3501 1041 127.445 1195.07 448.604
80 0 84.3187 12.2749 1035 149.596 1196.03 448.611
81 0 89.1912 12.6806 1131 127.645 1196.11 449.001
82 0 94.1371 14.1283 1330 126.551 1195.21 444.053
83 0 96.2226 12.4087 1194 129.26 1195.47 445.136
84 0 101.129 11.5793 1171 129.655 1195.17 446.668
85 0 100.724 10.0671 1014 134.512 1195.13 445.169
86 1 56.1668 15.5964 876 120.832 1194.56 465.686
87 0 57.1155 14.742 842 122.27 1194.38 467.797
88 0 57.1155 14.6545 837 132.049 1194.35 467.84
89 0 59.2906 12.8351 761 125.526 1194.43 468.712
90 0 60.151 12.9341 778 125.888 1193.86 468.817
91 0 62.3398 12.079 753 128.361 1193.27 466.432
92 0 65.0747 13.7995 898 124.356 1192.52 466.127
93 0 70.1522 16.8063 1179 117.57 1192.11 464.705
94 0 72.1738 14.0356 1013 122.97 1190.62 463.777
95 0 73.1179 13.1432 961 126.446 1188.92 463.077
96 0 73.1498 11.9207 872 129.201 1189.45 461.81
97 0 76.1355 13.673 1041 125.962 1189.16 459.246
98 0 82.2282 16.8312 1384 116.571 1187.65 457.189
99 1 41.0931 8.3469 343 126.318 1186.89 477.787
100 0 41.0931 8.88227 365 154.737 1185.86 477.293
101 0 44.0635 11.0976 489 124.836 1185.34 473.076
102 0 46.06 11.4633 528 120.987 1184.88 471.203
103 0 47.0821 14.6128 688 116.259 1185.78 468.906
104 0 48.2808 14.0221 677 119.39 1184.95 469.555
105 0 50.1126 13.31 667 121.429 1184.78 465.259
106 0 53.264 14.1559 754 116.995 1185.33 467.406
107 0 54.0854 13.4417 727 120.373 1185.32 463.16
108 0 55.0938 12.034 663 123.582 1185.84 463.264
109 0 55.0931 15.374 847 118.353 1185.39 458.298
110 0 57.1116 15.7236 898 117.594 1186.34 457.694
111 0 57.1719 12.9784 742 124.115 1186.98 457.48
112 0 59.2658 11.7606 697 125.475 1188.48 457.135
113 0 61.1137 15.0866 922 120.309 1188.71 452.18
114 0 63.0419 13.9907 882 121.546 1189.23 453.791
115 0 67.124 13.6762 918 120.793 1190.19 452.336
116 0 68.2164 13.6184 929 121.606 1190.31 449.701
117 0 68.1092 12.4066 845 122.163 1190.61 450.231
118 0 73.1702 15.1974 1112 116.075 1191.26 450.761
119 0 76.2517 15.7111 1198 114.593 1191.2 447.027
120 0 78.2047 14.0912 1102 117.36 1192.56 448.898
121 0 82.2882 12.7843 1052 118.986 1193.73 448.57
122 0 83.2491 13.4416 1119 118.47 1194.34 445.908
123 1 43.0174 9.55427 411 121.645 1193.64 464.932
124 0 45.0108 11.1085 500 118.67 1194.1 465.51
125 0 46.134 12.7672 589 117.474 1194.32 464.54
126 0 49.1286 11.8872 584 117.735 1195.45 460.281
127 0 50.2039 14.1423 710 115.432 1193.97 463.544
128 0 52.4355 12.8539 674 119.148 1194.69 466.059
129 0 52.1419 11.5838 604 121.608 1193.44 465.25
130 0 54.1273 16.0363 868 113.484 1193.26 466.619
131 0 53.1097 11.7493 624 121.49 1193.06 469.133
132 0 57.1046 11.7153 669 119.774 1193.41 469.363
133 0 57.1409 14.053 803 117.029 1192.03 467.205
134 0 60.1065 13.4428 808 118.255 1190.95 467.087
135 0 60.1231 12.2748 738 122.016 1191.11 465.787
136 0 65.2917 13.5699 886 117.562 1190.03 467.691
137 0 64.0878 12.0772 774 121.948 1191.5 465.946
138 0 67.1361 15.1632 1018 116.232 1189.7 466.012
139 0 69.2279 17.1463 1187 113.352 1189.54 463.519
140 0 71.3689 14.6843 1048 116.481 1187.79 462.849
141 0 70.1687 12.7122 892 120.405 1185.9 461.184
142 0 76.2587 12.3658 943 119.136 1185.71 462.679
143 0 78.1713 14.2891 1117 117.031 1185.38 459.852
144 0 79.3416 14.3809 1141 118.36 1184.54 456.814
145 0 79.3416 14.3304 1137 134.76 1184.55 456.771
146 0 86.3577 16.1306 1393 116.399 1183.14 450.905
147 0 88.1652 15.7205 1386 117.549 1183.85 449.864
148 0 91.3027 14.3041 1306 120.189 1184.13 450.449
149 0 94.2361 14.2514 1343 121.261 1183.22 446.469
150 1 52.0696 13.578 707 121.062 1183.62 464.351
151 0 55.0995 13.394 738 120.213 1184.04 464.866
152 0 55.2903 11.6295 643 121.961 1184.53 463.204
153 0 56.2895 12.9687 730 120.126 1184.34 460.037
154 0 59.2615 14.9844 888 115.836 1184.23 460.177
155 0 58.295 12.8141 747 121.161 1185.03 458.967
156 0 61.2093 13.1843 807 120.488 1186.51 456.742
157 0 63.1254 13.0059 821 120.681 1186.07 454.208
158 0 66.4654 16.0535 1067 113.487 1187.91 455.634
159 0 66.2397 11.8509 785 122.126 1187.86 453.054
160 0 72.2399 15.7946 1141 114.47 1188.49 452.195
161 0 73.3727 13.9698 1025 119.613 1189.85 449.797
162 0 77.6656 13.9959 1087 119.79 1189.7 447.136
163 0 78.6405 14.2547 1121 119.009 1191.04 444.991
164 0 80.4483 13.6236 1096 118.745 1191.72 446.03
165 0 84.611 12.1852 1031 120.746 1192.15 446.407
166 0 85.2764 15.9364 1359 115.937 1192.58 442.977
167 0 91.2376 14.1937 1295 118.345 1193.11 442.166
168 1 49.1169 11.2996 555 117.247 1193.14 465.962
169 0 50.1188 12.0514 604 118.219 1194.01 467.22
170 0 56.1292 13.4511 755 117.407 1192.78 468.599
171 0 60.2298 12.1701 733 119.906 1192.39 468.932
172 0 59.3076 13.5227 802 120.435 1192.76 466.439
173 0 59.1119 14.7179 870 119.575 1192.08 468.457
174 0 58.1817 13.286 773 125.279 1192.42 464.651
175 0 62.1734 13.3498 830 124.759 1192.04 463.523
176 0 65.0671 15.6454 1018 120.342 1190.88 465.405
177 0 67.4116 14.7749 996 120.666 1191.06 468.526
178 0 67.4116 14.9232 1006 140.491 1191.05 468.492
179 0 69.3197 13.4017 929 125.713 1189.1 465.954
180 0 72.1317 12.2969 887 126.986 1188.08 463.207
181 0 75.5003 14.4238 1089 122.98 1187.63 460.624
182 0 80.4114 13.5926 1093 123.252 1186.89 461.071
183 0 81.357 17.7612 1445 115.141 1186.26 460.859
184 0 81.357 17.7735 1446 135.959 1185.25 460.935
185 1 44.1783 11.6573 515 121.81 1185.1 476.715
186 0 48.1652 13.3499 643 117.636 1184.24 476.325
187 0 49.2368 14.806 729 117.037 1182.55 472.266
188 0 53.0771 17.4651 927 110.691 1183.16 473.073
189 0 54.1735 13.7336 744 118.282 1183.09 470.915
190 0 52.1467 12.5032 652 123.195 1182.65 466.69
191 0 58.2381 15.7457 917 115.287 1183.11 468.362
192 0 63.6431 16.074 1023 113.517 1183.6 467.695
193 0 58.1411 13.0028 756 123.77 1183.06 463.708
194 0 63.2021 15.6482 989 117.124 1183.2 458.413
195 0 64.1237 12.9281 829 123.066 1182.84 459.357
196 0 65.1307 13.7723 897 121.696 1182.94 457.061
197 0 65.1307 13.2042 860 143.866 1183.96 456.417
198 0 71.3103 15.2432 1087 117.952 1184.25 454.077
199 0 73.4748 16.5771 1218 115.983 1185.42 450.66
200 0 73.4748 16.5907 1219 134.276 1186.39 450.715
201 0 76.4907 14.1586 1083 118.312 1186 451.256
202 0 81.3274 12.4927 1016 121.247 1185.73 447.612
203 0 81.266 12.2314 994 122.108 1188.21 447.088
204 0 84.4576 14.8359 1253 117.547 1187.91 444.945
205 0 88.3103 14.7548 1303 116.536 1188.33 442.638
206 0 90.3019 13.1005 1183 118.6 1189.48 442.12
207 0 93.1733 14.2315 1326 117.634 1190.05 438.082
208 0 96.2386 13.2691 1277 119.455 1190.89 439.962
209 1 52.171 13.0724 682 113.331 1191.49 460.155
210 0 53.1775 11.7719 626 115.917 1190.18 463.125
211 0 55.0606 11.0969 611 119.987 1192 461.021
212 0 57.0876 10.6678 609 121.315 1191.84 460.118
213 0 60.2107 12.0743 727 119.682 1191.4 461.596
214 0 60.1016 12.0296 723 119.856 1192.47 462.638
215 0 63.1094 13.1201 828 118.121 1192.3 462.199
216 0 63.0819 12.1429 766 120.03 1191.4 461.299
217 0 68.1802 12.379 844 119.879 1191.68 463.999
218 0 67.1405 11.0514 742 124.007 1191.24 461.493
219 0 69.116 11.3867 787 124.244 1191 458.831
220 0 76.2832 14.0136 1069 117.171 1189.37 464.016
221 0 76.1993 13.5828 1035 120.549 1189.43 461.455
222 0 79.2869 15.2736 1211 118.751 1188.89 462.342
223 0 80.1682 12.1744 976 124.379 1187.27 461.088
224 0 86.168 14.4021 1241 119.39 1186.38 459.587
225 0 86.3305 13.9232 1202 121.49 1184.56 451.754
226 0 88.1105 15.1628 1336 119.663 1184.2 457.958
227 0 91.1817 15.2224 1388 120.437 1183.49 458.262
228 0 93.2172 13.5597 1264 125.073 1183.44 451.988
229 0 97.1626 14.0795 1368 123.97 1182.95 452.077
230 0 101.339 16.7457 1697 118.546 1182.55 452.709
231 0 103.313 19.3392 1998 115.085 1181.58 446.756
232 0 105.17 15.166 1595 123.112 1181.55 447.513
233 0 108.196 13.873 1501 127.879 1181.79 441.981
234 0 111.229 16.8391 1873 123.931 1181.11 440.318
235 0 112.197 14.8578 1667 128.832 1182.03 438.538
236 0 117.267 16.3217 1914 127.006 1181.4 432.974
237 0 123.194 16.7784 2067 124.376 1181.8 435.236
238 0 120.12 11.8298 1421 137.376 1180.94 427.918
239 0 129.15 14.5413 1878 131.816 1181.37 427.447
240 1 71.0793 11.3254 805 129.56 1183.15 453.132
241 0 73.3085 14.4867 1062 124.487 1182.71 451.327
242 0 74.0655 14.7572 1093 125.732 1183.84 446.371
243 0 74.0815 14.943 1107 131.701 1184.84 446.511
244 0 79.1078 12.3755 979 131.73 1183.66 446.975
245 0 78.109 13.2507 1035 133.843 1185.34 445.734
246 0 81.1863 11.9478 970 137.056 1185.04 447.822
247 0 85.2828 12.8748 1098 135.992 1185.45 446.126
248 0 87.2788 14.3334 1251 134.705 1185.49 444.388
249 0 90.2945 14.6299 1321 133.741 1186.27 446.832
250 0 93.2733 15.149 1413 134.448 1186.88 443.957
251 0 92.1459 12.2197 1126 141.286 1188.06 439.739
252 0 100.153 17.1637 1719 127.933 1189.31 444.126
253 0 98.0911 14.2113 1394 136.872 1190.26 441.414
254 0 98.0911 14.0278 1376 137.711 1192.23 441.529
255 0 99.1721 13.774 1366 138.501 1189.92 440.73
256 0 100.236 11.3332 1136 141.776 1190.37 443.779
257 1 58.1112 11.5296 670 133.522 1190.67 465.718
258 0 57.0566 11.7602 671 134.578 1190.02 463.636
259 0 59.1091 12.0624 713 136.052 1190.15 462.589
260 0 61.152 11.6595 713 136.999 1188.9 464.647
261 0 58.1057 10.7046 622 142.637 1188.94 463.842
262 0 67.1063 11.1912 751 140.18 1188.99 463.995
263 0 68.2562 11.3982 778 134.796 1188.69 464.931
264 0 67.1066 10.6696 716 136.654 1189.74 468.747
265 0 71.1388 12.82 912 131.503 1189.48 468.618
266 0 74.1208 14.5573 1079 129.786 1187.66 463.949
267 0 74.1437 11.0191 817 139.556 1186.65 461.077
268 0 78.0968 11.0376 862 137.479 1185.83 462.282
269 0 80.1899 12.2085 979 136.504 1185 458.809
270 0 83.1474 14.6367 1217 130.355 1184 460.392
271 0 88.1737 14.1652 1249 131.002 1184.48 456.167
272 0 86.1001 12.1951 1050 137.449 1183.33 449.905
273 1 48.0586 10.1126 486 132.416 1182.49 471.533
274 0 50.1401 11.7471 589 128.178 1182.56 468.75
275 0 51.0209 10.7603 549 129.801 1181.42 468.404
276 0 54.1687 12.6272 684 124.541 1179.66 464.885
277 0 54.0479 10.5092 568 128.43 1179.41 465.076
278 0 54.2891 9.26522 503 131.879 1179.63 460.751
279 0 58.2646 8.90764 519 130.557 1180.44 461.927
280 0 61.1339 11.4503 700 126.904 1180.46 456.76
281 0 60.052 11.3735 683 128.893 1180.6 454.378
282 0 67.1505 11.8689 797 125.407 1181.07 452.389
283 0 70.1197 10.7816 756 124.464 1181.08 452.87
284 0 70.1677 10.1329 711 126.813 1182.07 449.264
285 0 74.2383 12.0019 891 123.063 1181.72 447.423
286 0 74.2842 8.66941 644 128.922 1182.73 445.377
287 0 78.2436 12.3461 966 123.308 1184.09 443.513
288 0 80.3331 11.166 897 124.062 1183.87 436.893
289 0 84.1611 12.6305 1063 120.388 1185.88 440.406
290 0 85.2184 12.5208 1067 120.918 1186.73 437.285
291 1 46.0353 9.471 436 119.05 1187.07 458.45
292 0 45.0559 11.5412 520 114.681 1187.04 461.673
293 0 50.076 9.74519 488 119.555 1188.16 459.488
294 0 51.0816 10.1406 518 118.347 1188.81 458.589
295 0 51.0533 9.42152 481 120.884 1190.2 455.38
296 0 52.083 14.5537 758 112.22 1190.38 459.551
297 0 53.0711 11.0983 589 118.586 1192.06 458.929
298 0 53.0711 11.1737 593 121.251 1195.03 459.098
299 0 55.0366 10.8292 596 120.626 1191.19 458.763
300 0 58.0523 13.5051 784 116.318 1191.45 458.622
301 0 62.028 13.0264 808 117.896 1191.15 461.317
302 0 62.1471 12.5831 782 119.418 1190.57 460.078
303 0 63.0611 11.7981 744 121.848 1191.57 459.438
304 0 64.2104 9.96724 640 126.056 1191.63 462.461
305 0 64.2104 9.99839 642 134.526 1191.64 462.425
306 0 72.1744 14.368 1037 119.307 1190.93 461.838
307 0 74.1457 14.1343 1048 119.675 1190.05 460.522
308 0 75.1133 11.5958 871 124.887 1189.92 457.396
309 0 79.1234 11.9055 942 125.323 1188.84 457.757
310 1 41.0769 8.7884 361 123.612 1187.74 476.166
311 0 43.0425 9.89719 426 120.369 1186.05 477.085
312 0 46.0423 10.2297 471 120.236 1186.9 475.652
313 0 45.0512 12.0086 541 119.309 1186.61 470.928
314 0 45.0555 11.9852 540 126.754 1185.63 470.83
315 0 50.1408 12.3054 617 121.104 1186.21 469.498
316 0 50.0841 13.9565 699 117.874 1185.12 468.966
317 0 55.1381 8.95932 494 125.083 1184.21 469.026
318 0 55.14 9.26732 511 131.01 1183.23 468.294
319 0 54.1347 10.9726 594 125.475 1182.95 464.539
320 0 56.059 11.2738 632 123.965 1182.03 464.71
321 0 56.1104 13.7408 771 120.991 1182.65 462.792
322 0 59.1362 12.412 734 123.26 1182.82 459.147
323 0 61.1621 14.4044 881 121.092 1182.02 455.706
324 0 63.2145 10.3457 654 128.298 1181.81 455.907
325 0 67.1193 15.6587 1051 116.383 1182.37 456.459
326 0 66.1682 11.8032 781 126.163 1182.36 451.001
327 0 69.1399 13.9717 966 122.483 1183.68 446.351
328 0 72.1557 12.9719 936 123.782 1183.86 448.376
329 0 72.1557 13.0274 940 144.854 1183.87 448.445
330 0 77.0599 12.3281 950 129.203 1185.36 445.237
331 0 82.1236 14.0642 1155 124.432 1186.49 445.454
332 0 82.075 13.1831 1082 127.152 1187.57 441.683
333 1 43.0141 10.7639 463 149.918 1188.88 461.799
334 0 43.0284 10.923 470 127.453 1189.27 461.426
335 0 49.1934 12.9896 639 120.773 1188.77 462.34
336 0 49.3231 11.6578 575 125.282 1189.16 461.106
337 0 50.2381 14.5905 733 120.625 1189.22 459.033
338 0 51.1799 14.3416 734 121.996 1190.63 458.89
339 0 53.3777 12.0462 643 125.103 1191.88 461.283
340 0 57.248 14.1315 809 120.968 1192.4 457.927
341 0 57.1646 13.0325 745 124.211 1192.52 460.938
342 0 59.1459 16.1803 957 117.828 1193.08 456.649
343 0 60.2063 12.7395 767 124.503 1193.47 460.389
344 0 61.1821 13.4516 823 123.019 1193.42 459.608
345 0 66.2577 17.1452 1136 113.563 1194.7 461.737
346 0 66.091 13.3452 882 121.823 1194.09 460.031
347 0 68.1193 15.9133 1084 116.907 1193.35 460.395
348 0 68.0884 15.2449 1038 119.539 1193.73 461.458
349 0 72.2159 17.6 1271 114.118 1193.61 461.358
350 0 72.0317 11.4949 828 125.006 1192.86 460.981
351 0 78.0679 18.6376 1455 111.513 1192.86 458.52
352 0 79.089 13.3647 1057 121.761 1191.65 458.059
353 0 83.1923 15.9149 1324 116.678 1190.83 458.295
354 0 85.2226 19.6779 1677 110.679 1190.47 454.941
355 0 88.2672 15.0792 1331 118.149 1188.71 453.998
356 0 93.2888 15.3073 1428 116.758 1188.83 456.042
357 1 49.1477 12.9609 637 120.972 1188.12 472.458
358 0 50.0434 11.4101 571 123.349 1188.07 470.093
359 0 52.0257 12.2055 635 120.436 1186.12 471.257
360 0 55.1673 13.16 726 123.006 1186.78 469.713
361 0 56.192 15.714 883 117.923 1185.83 470.767
362 0 55.1361 14.7997 816 120.938 1185.81 467.221
363 0 56.0988 13.8862 779 123.531 1185 464.728
364 0 58.127 13.2813 772 124.867 1185 462.674
365 0 61.0668 14.4759 884 121.267 1184.65 462.147
366 0 62.1016 13.2203 821 123.741 1184.83 460.48
367 0 61.095 13.4545 822 151.961 1183.82 460.446
368 0 70.1651 17.5586 1232 112.659 1184.28 458.302
369 0 70.1849 14.6043 1025 121.1 1185.04 449.307
370 0 72.1393 16.2463 1172 116.371 1185.46 449.116
371 0 75.0618 12.8028 961 120.471 1186.23 451.422
372 0 78.1441 16.5464 1293 115.527 1186.61 443.015
373 0 81.2006 14.9137 1211 118.064 1186.94 445.528
374 0 84.1986 14.5964 1229 117.004 1187.37 441.969
375 0 85.2763 15.397 1313 117.21 1187.77 438.839
376 0 90.1592 17.7686 1602 113.576 1187.64 437.612
377 1 44.0691 10.4608 461 118.835 1189.3 462.156
378 0 46.0882 12.3242 568 116.269 1189.48 460.908
379 0 47.1247 12.3078 580 117.293 1190.45 459.184
380 0 46.0509 11.3787 524 121.395 1190.83 456.84
381 0 50.1209 14.1658 710 117.185 1192.57 457.723
382 0 50.1209 14.1658 710 138.927 1193.55 457.703
383 0 51.0476 11.9104 608 123.863 1194.98 456.781
384 0 56.0837 16.0474 900 114.076 1193.94 459.088
385 0 55.0731 12.6378 696 122.668 1194 455.842
386 0 58.2525 13.699 798 120.365 1194.23 457.876
387 0 59.0578 13.0889 773 120.996 1194.33 460.871
388 0 61.1282 13.0709 799 121.314 1194.37 459.373
389 0 64.1122 15.9252 1021 114.915 1194.14 461.357
390 0 65.2269 14.1506 923 118.651 1194.07 460.882
391 0 67.2172 13.8209 929 120.519 1193.8 455.778
392 0 71.1413 17.3036 1231 111.864 1193.52 460.941
393 0 72.1888 13.1322 948 119.891 1192.7 459.3
394 0 74.212 16.399 1217 113.497 1192.59 461.939
395 0 74.232 12.7034 943 121.31 1191.02 457.915
396 0 80.2465 16.8232 1350 113.087 1191.87 457.413
397 0 83.3243 15.7337 1311 114.873 1191.38 458.604
398 0 84.2206 15.3169 1290 116.904 1189.33 454.665
399 0 88.2507 16.5891 1464 114.193 1188.51 456.227
400 0 88.2379 16.1835 1428 115.674 1188.91 454.377
401 0 91.1319 14.7479 1344 118.884 1188.07 452.615
402 0 94.213 15.8258 1491 116.434 1186.96 451.665
403 0 96.2748 15.0403 1448 118.352 1186.68 446.568
404 0 100.494 13.5033 1357 119.595 1185.76 444.896
405 0 103.088 14.6477 1510 116.64 1185.72 447.981
406 0 106.157 14.9213 1584 117.164 1184.27 442.145
407 0 107.078 14.1579 1516 119.164 1183.82 438.809
408 0 112.23 13.4991 1515 119.179 1183.68 430.892
409 0 113.179 13.1031 1483 119.066 1184.42 435.91
410 0 121.195 14.2167 1723 117.667 1184.33 428.46
411 0 126.329 12.8711 1626 118.964 1183.2 430.13
412 0 132.331 14.8491 1965 115.712 1183.94 424.269
413 0 138.385 14.98 2073 115.033 1184.59 423.076
414 0 142.255 13.7429 1955 116.751 1184.28 413.226
415 0 147.343 11.9517 1761 120.363 1184.43 412.275
416 0 152.382 10.8805 1658 121.385 1185.9 412.443
417 0 152.382 10.7755 1642 138.571 1186.91 412.49
418 1 78.0805 12.6792 990 116.97 1186.7 444.819
419 0 81.1178 14.2139 1153 115.96 1188.39 440.37
420 0 85.2579 14.591 1244 114.67 1188.57 439.601
421 0 89.1584 13.5153 1205 115.279 1189.6 441.798
422 0 89.1253 13.3856 1193 116.667 1190.23 433.816
423 0 94.0708 14.2977 1345 115.148 1191.7 433.638
424 0 95.1975 11.765 1120 119.614 1191.99 432.828
425 0 100.137 14.3203 1434 114.075 1193.15 432.355
426 0 103.192 14.1193 1457 113.281 1193.63 432.277
427 0 105.217 12.403 1305 115.657 1194.94 430.2
428 0 109.065 11.4978 1254 117.413 1195.46 427.893
429 0 115.144 12.0719 1390 116.202 1195.94 429.554
430 1 62.0816 11.6621 724 114.149 1195.59 451.881
431 0 68.3717 13.0902 895 110.946 1195.06 452.789
432 0 66.0625 12.7001 839 113.141 1194.74 451.554
433 0 72.088 14.0107 1010 109.398 1194.94 455.508
434 0 74.1636 14.8995 1105 107.89 1193.97 457.281
435 0 76.2582 16.6146 1267 107.203 1193.79 455.322
436 0 79.2275 12.95 1026 113.514 1193.18 453.321
437 0 79.2275 12.9753 1028 142.138 1192.19 453.265
438 0 81.2916 11.7232 953 116.173 1193.03 449.881
439 0 87.3398 14.6439 1279 109.894 1191.8 455.835
440 0 91.4531 15.8333 1448 110.878 1191.4 448.491
441 0 94.429 14.6459 1383 113.675 1189.84 446.824
442 0 95.4042 13.3537 1274 115.12 1189.85 447.479
443 0 99.2463 12.8468 1275 116.668 1190.03 445.671
444 0 103.337 14.0995 1457 114.894 1190 443.594
445 0 106.618 12.9528 1381 116.682 1189.16 442.329
446 0 107.385 13.5773 1458 116.222 1187.78 440.634
447 0 111.618 12.7488 1423 118.25 1187.58 433.683
448 0 118.572 15.3746 1823 113.317 1187.3 435.738
449 0 121.643 13.3012 1618 116.627 1187.18 428.912
450 0 126.343 15.7271 1987 112.52 1186.85 428.121
451 0 128.486 13.5189 1737 115.979 1185.98 419.879
452 0 136.721 15.9303 2178 112.002 1186.21 421.952
453 1 77.2905 11.2821 872 110.86 1185.85 453.681
454 0 77.3206 10.3207 798 115.609 1185.53 445.916
455 0 81.4056 13.0949 1066 111.75 1184.35 447.428
456 0 83.4391 12.7279 1062 112.966 1185.44 445.058
457 0 89.6133 13.5136 1211 108.843 1185.09 447.307
458 0 89.4806 14.573 1304 109.64 1184.66 438.706
459 0 95.4674 16.0683 1534 106.56 1185.85 439.097
460 0 96.5098 13.066 1261 111.933 1185.74 435.186
461 0 100.444 13.9679 1403 109.752 1186.38 424.317
462 0 105.205 15.4936 1630 106.997 1187.48 426.182
463 0 107.513 14.0355 1509 107.06 1188.27 432.917
464 1 60.2412 8.11737 489 112.096 1189.72 449.489
465 0 62.2129 9.66037 601 112.549 1189.19 449.897
466 0 66.223 13.9378 923 107.606 1188.73 453.17
467 0 66.1641 10.0357 664 113.236 1188.63 458.227
468 0 71.1301 13.8197 983 106.508 1190.16 459.974
469 0 73.2506 16.2183 1188 103.153 1191.29 456.263
470 0 74.3547 14.9822 1114 105.406 1191.54 457.396
471 0 73.2121 10.0257 734 114.86 1192.37 453.537
472 0 77.1745 12.1284 936 110.065 1192.47 457.237
473 0 78.0658 13.3989 1046 108.014 1192.2 457.726
474 0 82.2717 9.74819 802 114.256 1193.1 454.425
475 0 84.098 13.5913 1143 110.046 1192.15 453.294
476 0 89.2247 13.2699 1184 109.996 1191.87 457.84
477 0 92.0973 12.704 1170 111.345 1191.57 458.886
478 0 99.3497 13.2059 1312 111.389 1190.96 456.962
479 0 96.3824 9.8047 945 118.485 1190.3 452.65
480 1 52.0723 11.6761 608 111.084 1189.61 478.158
481 0 53.0773 13.4144 712 110.728 1188.29 476.725
482 0 53.0773 13.3956 711 118.765 1187.31 476.675
483 0 54.1368 14.5003 785 106.789 1186.96 478.354
484 0 57.1375 11.3411 648 113.119 1186.12 474.498
485 0 57.1174 12.8682 735 111.576 1183.84 472.771
486 0 61.1275 12.1386 742 111.601 1184.84 473.03
487 0 61.1289 10.3715 634 115.987 1183.38 468.989
488 0 64.3695 11.8224 761 112.536 1182.76 472.289
489 0 68.2148 15.3779 1049 108.208 1181.37 469.311
490 0 72.147 12.7933 923 111.947 1181.84 467.283
491 0 72.2154 15.5507 1123 109.335 1181.31 464.865
492 0 73.1668 14.5148 1062 111.407 1180.29 465.33
493 0 77.1568 14.2826 1102 111.791 1180.29 464.029
494 0 77.1568 14.3604 1108 136.902 1179.29 464.051
495 0 83.2187 15.3932 1281 112.21 1180.98 461.695
496 1 49.4858 12.6703 627 107.33 1181.25 481.408
497 0 47.2071 10.3798 490 116.124 1179.53 474.386
498 0 52.2739 13.2953 695 109.763 1179.7 471.056
499 0 52.0945 13.3795 697 114.478 1180.92 469.65
500 0 53.1192 12.5002 664 116.789 1180.64 467.533
501 0 55.1088 13.9361 768 111.895 1181.86 469.978
502 0 59.0705 14.6774 867 111.69 1181.96 466.17
503 0 58.0518 13.4363 780 114.844 1183.32 463.523
504 0 61.0955 16.3842 1001 109.951 1184.47 463.509
505 0 66.3569 12.915 857 116.169 1185.26 461.125
506 0 63.191 13.0715 826 116.788 1185.26 457.485
507 0 64.2561 15.8895 1021 113.084 1185.95 455.684
508 0 68.0719 13.6767 931 114.608 1187.31 458.3
509 0 72.2078 13.0872 945 114.92 1188.44 456.704
510 0 70.1636 13.1835 925 116.042 1187.43 452.779
511 0 73.1164 14.8393 1085 114.042 1189.12 454.205
512 0 76.1746 13.9154 1060 115.65 1189.34 454.269
513 0 78.0932 13.6632 1067 115.46 1190.54 454.543
514 0 80.1358 13.5395 1085 113.164 1189.74 452.95
515 0 84.2851 17.073 1439 107.694 1189.99 451.973
516 0 86.1623 14.9369 1287 111.008 1190.37 452.619
517 0 88.2698 16.5515 1461 109.539 1190.97 445.151
518 0 88.2698 16.4382 1451 121.713 1192.01 445.179
519 0 96.1275 15.8643 1525 112.026 1189.66 453.186
520 0 97.1216 16.3403 1587 111.52 1191.11 453.195
521 1 48.0359 10.5754 508 116.925 1189.76 476.156
522 0 50.1053 12.9527 649 110.863 1188.91 475.683
523 0 50.0346 10.9124 546 114.463 1188.11 476.828
524 0 53.1096 10.13 538 116.491 1188.11 474.143
525 0 53.1241 10.9555 582 116.361 1186.17 474.321
526 0 59.1117 12.451 736 112.707 1186.44 474.247
527 0 60.1366 10.3764 624 117.109 1184.74 469.186
528 0 60.1296 10.4774 630 135.351 1182.72 469.275
529 0 62.1965 13.9879 870 111.682 1183.13 471.134
530 0 67.1708 15.0214 1009 108.905 1182.6 470.925
531 0 71.2879 14.8973 1062 110.907 1182.65 468.556
532 0 71.0574 12.6799 901 114.96 1182.06 469.588
533 0 74.2014 13.1669 977 114.566 1182.16 463.32
534 0 78.1348 15.55 1215 111.128 1182.08 463.846
535 0 78.0878 13.7922 1077 114.674 1180.77 462.16
536 0 81.2014 11.3298 920 117.079 1179.88 463.137
537 0 84.4558 14.919 1260 111.281 1179.41 457.544
538 0 88.2535 16.3846 1446 108.86 1179.63 455.284
539 0 90.1831 13.5059 1218 114.014 1180.16 451.447
540 0 93.0881 13.4389 1251 114.158 1179.23 450.88
541 0 94.2677 14.8195 1397 112.38 1180.23 445.099
542 1 49.2916 11.1581 550 112.725 1180.37 465.724
543 0 53.0309 11.3141 600 113.153 1181.73 463.002
544 0 54.1446 13.704 742 109.464 1180.57 463.799
545 0 53.1021 9.83013 522 118.211 1181.56 458.626
546 0 58.1111 15.2466 886 108.667 1182.01 464.184
547 0 59.1494 13.9646 826 111.425 1184.05 460.454
548 0 59.1494 13.9477 825 126.902 1186.04 460.421
549 0 62.0889 13.6417 847 112.267 1184.93 461.13
550 0 62.0889 13.5934 844 137.551 1184.89 461.047
551 0 68.1126 14.8284 1010 110.666 1184.72 455.694
552 0 68.1299 12.7404 868 114.065 1185.61 452.825
553 0 74.3266 16.3602 1216 107.485 1185.82 455.72
554 0 75.054 12.4843 937 114.047 1186.33 454.181
555 0 76.0946 12.5764 957 115.409 1187.76 450.72
556 0 83.1951 16.8279 1400 106.896 1187.92 446.879
557 0 84.1876 13.7431 1157 111.05 1189.3 454.031
558 0 89.2583 16.7379 1494 105.695 1189.4 454.124
559 0 89.203 10.392 927 116.3 1189.13 446.748
560 0 94.3499 14.425 1361 108.893 1188.89 450.91
561 0 98.314 16.5083 1623 105.339 1188.29 447.594
562 1 50.1236 9.65614 484 114.692 1187.84 470.996
563 0 53.3618 11.8624 633 110.891 1187.31 469.051
564 0 55.465 18.4621 1024 99.4531 1187.6 469.286
565 0 56.2075 11.2796 634 112.345 1186.45 472.47
566 0 59.2333 15.0085 889 104.993 1186.28 473.075
567 0 57.167 12.1749 696 110.407 1185.5 472.132
568 0 62.5223 12.2836 768 109.766 1185.39 474.316
569 0 64.1967 14.6269 939 107.411 1185.19 471.366
570 0 64.2971 13.2665 853 110.195 1184.02 471.897
571 0 66.1528 15.7514 1042 105.981 1183.21 472.405
572 0 69.4296 14.792 1027 106.728 1183.16 471.394
573 0 70.2869 13.6014 956 109.175 1182.45 470.009
574 0 72.3463 14.2924 1034 109.38 1181.97 465.485
575 0 74.2378 16.1643 1200 107.582 1180.5 460.451
576 0 74.2378 16.1643 1200 119.494 1179.5 460.451
577 0 80.4027 16.8651 1356 106.477 1181.14 456.031
578 0 81.4056 13.5986 1107 111.219 1179.63 458.055
579 0 82.1414 13.6107 1118 111.416 1180.25 455.631
580 0 83.2663 13.2827 1106 111.89 1179.14 455.519
581 0 84.1025 11.3433 954 114.227 1179.76 452.01
582 0 88.144 14.0565 1239 111.374 1180.09 448.33
583 0 91.2468 13.6772 1248 111.351 1180.01 446.502
584 0 91.2507 13.6985 1250 129.577 1180.02 446.59
585 0 98.2216 14.0499 1380 110.813 1179.81 447.92
586 0 101.241 12.9691 1313 115.492 1180.53 441.139
587 0 105.386 13.2656 1398 115.155 1181.98 437.732
588 0 105.184 11.8459 1246 117.616 1182.33 437.782
589 1 54.1465 11.5058 623 113.73 1180.88 460.047
590 0 58.0765 11.6743 678 113.22 1181 459.559
591 0 57.0744 9.82927 561 117.602 1182.39 456.294
592 0 60.0935 9.9678 599 118.461 1183.33 459.633
593 0 64.1092 13.867 889 110.924 1183.69 459.191
594 0 68.2302 11.9302 814 112.838 1185.36 457.786
595 0 66.1833 11.6192 769 115.159 1185.87 459.727
596 0 75.2608 18.3495 1381 103.202 1186.32 457.235
597 0 70.1585 10.6331 746 117.895 1186.54 456.548
598 0 75.1712 13.742 1033 112.652 1187.39 457.334
599 0 76.2232 13.1587 1003 116.078 1188.43 453.368
600 0 79.0832 11.0769 876 119.137 1188.77 454.689
601 0 79.0832 11.0517 874 141.262 1187.78 454.751
602 0 86.0927 14.345 1235 114.493 1189.06 455.354
603 0 88.2295 15.369 1356 113.426 1189.81 448.08
604 0 91.1867 16.6581 1519 108.751 1189.02 452.245
605 1 50.2026 12.0113 603 109.494 1189.22 475.809
606 0 48.0616 9.67508 465 117.256 1187.16 473.987
607 0 53.0519 11.0081 584 112.875 1187.48 475.748
608 0 55.1135 16.2211 894 109.847 1187.19 472.68
609 0 57.1088 13.2554 757 114.296 1186.69 475.499
610 0 55.109 12.5388 691 139.786 1186.68 474.447
611 0 59.1374 12.3272 729 118.114 1186.46 474.609
612 0 59.0475 14.3105 845 113.613 1185.72 474.992
613 0 63.136 13.6689 863 113.868 1185.06 475.034
614 0 65.0851 12.9369 842 113.325 1184.46 475.546
615 0 67.3053 14.724 991 111.2 1183.87 472.889
616 0 67.3217 11.3039 761 117.791 1182.39 472.126
617 0 70.1625 12.072 847 117.203 1183.27 468.025
618 0 74.2594 14.7321 1094 113.168 1182.46 467.12
619 0 75.2713 11.877 894 118.199 1181.85 469.473
620 0 80.2535 15.8996 1276 112.607 1181.63 459.271
621 0 82.1746 16.9639 1394 111.808 1181.15 459.439
622 0 85.101 13.3371 1135 115.755 1182.36 464.385
623 0 88.1847 12.0656 1064 119.234 1180.66 457.596
624 0 88.1847 12.1223 1069 145.067 1178.66 457.802
625 1 49.0217 11.6071 569 115.388 1180.55 471.977
626 0 51.1452 13.0022 665 112.197 1180.64 468.06
627 0 52.1222 10.1876 531 116.723 1181.25 468.944
628 0 55.0471 12.7164 700 111.804 1179.74 469.88
629 0 55.0763 12.292 677 114.034 1180.26 468.532
630 0 59.2886 11.4693 680 115.99 1180.83 464.321
631 0 60.1009 11.6804 702 115.856 1181.77 462.709
632 0 62.1849 14.6659 912 111.061 1182.32 464.524
633 0 62.1619 12.3709 769 116.635 1184.02 460.233
634 0 66.3069 13.7241 910 113.875 1183.87 459.574
635 0 69.063 11.9311 824 118.098 1185.28 460.41
636 0 71.1974 12.5847 896 117.942 1185.17 454.152
637 0 71.1974 12.6269 899 146.058 1185.18 454.056
638 0 76.1595 15.4938 1180 111.899 1186.05 454.36
639 0 80.2244 14.422 1157 113.185 1187.17 452.317
640 0 81.3177 15.2242 1238 112.279 1187.12 452.973
641 0 84.227 15.4345 1300 111.557 1187.47 448.055
642 0 87.3965 16.4652 1439 109.221 1188.63 450.925
643 1 43.0904 7.49588 323 119.449 1188 471.461
644 0 46.0663 11.7656 542 110.856 1189.68 469.605
645 0 49.1366 10.888 535 111.09 1189.8 474.738
646 0 50.1507 12.4824 626 110.43 1189.05 470.979
647 0 51.0959 13.4844 689 108.377 1189.97 474.453
648 0 51.0959 13.5432 692 129.66 1190.96 474.379
649 0 56.262 12.9572 729 108.628 1188.26 475.134
650 0 55.1786 12.1605 671 106.344 1187.46 479.56
651 0 59.0429 12.5502 741 109.609 1188.37 471.715
652 0 60.165 11.7344 706 111.042 1188.65 470.201
653 0 67.0809 13.6402 915 106.104 1187.8 472.817
654 0 68.1403 14.294 974 108.187 1187.75 474.239
655 0 68.1403 14.3968 981 133.784 1187.74 474.32
656 0 70.1643 14.3378 1006 109.564 1187.15 468.643
657 0 71.1049 14.12 1004 110.603 1185.24 466.734
658 0 75.2155 12.1252 912 112.953 1185.57 468.81
659 0 78.3976 16.0081 1255 104.781 1184.21 471.054
660 0 82.42 14.1956 1170 125.092 1183.3 471.758
661 0 82.1783 15.2717 1255 109.305 1183.57 464.268
662 0 84.1497 16.5776 1395 107.708 1183.29 461.311
663 0 87.5258 12.4649 1091 114.201 1182.59 457.674
664 0 89.2281 12.44 1110 116.35 1182.56 453.708
665 0 92.2501 11.7507 1084 116.612 1181.33 453.033
666 0 92.2501 11.794 1088 150.237 1180.33 453.126
667 1 52.333 10.586 554 110.448 1180.94 478.995
668 0 51.0534 9.98953 510 115.42 1180.13 471.529
669 0 53.1298 12.2342 650 112.283 1179.83 468.949
670 0 55.3169 14.6067 808 108.146 1181.34 468.804
671 0 58.2025 13.7279 799 109.041 1181.55 466.84
672 0 62.4249 14.2251 888 106.322 1183.97 468.412
673 0 61.2004 11.6502 713 112.363 1182.5 465.888
674 0 65.2791 12.347 806 111.787 1183.55 461.022
675 0 63.2167 11.1521 705 114.376 1183.15 460.464
676 0 69.1751 13.9646 966 109.112 1183.98 458.061
677 0 68.262 15.7481 1075 130.361 1184.94 459.407
678 0 72.1605 14.3569 1036 108.53 1184.47 452.148
679 0 74.3402 13.1692 979 109.256 1186.03 456.716
680 0 77.2133 18.7014 1444 102.184 1187.09 452.939
681 0 80.1935 15.8242 1269 105.22 1187.6 456.035
682 0 83.2164 20.4407 1701 100.42 1187.03 447.866
683 0 83.2164 20.4407 1701 118.84 1187.03 447.866
684 0 90.3702 16.5652 1497 104.343 1188.75 452.088
685 0 89.2547 13.2654 1184 111.338 1189.91 448.918
686 0 93.2678 17.3157 1615 104.549 1189.61 452.215
687 0 93.2074 12.1986 1137 113.009 1190.27 450.717
688 1 51.0711 13.5302 691 110.59 1190.98 470.579
689 0 52.1424 13.022 679 112.19 1190.41 472.272
690 0 57.1981 15.525 888 107.218 1190.1 471.633
691 0 54.0743 14.1287 764 110.877 1190.65 470.897
692 0 58.1779 11.7399 683 116.163 1190.2 472.707
693 0 57.1312 10.4496 597 118.126 1189.61 475.084
694 0 58.1194 11.8549 689 147.554 1189.47 472.927
695 0 64.1361 12.988 833 113.657 1188.1 472.292
696 0 66.1715 14.2508 943 110.724 1188.52 472.398
697 0 68.062 15.2361 1037 110.602 1188.4 467.465
698 0 73.3697 16.042 1177 107.634 1188.16 470.081
699 0 75.1334 15.6788 1178 107.689 1186.8 467.953
700 0 76.284 14.1445 1079 110.939 1185.56 464.815
701 0 78.1037 12.4322 971 113.446 1184.77 464.091
702 0 84.2008 13.0996 1103 108.917 1183.83 464.218
703 0 88.1542 15.1893 1339 104.82 1182.64 463.441
704 1 48.098 13.9091 669 104.78 1183.15 480.67
705 0 49.1462 12.6765 623 105.204 1183.09 480.642
706 0 51.1125 13.0301 666 105.072 1182.28 478.616
707 0 51.1449 10.7147 548 107.642 1181.91 477.639
708 0 51.0914 12.918 660 105.802 1182.17 477.098
709 0 53.1963 12.2941 654 106.962 1181.92 476.765
710 0 53.0532 11.8183 627 109.359 1181.38 473.464
711 0 55.1671 12.7612 704 107.426 1182.04 471.399
712 0 59.113 13.6349 806 105.747 1180.94 469.646
713 0 60.1453 14.0659 846 104.598 1182.69 469.832
714 0 59.1422 11.3455 671 109.3 1182.22 467.39
715 0 62.0626 11.9557 742 107.644 1182.75 468.342
716 0 63.0452 13.8631 874 107.037 1182.58 461.232
717 0 68.0426 18.0916 1231 100.353 1183.06 461.423
718 0 68.0915 14.4365 983 105.448 1182.55 457.915
719 0 72.2606 12.7455 921 107.39 1183.52 459.225
720 0 71.1638 14.0661 1001 106.617 1183.78 456.976
721 0 77.1181 14.1342 1090 105.384 1184.47 458.595
722 0 77.1181 14.1212 1089 146.533 1184.46 458.521
723 0 77.1181 14.0434 1083 146.321 1184.45 458.526
724 0 77.1193 14.0432 1083 146.024 1184.45 458.526
725 0 84.2399 15.5983 1314 102.667 1186.57 451.056
726 1 45.0997 10.4214 470 104.364 1188.13 472.498
727 0 45.3224 12.8634 583 105.256 1188 464.559
728 0 50.2896 8.88852 447 107.396 1188.68 469.081
729 0 47.0999 8.70491 410 110.744 1189.25 469.744
730 0 53.1544 13.3949 712 105.331 1189.96 465.77
731 0 51.1978 12.0513 617 108.684 1190.38 462.94
732 0 54.2298 11.0456 599 109.472 1190.56 468.908
733 0 57.1043 14.2546 814 105.757 1189.69 469.729
734 0 57.1986 12.815 733 109.712 1189.28 468.158
735 0 61.1408 12.9537 792 108.91 1189.38 468.444
736 0 63.12 14.5913 921 105.562 1188.4 470.414
737 0 64.0729 12.2673 786 109.983 1189.44 469.784
738 0 67.135 14.6719 985 107.844 1187.84 468.968
739 0 69.0844 11.1458 770 112.836 1188.61 469.969
740 0 71.0689 14.6337 1040 108.83 1187.05 464.786
741 0 73.0515 13.5795 992 111.646 1187.51 465.941
742 0 77.13 13.9245 1074 110.852 1185.75 466.376
743 0 79.1017 14.513 1148 110.671 1184.68 463.696
744 0 81.1687 12.5295 1017 113.827 1184.96 460.088
745 0 81.1957 11.7617 955 115.165 1183.88 456.783
746 0 89.5074 15.6747 1403 108.51 1184.06 454.947
747 0 89.5074 15.0826 1350 130.756 1183.09 454.333
748 1 49.2041 14.6329 720 110.878 1182.88 469.686
749 0 48.229 12.8761 621 136.607 1182.98 468.192
750 0 51.056 11.693 597 117.132 1183.79 467.881
751 0 52.0538 13.2363 689 113.761 1183.3 468.392
752 0 57.1417 16.2228 927 106.855 1183.76 471.827
753 0 56.2161 12.7544 717 115.766 1182.5 466.817
754 0 61.1417 11.5142 704 114.305 1181.84 468.651
755 0 59.2049 13.4786 798 114.098 1182.5 464.416
756 0 59.2049 13.6137 806 135.184 1183.52 464.346
757 0 62.1179 11.2206 697 118.502 1183.56 463.257
758 0 67.1203 12.3807 831 116.422 1183.75 457.581
759 0 71.2639 12.7554 909 114.182 1184.13 457.829
760 0 71.1862 14.6939 1046 112.073 1185.2 456.321
761 0 73.2368 12.7532 934 115.941 1184.82 450.336
762 0 78.4248 12.9296 1014 113.627 1186.45 449.641
763 0 80.3686 13.6247 1095 113.936 1186.07 445.183
764 1 43.0401 10.5948 456 113.553 1187.57 466.667
765 0 43.0401 10.5018 452 129.232 1188.58 466.681
766 0 47.0304 13.3106 626 110.962 1187.43 462.829
767 0 48.1305 9.78589 471 117.503 1187.63 468.079
768 0 48.0889 13.0383 627 114.979 1188.11 462.949
769 0 52.1184 10.8023 563 118.258 1188.61 464.485
770 0 53.194 15.2649 812 109.613 1188.69 465.768
771 0 53.0815 15.1842 806 111.378 1188.89 464.842
772 0 57.0332 12.6417 721 114.594 1188.6 462.983
773 0 58.1862 12.649 736 114.442 1188.39 466.25
774 0 61.2135 17.0224 1042 108.359 1190.36 463.679
775 0 58.0548 12.1093 703 116.201 1190.67 466.888
776 0 62.2799 13.2145 823 114.056 1190.72 468.045
777 0 61.2751 12.2888 753 116.781 1189.56 468.789
778 0 61.2751 12.3052 754 141.289 1189.57 468.85
779 0 69.1559 12.4935 864 117.394 1188.57 466.872
780 0 69.1649 16.3667 1132 111.126 1188.79 467.412
781 0 72.1061 13.605 981 116.803 1187.7 463.33
782 0 73.141 10.1038 739 121.708 1188.03 467.811
783 0 76.1228 12.4404 947 119.838 1189.13 462.788
784 0 82.2037 13.4544 1106 115.885 1187.44 465.975
785 0 81.0952 12.4175 1007 120.858 1187.25 458.083
786 0 83.2968 12.4855 1040 118.774 1186.78 461.739
787 1 44.0506 10.329 455 120.369 1186.13 475.358
788 0 46.0251 13.3405 614 115.357 1185.71 476.409
789 0 48.1106 16.275 783 110.059 1184.45 472.754
790 0 50.1728 12.5566 630 116.4 1185.81 474.071
791 0 52.0337 12.1844 634 117.535 1184.36 471.95
792 0 51.1321 10.8738 556 120.433 1185.53 471.752
793 0 53.2494 9.99073 532 125.665 1184.16 470.895
794 0 60.228 12.4527 750 118.42 1183.47 470.139
795 0 59.1518 11.3099 669 123.027 1183.81 465.139
796 0 62.1889 13.2178 822 117.423 1183.98 466.682
797 0 64.2003 14.5171 932 115.925 1183.6 463.513
798 0 64.0874 15.4476 990 116.062 1182.73 457.052
799 0 66.093 11.3779 752 121.936 1182.36 454.826
800 0 69.1491 12.972 897 118.968 1183.88 454.893
801 0 73.0761 14.9296 1091 116.214 1183.33 448.731
802 0 73.2638 14.3318 1050 119.593 1184.14 443.498
803 0 75.284 15.1294 1139 116.62 1185.42 449.497
804 0 79.4883 20.4433 1625 107.196 1185.39 454.441
805 0 77.1485 13.0139 1004 123.626 1185.69 447.999
806 0 81.1719 14.303 1161 120.332 1185.84 446.189
807 0 84.2169 13.1446 1107 122.089 1187.07 449.645
808 1 46.0843 10.177 469 124.113 1186.68 464.774
809 0 50.1965 12.4311 624 118.665 1187.04 466.095
810 0 51.4211 11.7073 602 120.992 1188.37 458.522
811 0 54.2551 12.5149 679 119.907 1189.47 458.583
812 0 53.1691 11.5481 614 125.816 1191.12 459.86
813 0 56.1232 16.0896 903 117.298 1191.17 456.841
814 0 58.098 12.9264 751 123.49 1190.91 459.787
815 0 62.3274 15.8357 987 116.463 1191.78 462.102
816 0 62.1514 15.2531 948 119.051 1191.08 460.484
817 0 62.1651 12.5955 783 125.672 1191.28 459.995
818 0 64.2842 11.6981 752 126.811 1190.29 462.493
819 0 67.1648 14.3081 961 123.225 1190.27 461.226
820 0 71.4082 16.8888 1206 117.269 1190.2 463.138
821 0 72.4756 14.46 1048 122.334 1189.66 462.114
822 0 74.2285 13.8761 1030 123.869 1189.32 464.131
823 0 77.5026 17.251 1337 117.709 1189.98 461.172
824 0 75.1311 11.9791 900 129.194 1188.5 458.697
825 0 79.1429 11.056 875 128.695 1188.01 459.848
826 0 82.2191 12.0775 993 127.064 1187.83 456.425
827 0 87.1594 15.2709 1331 119.597 1188.25 458.157
828 0 88.263 14.6607 1294 120.4 1188.02 458.581
829 0 87.1384 12.7613 1112 127.572 1186.9 451.445
830 0 93.1441 14.7835 1377 123.311 1186.07 451.348
831 1 54.0956 11.2394 608 123.265 1186.16 473.281
832 0 52.11 9.80617 511 123.571 1184.81 473.08
833 0 55.1009 14.4644 797 117.044 1184.07 468.422
834 0 57.1777 12.6448 723 120.555 1184.71 467.31
835 0 58.0862 11.3108 657 126.178 1184.51 466.521
836 0 62.1217 14.3106 889 119.105 1184.63 465.641
837 0 63.1009 13.2803 838 120.881 1184.6 462.431
838 0 62.0801 12.049 748 124.705 1183.89 460.754
839 0 69.2109 11.9201 825 122.297 1183.86 458.964
840 0 70.1437 13.344 936 120.509 1183.77 455.739
841 0 74.1673 14.4268 1070 117.281 1183.69 456.377
842 0 74.0952 14.7378 1092 118.541 1183.9 451.591
843 0 78.2443 12.3715 968 122.165 1184.91 451.397
844 0 79.1549 13.2778 1051 122.283 1185.13 448.512
845 1 44.0988 10.227 451 121.126 1185.6 469.35
846 0 45.1534 11.6713 527 120.027 1185.79 467.334
847 0 43.2311 12.4447 538 120.818 1186.01 462.086
848 0 44.0713 9.96112 439 123.907 1186.17 463.267
849 0 45.0589 10.4086 469 122.638 1187.75 464.079
850 0 45.0458 10.9666 494 123.913 1187.97 461.775
851 0 48.0786 10.0876 485 124.823 1188.48 461.157
852 0 50.0503 10.6293 532 122.402 1188.17 463.41
853 0 50.1905 9.38425 471 125.677 1189.12 463.011
854 0 53.0692 13.0773 694 119.05 1188.95 461.527
855 0 53.0527 14.7401 782 117.699 1190.01 458.253
856 0 56.0644 13.538 759 119.115 1190.6 458.809
857 0 58.1846 11.5494 672 123.497 1190.8 459.902
858 0 60.3066 10.6456 642 125.002 1189.46 462.654
859 0 60.2225 13.3671 805 121.12 1190.58 460.74
860 0 64.2208 13.4536 864 121.572 1191.16 460.896
861 0 66.2538 14.203 941 120.606 1191.16 459.155
862 0 67.2279 14.0715 946 122.027 1190.06 458.942
863 0 71.208 14.8719 1059 118.808 1191.14 462.518
864 0 72.2727 14.5006 1048 120.323 1190.37 461.448
865 0 76.3074 16.3811 1250 116.702 1190.46 459.426
866 0 77.2 13.329 1029 122.989 1189.96 459.927
867 0 77.2683 11.6477 900 126.004 1189.62 458.869
868 1 38.2601 9.35701 358 122.603 1187.87 476.771
869 0 38.2503 9.46398 362 133.834 1184.83 476.829
870 0 42.0667 10.9588 461 120.57 1188.69 475.651
871 0 42.0481 12.1052 509 122.004 1189.18 475.448
872 0 42.0481 12.0814 508 141.656 1189.16 475.455
873 0 46.0886 15.1881 700 116.307 1186.51 474.33
874 0 48.0226 14.16 680 116.699 1186.17 476.344
875 0 49.1356 13.2287 650 118.88 1185.87 471.535
876 0 49.1526 13.1631 647 134.175 1185.88 471.546
877 0 52.0487 11.9888 624 124.51 1184.82 470.074
878 0 54.1215 11.5481 625 124.45 1183.89 468.562
879 0 54.0586 12.6899 686 122.87 1185.04 466.727
880 0 56.0413 15.2566 855 115.609 1184.89 469.051
881 0 58.1033 14.7152 855 118.412 1184.81 464.67
882 0 61.0848 11.9342 729 122.613 1184.29 464.848
883 0 62.0841 13.2723 824 121.159 1184.27 460.692
884 0 64.1176 13.3817 858 120.298 1184.7 462.794
885 0 66.0496 14.0198 926 119.91 1184.95 459.832
886 0 65.0411 12.2538 797 122.851 1184.33 460.482
887 0 69.1198 12.5724 869 123.817 1185.63 457.831
888 0 72.1476 13.6664 986 120.199 1185.73 457.078
889 0 74.0827 12.0676 894 125.094 1185.49 450.813
890 0 76.1318 13.6737 1041 121.819 1186.78 449.768
891 0 76.1318 13.5817 1034 136.557 1187.76 449.595
892 1 42.0764 11.7405 494 118.413 1187.63 465.794
893 0 42.0202 8.7577 368 127.712 1188.44 464.47
894 0 46.1037 12.5153 577 120.667 1187.02 465.414
895 0 47.1733 10.6416 502 127.602 1188.67 463.155
896 0 47.185 11.5291 544 126.358 1190.7 466.094
897 0 50.2861 13.9601 702 120.444 1190.89 465.551
898 0 52.224 13.4804 704 121.378 1190.32 463.53
899 0 53.196 13.5537 721 121.11 1191.14 466.103
900 0 54.3507 13.4681 732 122.434 1191.95 464.784
901 0 53.2755 12.6137 672 126.302 1192.3 466.725
902 0 57.262 14.163 811 122.65 1192.05 461.699
903 0 62.1493 14.3525 892 120.286 1192.23 465.276
904 0 63.1816 13.4374 849 123.192 1191.87 464.36
905 0 63.1779 14.293 903 121.863 1192.55 467.62
906 0 66.0686 12.6838 838 124.081 1192.76 468.245
907 0 67.1943 12.129 815 125.402 1192.16 468.804
908 0 69.2081 13.3221 922 122.374 1192.23 469.795
909 0 71.2666 13.8915 990 121.727 1191.44 464.144
910 0 75.1512 14.5174 1091 118.845 1190.73 466.003
911 0 78.2615 17.9654 1406 112.224 1190.36 465.324
912 0 81.2174 15.1445 1230 116.06 1189.67 465.431
913 0 81.1363 13.1384 1066 121.292 1189.12 463.759
914 0 85.1412 13.6479 1162 121.728 1188.81 460.238
915 0 86.267 13.8755 1197 121.974 1187.85 458.36
916 1 50.1789 10.1437 509 120.44 1187.69 481.006
917 0 50.1244 11.0126 552 123.824 1186.88 469.924
918 0 56.2093 12.2044 686 118.321 1186.6 475.348
919 0 53.0965 10.7352 570 124.642 1185.07 472.296
920 0 56.1028 11.7285 658 121.336 1184.63 471.824
921 0 59.0943 13.9607 825 116.229 1184.48 469.554
922 0 60.1272 13.5546 815 119.494 1184.47 467.529
923 0 63.2569 13.9273 881 117.662 1183.94 468.148
924 0 62.2736 12.3327 768 121.388 1184.3 464.927
925 0 63.274 12.2641 776 144.506 1184.28 464.595
926 0 70.2557 13.6786 961 114.417 1184.45 465.804
927 0 68.0804 12.0887 823 118.163 1183.8 462.559
928 0 70.116 16.0306 1124 110.343 1184.55 461.287
929 0 76.1646 14.1667 1079 113.481 1184.14 458.363
930 0 78.2943 13.5259 1059 113.996 1185.07 457.529
931 0 78.2943 13.4109 1050 139.75 1185.06 457.501
932 0 83.1768 15.1485 1260 113.482 1187.03 447.901
933 0 87.2429 13.4452 1173 115.126 1186.76 447.5
934 1 45.1078 9.68791 437 120.158 1187.48 459.213
935 0 51.0469 10.2259 522 116.117 1188.59 457.793
936 0 50.0578 10.2282 512 115.635 1187.19 455.076
937 0 52.1194 13.1045 683 114.58 1186.9 458.217
938 0 51.0865 10.629 543 120.238 1187.3 460.112
939 0 57.1344 14.8072 846 110.537 1188.25 460.069
940 0 59.1349 14.0357 830 111.452 1188.69 460.575
941 0 58.1194 11.3043 657 115.831 1188.94 459.426
942 0 61.2047 14.1819 868 111.412 1189.11 459.453
943 0 63.2029 11.5185 728 115.511 1190.1 460.765
944 0 64.1362 12.3019 789 113.421 1191.26 461.733
945 0 69.2317 13.0432 903 112.592 1190.66 461.475
946 0 70.2944 12.4761 877 112.763 1190.79 462.534
947 0 77.2345 12.7922 988 110.914 1191.42 463.041
948 0 77.2304 12.2491 946 115.124 1191.33 458.987
949 0 79.2644 12.5655 996 114.708 1191.41 463.551
950 0 84.3361 13.0905 1104 114.918 1191.7 460.601
951 0 85.6339 17.7266 1518 107.944 1191.19 459.984
952 1 46.2714 10.3736 480 113.698 1192.01 478.84
953 0 49.2937 10.8939 537 115.92 1191.27 475.168
954 0 48.1796 8.21925 396 115.97 1190.24 474.452
955 0 49.2215 12.1695 599 113.022 1190.06 470.838
956 0 52.2932 13.5008 706 111.035 1188.36 468.943
957 0 54.2377 12.9615 703 116.119 1188.9 471.754
958 0 55.1171 10.4323 575 120.711 1187.75 475.536
959 0 58.2677 12.7172 741 117.821 1187.29 472.877
960 0 58.1333 13.3314 775 117.655 1186.07 472.969
961 0 59.1033 11.6237 687 118.279 1185.77 476.295
962 0 62.2153 13.8069 859 114.158 1186.6 472.403
963 0 64.2479 14.1639 910 113.447 1184.57 471.034
964 0 64.2479 14.2417 915 137.59 1182.58 471.098
965 0 68.1787 13.67 932 115.907 1184.2 466.563
966 0 69.191 12.9063 893 118.142 1183.89 464.496
967 0 71.195 13.8353 985 115.349 1184.29 465.488
968 0 71.2284 12.5933 897 119.151 1183.26 461.957
969 0 76.2027 15.8918 1211 112.848 1183.53 459.796
970 0 78.1752 13.9686 1092 116.755 1183.47 457.57
971 0 79.2524 14.7377 1168 116.269 1183.43 455.785
972 0 83.151 15.105 1256 114.95 1184.48 454.742
973 0 87.3725 14.3066 1250 113.028 1185.19 460.116
974 0 87.1611 16.1425 1407 116.886 1185.17 448.982
975 0 88.2652 14.6717 1295 118.897 1184.55 444.32
976 0 94.1754 13.7722 1297 119.864 1185.9 442.124
977 1 49.1877 10.9987 541 123.057 1187.96 466.939
978 0 50.0585 16.8802 845 114.381 1188.44 465.449
979 0 53.224 12.9829 691 120.683 1188.1 460.288
980 0 55.2136 16.6988 922 112.253 1188.85 460.575
981 0 56.1578 14.6195 821 116.669 1188.26 461.815
982 0 56.2242 13.624 766 118.796 1188.84 464.189
983 0 62.2473 11.4543 713 124.16 1189.9 463.15
984 0 61.2568 12.6353 774 123.398 1189.67 460.134
985 0 66.45 15.2145 1011 117.065 1191.37 461.066
986 0 69.2347 11.8293 819 121.402 1191.87 462.604
987 0 65.1567 14.8565 968 120.018 1191.17 455.602
988 0 68.4054 11.885 813 125.273 1192.3 458.041
989 0 69.215 13.3353 923 126.222 1192.15 459.291
990 0 71.288 12.9755 925 126.648 1191.8 456.61
991 0 72.2222 14.2477 1029 125.362 1191.4 456.515
992 0 75.3611 12.9775 978 125.844 1191.77 460.127
993 0 78.2448 12.0264 941 126.528 1191.38 459.064
994 0 81.5393 14.165 1155 122.041 1190.85 459.299
995 0 83.3184 13.3584 1113 121.581 1190.36 457.377
996 0 87.4756 14.0496 1229 120.313 1190.68 460.41
997 0 91.5485 17.1603 1571 114.354 1189.5 458.787
998 0 95.7016 16.6559 1594 115.288 1188.9 460
999 0 94.2103 13.7246 1293 120.059 1188.93 460.871
1000 1 51.344 8.76441 450 125.916 1186.98 471.671
1001 0 53.2495 10.0846 537 121.201 1187.2 474.223
1002 0 53.3357 10.6308 567 122.979 1186.38 471.928
1003 0 58.1612 14.03 816 116.528 1185.84 470.979
1004 0 60.1451 15.845 953 113.495 1184.5 470.508
1005 0 61.1368 14.9337 913 113.659 1183.9 470.958
1006 0 61.3014 14.4042 883 116.245 1183.69 468.844
1007 0 64.2522 14.3964 925 115.56 1183.63 466.602
1008 0 67.2616 13.4995 908 116.885 1182.82 467.023
1009 0 68.3299 11.6494 796 118.702 1183.36 465.464
1010 0 71.277 13.3984 955 116.337 1183.2 462.279
1011 0 71.2473 16.4357 1171 111.434 1184.38 462.596
1012 0 72.1702 12.3874 894 117.789 1184.54 462.275
1013 0 74.293 11.9258 886 119.37 1183.81 458.043
1014 0 75.361 12.261 924 119.675 1184.74 451.665
1015 0 80.5027 14.3349 1154 114.465 1184.14 453.73
1016 0 82.3563 12.0452 992 119.265 1185.71 449.326
1017 0 86.5346 13.9944 1211 113.583 1184.63 453.363
1018 0 84.503 12.1653 1028 119.219 1185.43 446.326
1019 1 51.1243 11.9513 611 113.56 1185.25 464.936
1020 0 50.0915 11.6786 585 112.998 1185.13 464.116
1021 0 51.2265 10.5024 538 113.66 1187.17 454.911
1022 0 57.1703 11.9642 684 111.509 1186.19 456.33
1023 0 58.0846 14.5305 844 108.368 1186.41 456.819
1024 0 59.0768 17.8581 1055 104.284 1186.86 458.22
1025 0 58.2992 11.3895 664 115.301 1188.42 458.244
1026 0 59.2627 13.8704 822 110.19 1188.36 462.011
1027 0 60.1279 12.9225 777 114.015 1190.02 459.644
1028 0 60.1285 12.9556 779 128.788 1191.01 459.692
1029 0 66.3549 16.2008 1075 107.338 1191.8 459.012
1030 0 67.1711 13.0562 877 113.908 1192.03 454.067
1031 0 69.2851 12.1238 840 115.204 1191.81 456.942
1032 0 71.2565 14.539 1036 111.861 1191.8 452.97
1033 0 74.2693 13.3433 991 114.694 1191.76 455.327
1034 0 75.4122 14.0826 1062 112.634 1191.26 459.136
1035 0 80.2254 11.2932 906 117.913 1191.79 457.733
1036 0 83.2905 15.2118 1267 112.169 1189.62 456.161
1037 0 84.1845 13.4585 1133 115.355 1190.59 455.538
1038 0 86.4038 13.8999 1201 116.111 1190.47 455.866
1039 0 88.1754 12.0102 1059 119.539 1189.83 452.534
1040 0 96.3478 14.2608 1374 113.61 1189.96 456.943
1041 0 93.4873 10.1832 952 121.877 1190.09 451.658
1042 1 49.04 9.62479 472 120.82 1188.69 475.771
1043 0 53.1736 12.4498 662 114.733 1188.34 479.444
1044 0 51.2793 11.2911 579 119.256 1186.18 474.784
1045 0 54.1868 10.3531 561 120.043 1187.07 475.002
1046 0 57.2482 12.5069 716 115.282 1186.87 473.391
1047 0 57.1664 11.8776 679 117.049 1186.08 470.756
1048 0 62.1603 16.4092 1020 108.696 1184.47 467.853
1049 0 64.2187 10.6823 686 117.742 1184.37 468.557
1050 0 65.1023 13.0871 852 113.554 1183.91 468.69
1051 0 67.2628 14.1534 952 111.88 1184.27 467.155
1052 0 68.1424 12.2244 833 115.067 1183.83 466.149
1053 0 71.1322 15.0284 1069 111.123 1184.17 461.578
1054 0 72.1396 15.7611 1137 110.354 1184.19 462.791
1055 0 73.2472 12.41 909 115.954 1183.88 458.668
1056 0 78.1605 15.9672 1248 110.74 1183.82 456.091
1057 0 80.1051 12.5585 1006 117.131 1184.52 455.824
1058 0 83.1572 13.0476 1085 115.842 1184.18 454.075
1059 0 85.1513 15.3374 1306 113.723 1184.21 450.711
1060 0 90.1054 17.8458 1608 108.273 1185.17 450.994
1061 0 91.0998 16.7509 1526 111.043 1184.97 446.533
1062 0 96.2854 14.8621 1431 111.444 1184.87 451.227
1063 0 97.2613 17.3039 1683 111.267 1185.73 440.363
1064 0 100.303 14.4961 1454 115.688 1186.42 443.182
1065 1 52.1136 12.1082 631 116.577 1187.23 464.8
1066 0 57.1757 10.6339 608 116.227 1187.25 466.536
1067 0 58.1527 13.9976 814 111.797 1186.6 459.533
1068 0 60.3027 16.5167 996 106.887 1187.99 464.394
1069 0 61.1512 16.1076 985 109.028 1188.21 461.477
1070 0 63.0475 16.1624 1019 109.485 1188.93 459.863
1071 0 65.0853 15.9329 1037 109.636 1189.31 462.424
1072 0 65.1955 16.2588 1060 109.13 1189.49 462.355
1073 0 67.2805 14.4916 975 113.641 1190.5 459.511
1074 0 71.2112 16.9215 1205 107.248 1191.91 467.166
1075 0 71.2112 16.8934 1203 143.147 1193.95 467.059
1076 0 75.2129 15.2368 1146 109.723 1191.07 461.326
1077 0 76.3387 15.8111 1207 111.236 1191.51 459.146
1078 0 80.2783 16.1687 1298 111.25 1190.91 460.513
1079 0 84.291 14.6279 1233 114.127 1192.04 461.278
1080 0 84.2692 15.4861 1305 114.898 1190.87 459.833
1081 0 84.4462 15.0392 1270 115.413 1190.71 460.861
1082 0 88.203 13.4349 1185 118.672 1190.41 459.863
1083 0 88.203 13.2535 1169 151.501 1189.39 460.051
1084 0 95.6717 15.8772 1519 114.559 1189.62 456.779
1085 0 100.375 12.9415 1299 120.336 1189.46 451.527
1086 0 101.369 16.5731 1680 115.817 1189.22 448.14
1087 0 101.369 16.4843 1671 144.831 1189.23 448.175
1088 0 106.386 15.4155 1640 116.633 1186.05 449.605
1089 0 109.547 13.428 1471 119.623 1185.42 449.203
1090 1 62.3113 12.8227 799 114.667 1185.16 471.892
1091 0 65.8101 14.4203 949 112.557 1184.7 467.321
1092 0 64.4043 11.226 723 119.263 1184.08 468.831
1093 0 64.2788 13.0214 837 116.945 1183.57 467.123
1094 0 70.2889 13.8571 974 115 1183.05 459.37
1095 0 73.3867 16.2291 1191 109.068 1183.04 467.423
1096 0 73.778 11.8057 871 117.496 1182.48 462.661
1097 0 78.8772 14.7571 1164 111.811 1182.58 463.044
1098 0 78.8772 14.8459 1171 139.26 1183.59 463.038
1099 0 80.4588 16.0703 1293 111.28 1182.8 453.056
1100 0 82.4147 14.7425 1215 114.248 1182.8 452.01
1101 0 85.2758 15.0922 1287 114.172 1182.82 451.114
1102 0 86.2463 14.5977 1259 116.083 1183.06 446.176
1103 0 89.6384 14.4469 1295 115.28 1183.55 449.345
1104 0 91.3461 14.352 1311 114.927 1184.79 446.708
1105 0 91.4065 10.5901 968 121.894 1184.16 442.869
1106 0 96.5294 13.198 1274 115.794 1184.81 444.001
1107 0 99.3923 12.7676 1269 118.626 1184.7 437.121
1108 0 104.394 15.5278 1621 113.244 1186.05 439.17
1109 0 107.416 11.8511 1273 118.614 1186.65 437.45
1110 0 112.67 15.8694 1788 111.658 1187.42 431.919
1111 0 111.62 15.0242 1677 141.795 1188.43 430.521
1112 1 58.2565 14.6422 853 109.892 1189.51 458.933
1113 0 61.2062 12.2537 750 112.596 1189.28 458.805
1114 0 64.1449 12.1912 782 112.922 1189.13 458.137
1115 0 65.0791 14.3057 931 110.183 1190.18 460.097
1116 0 66.2243 13.258 878 112.339 1190.32 457.189
1117 0 67.0572 8.24669 553 118.362 1190.19 461.57
1118 0 71.2279 16.1875 1153 107.351 1190.77 458.205
1119 0 76.1791 16.1199 1228 105.733 1190.47 456.85
1120 0 76.1702 11.5925 883 114.335 1190.3 456.416
1121 0 72.141 11.6161 838 116.501 1190.26 452.181
1122 0 81.4622 12.4475 1014 113.593 1190.25 456.179
1123 0 85.3466 14.529 1240 109.782 1189.62 456.206
1124 0 85.3466 14.5173 1239 124.779 1188.62 456.316
1125 0 89.2804 13.6312 1217 112.737 1188.78 451.991
1126 0 90.3185 14.8032 1337 110.984 1189.09 448.964
1127 0 93.2519 12.9327 1206 113.818 1188.89 452.367
1128 0 98.166 14.9033 1463 109.763 1187.57 452.605
1129 0 98.166 14.8626 1459 123.108 1186.57 452.452
1130 1 56.0728 14.6595 822 108.608 1186.49 471.614
1131 0 58.1547 11.5898 674 111.328 1186.1 477.191
1132 0 61.1208 12.0744 738 112.019 1183.11 469.362
1133 0 62.1737 12.5455 780 112.877 1183.83 466.714
1134 0 63.137 12.0848 763 112.754 1182.51 466.028
1135 0 62.1068 10.6591 662 117.779 1183.22 465.19
1136 0 69.1536 9.90549 685 116.191 1182.86 465.124
1137 0 60.139 8.49698 511 119.787 1182.72 463.585
1138 0 60.1437 8.42981 507 127.586 1182.75 463.787
1139 0 60.1501 8.51204 512 126.893 1182.68 463.725
1140 1 73.3491 11.9702 878 114.309 1181.47 459.843
1141 0 73.1546 11.7423 859 116.949 1181.22 456.057
1142 0 83.4453 12.655 1056 113.711 1180.27 455.06
1143 0 79.3917 12.2053 969 142.282 1179.33 453.329
1144 0 85.2966 10.4342 890 117.451 1180.78 455.153
1145 0 86.214 11.7846 1016 118.459 1181.69 445.112
1146 0 86.1547 12.907 1112 117.377 1181.93 446.613
1147 0 94.254 13.1878 1243 116.228 1181.96 444.452
1148 0 97.1856 9.20919 895 121.966 1182.73 446.964
1149 0 98.297 15.1378 1488 114.218 1183.45 441.226
1150 0 102.418 12.1854 1248 118.951 1183.1 438.287
1151 0 105.33 11.839 1247 120.908 1183.9 434.966
1152 0 105.33 11.9814 1262 145.628 1183.9 434.95
1153 0 109.217 10.5569 1153 126.093 1185.39 434.696
1154 0 114.39 14.0485 1607 120.62 1187.04 432.671
1155 0 119.282 13.2627 1582 122.942 1186.76 425.214
1156 0 122.308 12.0761 1477 124.171 1186.87 430.989
1157 0 126.201 13.9618 1762 119.152 1188.01 434.685
1158 1 70.147 9.67967 679 124.993 1187.02 456.323
1159 0 75.2001 10.984 826 124.042 1189.27 453.946
1160 0 74.2892 11.2129 833 124.713 1188.74 453.675
1161 0 78.322 11.5421 904 125.037 1190.61 453.243
1162 0 77.2878 12.3952 958 122.537 1188.99 456.396
1163 0 81.2912 10.7638 875 125.611 1190.46 455.233
1164 0 85.1552 13.6692 1164 121.424 1189.95 454.917
1165 0 86.4013 11.2614 973 126.946 1190.45 454.707
1166 0 89.2147 10.2001 910 130.738 1189.95 451.965
1167 0 92.2159 12.5575 1158 126.791 1189.32 452.8
1168 0 92.2159 13.4575 1241 149.317 1188.31 454.001
1169 0 100.169 13.2776 1330 124.846 1188.4 454.788
1170 0 103.177 13.1037 1352 125.361 1188.22 449.542
1171 0 103.327 14.0525 1452 126.418 1188.26 449.984
1172 0 106.356 13.0411 1387 128.203 1186.96 443.45
1173 0 113.405 14.4791 1642 124.276 1186.6 446.226
1174 0 114.247 13.1469 1502 128.3 1185.78 444.498
1175 0 119.32 13.1244 1566 127.334 1184.21 443.315
1176 0 122.465 12.1912 1493 130.215 1184.61 439.947
1177 1 71.0745 10.6086 754 118.934 1184.38 471.054
1178 0 73.0933 11.5606 845 117.67 1183.55 466.556
1179 0 76.132 13.3321 1015 114.947 1183.16 470.767
1180 0 79.0903 11.4553 906 118.556 1182.75 469.233
1181 0 81.2884 10.9364 889 119.679 1181.95 468.281
1182 0 81.0375 12.8089 1038 120.003 1181.07 460.257
1183 0 86.0834 14.1723 1220 117.763 1181.29 457.961
1184 0 89.1813 15.7993 1409 117.273 1182.56 456.774
1185 0 93.1112 14.1122 1314 118.448 1182.28 458.037
1186 0 95.2779 12.1854 1161 122.028 1181.66 451.926
1187 0 93.257 14.2831 1332 129.255 1181.68 454.288
1188 0 96.2762 11.9136 1147 125.461 1182.21 441.664
1189 0 99.1912 10.7368 1065 126.35 1181.43 444.792
1190 0 106.303 12.3892 1317 121.742 1182.05 444.809
1191 0 108.246 12.139 1314 122.479 1183 441.391
1192 0 110.188 11.9976 1322 124.617 1182.98 433.172
1193 1 63.1837 11.5536 730 116.656 1183.49 460.999
1194 0 62.182 10.2763 639 116.714 1184.26 464.272
1195 0 61.1549 10.0891 617 119.366 1184.66 460.002
1196 0 68.1748 12.7173 867 113.316 1186.19 458.634
1197 0 68.2028 12.4482 849 117.244 1188.01 453.908
1198 0 68.2028 12.5215 854 116.633 1189.02 453.838
1199 1 130.299 11.4659 1494 123.843 1187.74 422.442
1200 0 130.25 11.478 1495 130.011 1187.75 422.568
1201 1 76.1443 10.3225 786 118.849 1188.12 452.145
1202 0 78.1068 11.6123 907 116.932 1188.66 456.766
1203 0 82.1383 12.4668 1024 117.817 1190.25 452.463
1204 0 82.0875 16.0073 1314 114.79 1191.27 452.381
1205 0 84.1615 12.2503 1031 120.45 1191.39 452.678
1206 0 87.1001 11.0792 965 122.269 1191.83 451.27
1207 0 92.1937 13.9489 1286 115.144 1191.39 452.482
1208 0 95.1682 12.6723 1206 117.018 1190.71 454.161
1209 0 94.1205 13.8227 1301 116.404 1190.72 454.591
1210 0 97.1717 11.7112 1138 120.149 1190.83 451.494
1211 0 100.198 9.92036 994 122.277 1190.13 457.338
1212 0 106.215 11.5143 1223 119.392 1190.33 455.652
1213 0 109.266 10.8177 1182 122.039 1189.68 451.468
1214 0 110.223 11.4948 1267 121.299 1189.3 448.464
1215 0 110.313 9.55464 1054 126.271 1187.87 443.333
1216 1 67.2475 13.1306 883 114.703 1186.33 472.785
1217 0 67.1938 8.00669 538 122.182 1186.69 472.792
1218 0 73.1769 14.7587 1080 111.563 1186.15 470.13
1219 0 73.1769 14.7314 1078 120.909 1186.13 470.083
1220 0 74.1716 12.0801 896 118.267 1183.88 462.84
1221 0 76.1579 11.463 873 118.17 1183.06 466.238
1222 0 80.345 10.8283 870 119.671 1183.28 464.424
1223 0 82.1386 12.9537 1064 115.654 1182.47 463.729
1224 0 82.1386 12.8928 1059 129.369 1182.46 463.698
1225 0 92.2572 13.8851 1281 112.507 1182.89 462.905
1226 0 91.1766 12.0645 1100 116.995 1182.57 459.01
1227 0 93.3089 12.2604 1144 118.136 1181.99 452.531
1228 0 95.3848 11.2177 1070 120.365 1182.34 449.966
1229 1 59.1172 11.6886 691 114.583 1182.26 471.12
1230 0 57.0783 11.1951 639 113.621 1182.94 471.48
1231 0 54.2555 10.1556 551 116.298 1183.07 463.771
1232 0 57.0814 11.1945 639 114.518 1182.05 466.045
1233 0 59.0725 11.5959 685 114.907 1183.84 462.93
1234 0 58.3169 11.1289 649 116.145 1183.32 460.445
1235 0 63.1034 10.776 680 115.394 1183.99 458.646
1236 0 63.1034 10.7918 681 120.963 1183.99 458.771
1237 0 67.0924 12.5648 843 114.325 1185.24 457.613
1238 0 70.0785 10.9306 766 116.198 1185.33 455.146
1239 0 72.3072 11.5341 834 117.034 1185.93 454.185
1240 0 73.1235 10.3113 754 120.554 1187.24 450.61
1241 0 76.2078 13.437 1024 115.001 1188.28 449.379
1242 0 79.3089 11.4363 907 118.083 1188.81 450.338
1243 0 75.2252 10.3689 780 121.226 1189.22 448.65
1244 0 75.281 10.3745 781 134.305 1189.22 448.766
1245 1 48.1017 9.00177 433 115.187 1189.68 470.961
1246 0 47.068 8.83827 416 116.837 1190.76 469.438
1247 0 50.088 13.2766 665 110.818 1191.12 471.251
1248 0 50.0695 13.3015 666 118.67 1192.11 471.119
1249 0 54.0903 12.6825 686 111.501 1191.22 471.516
1250 0 56.0355 11.6712 654 118.07 1193.22 470.934
1251 0 59.1457 14.9631 885 112.36 1192.37 470.545
1252 0 60.1121 14.972 900 112.85 1192.13 473.112
1253 0 62.0955 12.6901 788 116.503 1190.86 472.034
1254 0 61.0528 14.0698 859 115.243 1191.15 474.114
1255 0 65.0718 12.6168 821 118.571 1189.87 469.512
1256 0 67.1358 13.8823 932 116.374 1189.04 471.237
1257 0 71.0837 17.1066 1216 111.792 1188.32 468.453
1258 0 72.1484 13.1257 947 117.427 1188.63 472.494
1259 0 76.1388 16.1284 1228 113.533 1188.11 468.506
1260 0 73.0456 10.6372 777 124.916 1186.81 465.51
1261 0 78.1083 15.2481 1191 116.772 1185.45 466.668
1262 0 78.0699 13.1293 1025 122.311 1185.78 461.97
1263 1 47.0998 11.3801 536 119.901 1184.93 481.925
1264 0 47.0998 11.2315 529 137.764 1184.96 481.957
1265 0 47.0316 11.3328 533 121.739 1182.81 477.942
1266 0 50.1033 14.3903 721 118.537 1183.18 474.864
1267 0 51.0488 12.7721 652 119.376 1183.17 478.847
1268 0 53.079 12.2647 651 121.826 1183.93 470.146
1269 0 53.079 12.3966 658 141.173 1183.88 470.24
1270 0 55.1848 11.9598 660 122.655 1182.62 469.662
1271 0 57.0762 13.298 759 119.935 1183.52 468.349
1272 0 58.0522 16.3474 949 118.138 1181.98 469.154
1273 0 60.1285 14.9846 901 121.687 1182.04 465.321
1274 0 61.0415 15.8908 970 117.666 1181.61 469.857
1275 0 61.0991 13.6009 831 125.316 1182.62 462.894
1276 0 64.2587 16.5581 1064 117.813 1182.83 465.843
1277 0 66.0684 16.8613 1114 118.716 1183.76 460.873
1278 0 68.1342 15.4988 1056 119.056 1184.08 463.75
1279 0 69.1857 12.7628 883 125.035 1184.36 458.964
1280 0 73.201 13.5517 992 124.942 1185.26 456.109
1281 0 73.1534 14.1347 1034 125.505 1186.04 455.372
1282 0 76.1068 13.192 1004 126.908 1187.14 456.15
1283 0 79.3637 14.2887 1134 127.071 1188.42 451.239
1284 0 85.2094 13.9421 1188 128.198 1188.26 449.573
1285 0 84.1385 15.3794 1294 126.634 1189.1 446.386
1286 0 87.2282 17.4943 1526 123.619 1189.89 446.378
1287 0 89.3751 13.807 1234 130.466 1190.56 445.349
1288 0 90.3766 16.7632 1515 142.665 1191.71 448.931
1289 0 92.1085 13.1041 1207 133.476 1191.46 442.054
1290 0 92.1085 13.1801 1214 154.572 1190.46 441.994
1291 0 99.2033 12.2274 1213 133.998 1191.79 447.912
1292 0 102.25 15.6088 1596 128.355 1190.64 443.706
1293 0 106.292 14.2627 1516 130.402 1190.9 445.592
1294 0 108.116 14.207 1536 130.868 1190.85 446.391
1295 0 110.33 13.9038 1534 132.372 1190.06 450.344
1296 0 117.206 14.8712 1743 131.778 1189.26 441.536
1297 0 119.272 14.7311 1757 131.176 1189.48 446.411
1298 0 124.391 15.7086 1954 129.538 1189.6 444.878
1299 0 128.287 13.883 1781 133.327 1189.09 444.973
1300 1 253.737 12.1701 3088 141.18 1188.03 392.522
1301 1 80.099 9.20112 737 134.887 1186.69 472.737
1302 0 78.1419 12.4517 973 135.906 1186.01 462.461
1303 0 82.1366 12.5766 1033 137.473 1185.93 461.117
1304 0 87.107 16.2559 1416 129.4 1185.19 458.911
1305 0 91.1491 15.6337 1425 127.583 1183.18 451.616
1306 0 94.1957 16.625 1566 127.533 1183.51 446.333
1307 0 96.2062 15.7474 1515 128.59 1182.88 447.712
1308 0 96.2008 15.7795 1518 137.418 1182.86 447.576
1309 1 186.387 12.9247 2409 138.847 1181.42 416.572
1310 0 184.338 10.0739 1857 139.816 1180.88 431.18
1311 0 185.551 9.86251 1830 137.23 1180.59 436.844
1312 0 184.422 7.78108 1435 142.418 1181.38 438.865
1313 1 144.249 12.2635 1769 133.265 1180.58 444.789
1314 0 143.224 10.0891 1445 152.219 1179.52 452.79
1315 1 69.0521 15.2204 1051 130.553 1182.37 461.434
1316 0 73.2034 16.2834 1192 128.315 1182 458.452
1317 0 75.322 16.3166 1229 128.743 1182.56 458.094
1318 0 76.0554 13.0168 990 136.009 1182.73 457.414
1319 0 79.1809 16.6833 1321 128.803 1183.23 456.241
1320 0 81.1586 16.3507 1327 129.3 1183.52 452.968
1321 0 83.1614 14.3817 1196 132.964 1185.06 450.766
1322 0 88.1796 15.1736 1338 132.009 1184.72 447.475
1323 0 91.1582 13.2517 1208 136.236 1186.24 444.888
1324 0 95.1331 17.6595 1680 127.823 1186.61 443.039
1325 0 96.2067 14.209 1367 135.649 1186.77 437.8
1326 0 99.5733 16.0686 1600 131.658 1187.18 437.719
1327 0 102.175 18.0963 1849 128.69 1187.29 430.883
1328 0 105.278 15.0744 1587 134.921 1188.22 429.187
1329 0 110.246 16.046 1769 131.88 1189.62 433.235
1330 1 60.1052 11.4466 688 133.176 1188.33 455.449
1331 0 60.0804 11.4513 688 141.782 1187.32 455.323
1332 0 63.2115 13.6842 865 131.177 1188.76 456.23
1333 0 66.3666 14.7062 976 126.856 1189.99 467.227
1334 0 70.1123 15.3611 1077 127.829 1190.02 463.034
1335 0 67.2351 12.5827 846 133.643 1190.5 467.274
1336 0 73.0476 13.8677 1013 130.804 1189.79 463.572
1337 0 78.4462 15.5266 1218 127.612 1189.66 463.498
1338 0 80.2625 15.7732 1266 127.822 1189.26 464.667
1339 0 82.1521 15.7269 1292 128.283 1188.92 464.275
1340 0 83.2791 12.7403 1061 133.921 1187.91 465.531
1341 0 87.2066 14.9645 1305 130.869 1187.85 459.435
1342 0 89.0588 14.7655 1315 131.017 1186.59 460.062
1343 1 50.0893 10.1619 509 134.371 1186.38 481.271
1344 0 50.2522 13.5716 682 130.657 1185.05 478.158
1345 0 55.0765 13.4177 739 129.073 1185.13 476.724
1346 0 55.118 11.7929 650 133.672 1183.1 474.532
1347 0 55.118 11.7566 648 131.157 1181.1 474.59
1348 0 57.0577 12.9693 740 133.578 1184.28 474.322
1349 0 59.1576 8.80698 521 141.144 1183.19 474.781
1350 0 63.2724 15.457 978 130.753 1181.76 469.367
1351 0 62.0593 13.4388 834 135.134 1180.99 466.456
1352 0 66.124 11.3877 753 138.449 1181.95 465.332
1353 0 68.1617 13.9374 950 132.122 1181.93 466.901
1354 0 72.0975 12.4276 896 135.473 1182.03 462.789
1355 0 75.118 14.8966 1119 131.804 1181.41 460.83
1356 0 78.0703 18.0863 1412 125.877 1181.62 459.486
1357 0 81.2612 15.5548 1264 132.418 1182.36 454.509
1358 0 84.1291 13.4555 1132 135.132 1182.36 452.318
1359 0 85.2521 16.1169 1374 132.499 1182.93 453.197
1360 0 90.2139 14.8868 1343 135.248 1184.01 449.843
1361 0 90.1854 14.9359 1347 136.218 1184.01 449.939
1362 0 94.2808 14.1492 1334 138.445 1183.41 442.183
1363 1 55.0919 9.05759 499 142.487 1184.19 465.341
1364 0 53.1311 12.7044 675 138.181 1185.07 462.098
1365 0 54.2382 14.6576 795 134.231 1186.03 466.326
1366 0 56.1952 12.6879 713 138.909 1186.03 463.773
1367 0 57.0765 13.0176 743 139.063 1187.87 462.803
1368 0 57.0658 13.353 762 139.699 1187.89 459.356
1369 0 62.0676 17.1748 1066 130.191 1188.29 463.334
1370 0 62.0658 12.8895 800 139.768 1188.1 460.312
1371 0 64.1268 14.2686 915 137.358 1189.37 461.533
1372 0 64.0708 13.3134 853 141.737 1188.9 459.027
1373 0 67.0241 13.2639 889 140.559 1189.74 460.189
1374 0 69.1767 13.6173 942 139.49 1189.63 457.203
1375 0 74.1944 17.9259 1330 131.841 1191.57 457.854
1376 0 75.2814 13.6023 1024 141.09 1190.84 458.057
1377 0 77.3142 13.0636 1010 141.73 1191.05 456.021
1378 0 81.1391 15.0975 1225 137.247 1189.66 458.265
1379 0 84.2793 16.8725 1422 135 1190.75 457.828
1380 0 85.2985 13.6228 1162 139.439 1189.66 458.484
1381 0 91.3369 20.605 1882 126.028 1188.38 459.944
1382 1 45.1382 10.7448 485 141.965 1188.15 477.641
1383 0 48.1625 14.5341 700 134.186 1187.97 478.066
1384 0 51.3087 13.0387 669 135.513 1187.35 478.58
1385 0 52.0893 14.168 738 134.035 1186.61 476.473
1386 0 53.1729 9.72301 517 143.3 1186.32 478.406
1387 0 54.0918 12.7376 689 138.068 1185.67 478.488
1388 0 58.1566 13.4637 783 137.714 1183.9 472.561
1389 0 58.1339 14.3118 832 135.548 1183.74 473.976
1390 0 58.1433 14.4815 842 128.148 1184.77 473.964
1391 0 56.0878 11.4998 645 141.096 1182.47 473.416
1392 0 66.2397 13.6776 906 134.876 1183.04 471.078
1393 0 66.1657 13.8289 915 136.162 1182.51 468.487
1394 0 69.1052 13.7037 947 134.736 1182.07 461.379
1395 0 70.119 12.108 849 139.441 1181.26 463.292
1396 0 72.1586 10.865 784 138.283 1180.86 465.768
1397 0 78.394 13.6235 1068 134.696 1181.82 463.003
1398 0 79.2482 14.9025 1181 133.93 1180.93 456.537
1399 0 80.2524 15.2519 1224 133.694 1181.24 455.919
1400 0 82.2404 14.4819 1191 135.72 1180.76 451.794
1401 0 86.1281 14.8035 1275 134.326 1180.93 448.624
1402 0 87.1583 14.2614 1243 136.212 1182 444.948
1403 0 94.3403 12.9955 1226 137.487 1181.74 446.562
1404 1 48.2928 11.8237 571 138.781 1181.87 466.24
1405 0 47.1768 11.1919 528 142.042 1181.8 462.602
1406 0 50.1582 12.8394 644 137.213 1183.3 461.59
1407 0 52.0267 14.2235 740 135.476 1183.87 459.091
1408 0 52.0445 10.9522 570 142.019 1183.79 461.333
1409 0 56.0979 13.4764 756 135.952 1184.61 460.984
1410 0 57.057 13.9334 795 136.784 1186.15 458.575
1411 0 58.0706 12.3987 720 138.786 1186.93 459.915
1412 0 61.0753 14.7359 900 136.033 1187.14 456.807
1413 0 66.1478 14.7095 973 134.271 1188.05 459.443
1414 0 65.1705 12.3522 805 139.215 1188.29 452.976
1415 0 67.1225 10.3542 695 141.645 1188.59 455.256
1416 0 69.1292 11.4568 792 141.014 1189.38 454.616
1417 0 73.2161 12.3334 903 137.536 1189.88 457.891
1418 0 73.2191 13.3572 978 123.975 1189.91 456.43
1419 1 38.0541 7.22656 275 143.705 1190.26 475.062
1420 0 41.2374 10.6457 439 138.1 1189.64 473.039
1421 0 47.069 13.9157 655 128.464 1190.22 474.621
1422 0 47.2675 12.3552 584 131.438 1190.62 471.764
1423 0 50.2655 11.9167 599 133.666 1189 465.457
1424 0 50.1063 11.296 566 134.998 1188.37 469.004
1425 0 54.1285 19.7678 1070 121.21 1188.77 465.473
1426 0 56.2923 13.8207 778 130.706 1186.92 466.924
1427 0 55.3527 13.8205 765 132.214 1187.33 468.668
1428 0 57.2603 12.906 739 135.487 1186.16 469.303
1429 0 58.1244 13.3851 778 135.261 1186.58 473.224
1430 0 61.0935 11.8016 721 138.384 1184.55 472.043
1431 0 62.1189 14.7781 918 132.744 1184.98 471.983
1432 0 66.2263 15.5678 1031 129.302 1183.28 471.106
1433 0 63.1467 13.4607 850 137.033 1184.2 465.291
1434 0 65.1211 12.1159 789 138.98 1182.97 466.698
1435 0 67.2546 12.6832 853 137.437 1182.96 466.587
1436 0 71.1639 13.209 940 137.678 1182.07 464.89
1437 0 73.2076 13.1953 966 137.365 1181.87 454.979
1438 0 75.3808 14.6987 1108 135.232 1181.87 456.605
1439 0 76.385 14.5316 1110 122.02 1180.84 456.681
1440 0 80.2856 13.1904 1059 139.467 1181.15 451.993
1441 0 82.066 14.927 1225 135.589 1181.18 453.297
1442 0 88.1799 13.9488 1230 137.915 1180.02 447.911
1443 0 87.3567 12.0884 1056 142.133 1180.97 447.223
1444 1 47.057 10.6892 503 141.759 1180.17 460.94
1445 0 51.0397 12.0299 614 135.314 1181.13 464.671
1446 0 51.0397 12.0494 615 119.548 1182.16 464.759
1447 0 55.0791 10.4758 577 140.324 1182.95 458.222
1448 0 56.1918 13.9522 784 133.601 1182.97 461.597
1449 0 55.1539 12.7643 704 137.398 1184.06 459.195
1450 0 58.1419 14.5162 844 134.147 1184.72 456.023
1451 0 61.1802 10.8859 666 139.784 1185.18 456.374
1452 0 62.1388 14.8216 921 133.204 1186.07 452.616
1453 0 66.2024 15.3771 1018 131.034 1185.72 455.438
1454 0 67.14 14.0155 941 134.136 1186.07 452.623
1455 0 67.0401 10.7846 723 141.167 1187.22 451.737
1456 0 70.0465 13.1199 919 124.69 1188.29 455.236
1457 0 72.0628 14.4319 1040 135.171 1188.43 450.481
1458 0 76.0835 13.288 1011 137.166 1188.39 449.497
1459 0 75.1198 10.4633 786 143.022 1188.85 449.941
1460 0 75.1198 10.3302 776 130.985 1189.84 450.125
1461 0 83.3013 12.4488 1037 140.114 1190.86 450.554
1462 0 84.2272 11.0416 930 142.949 1190.65 449.165
1463 0 87.327 12.6307 1103 140.534 1190.29 449.694
1464 0 90.3387 14.8331 1340 137.207 1190.54 446.066
1465 0 94.311 15.5973 1471 135.854 1189.63 446.546
1466 0 96.2654 16.6103 1599 134.809 1190.36 440.942
1467 0 96.2654 16.6727 1605 120.677 1190.37 440.829
1468 0 104.155 15.9761 1664 135.038 1188.13 444.465
1469 1 59.1113 12.0789 714 136.497 1189.1 471.814
1470 0 59.1182 14.1412 836 134.654 1187.14 468.458
1471 0 63.3463 10.9557 694 137.094 1187.3 472.03
1472 0 64.0852 13.0139 834 133.827 1186.28 468.814
1473 0 69.1189 13.2959 919 132.75 1185.71 467.46
1474 0 72.1462 14.4983 1046 130.781 1184.71 466.32
1475 0 68.1474 15.6719 1068 132.033 1185.1 461.633
1476 0 72.1449 9.89676 714 142.192 1184.54 459.003
1477 0 76.1839 15.4888 1180 131.976 1182.79 458.604
1478 0 75.1956 12.4209 934 120.278 1181.94 454.36
1479 0 80.2424 16.8489 1352 130.678 1182.48 454.322
1480 0 84.3312 13.2454 1117 136.466 1182 448.125
1481 0 89.2438 12.886 1150 136.45 1181.35 451.357
1482 0 92.6896 10.5298 976 139.809 1181.17 452.546
1483 0 89.2459 8.5158 760 145.576 1182.41 446.882
1484 0 95.1679 11.8422 1127 138.969 1180.91 446.757
1485 0 94.3132 11.4194 1077 140.654 1181.39 443.825
1486 0 98.5377 14.0149 1381 136.686 1181.42 435.903
1487 0 107.31 12.9531 1390 135.755 1181.28 440.643
1488 0 111.45 12.5797 1402 138.609 1182.22 432.962
1489 0 102.464 7.94428 814 150.285 1181.35 426.955
1490 1 59.1171 12.213 722 133.393 1182.74 455.422
1491 0 57.2815 10.9634 628 138.675 1183.8 449.336
1492 0 57.2797 10.9638 628 121.604 1183.8 449.336
1493 0 57.2797 10.9638 628 121.072 1183.8 449.336
1494 0 68.2463 11.1508 761 135.104 1183.16 446.589
1495 0 64.1624 12.5307 804 134.896 1185.27 448.515
1496 0 64.1624 12.593 808 103.515 1188.3 448.495
1497 0 63.1603 9.80047 619 110.076 1191.32 445.339
1498 0 70.0844 8.17585 573 141.7 1184.67 442.436
1499 0 76.0821 10.0418 764 138.122 1187.49 443.403
1500 0 79.2671 12.439 986 134.659 1188.63 442.614
1501 0 84.0946 15.1496 1274 129.742 1188.95 442.608
1502 0 84.1102 15.23 1281 113.366 1188.96 442.694
1503 0 82.1664 13.0954 1076 134.071 1190.05 437.627
1504 0 90.2431 14.6272 1320 130.117 1190.22 438.704
1505 0 91.382 11.8404 1082 134.85 1189.48 434.178
1506 0 95.1365 13.7066 1304 131.532 1190.42 430.803
1507 0 96.2512 13.7141 1320 132.052 1189.06 439.073
1508 1 108.164 10.4379 1129 135.285 1190.35 439.256
1509 0 107.241 14.9104 1599 128.86 1188.69 436.814
1510 1 58.2004 13.969 813 125.357 1188.73 466.957
1511 0 59.1861 7.50177 444 136.626 1188.6 464.394
1512 0 65.1453 9.53254 621 132.713 1188.02 462.438
1513 0 68.2395 13.1742 899 126.813 1187.46 462.92
1514 0 71.3111 11.2044 799 129.367 1186.64 464.841
1515 0 71.1542 13.0702 930 127.82 1185.57 460.244
1516 0 71.2624 14.3694 1024 126.699 1183.77 456.879
1517 0 71.292 14.3635 1024 110.07 1182.77 456.879
1518 0 73.1451 10.7868 789 133.517 1183.13 459.542
1519 0 79.1379 11.9159 943 131.297 1181.83 459.981
1520 0 84.2277 14.5914 1229 126.778 1181.91 455.635
1521 0 85.2311 11.24 958 133.71 1181.11 454.305
1522 0 90.2815 11.2426 1015 134.038 1180.76 448.336
1523 0 89.2873 13.227 1181 120.942 1179.65 451.636
1524 0 95.3122 14.8669 1417 129.164 1179.96 444.941
1525 0 99.1847 13.732 1362 131.542 1179.38 442.563
1526 0 103.27 12.9176 1334 132.923 1180.67 442.218
1527 0 105.257 12.9968 1368 133.648 1181.08 442.3
1528 0 105.257 12.9778 1366 127.233 1182.07 442.449
1529 0 105.262 12.9391 1362 126.814 1184.06 442.46
1530 1 70.0797 6.92069 485 138.173 1181.17 457.452
1531 0 69.0921 9.10379 629 134.348 1180.57 459.73
1532 0 68.1505 9.90456 675 134.437 1183.39 459.713
1533 0 73.1882 13.7727 1008 129.364 1183.46 453.674
1534 0 72.3649 12.437 900 132.777 1182.9 452.559
1535 0 78.275 14.9601 1171 128.279 1183.47 450.953
1536 0 81.4344 11.9483 973 133.318 1184.47 448.055
1537 0 81.4344 12.9061 1051 126.474 1185.52 446.565
1538 0 82.1642 13.546 1113 132.535 1184.85 447.612
1539 0 84.1993 14.05 1183 132.713 1185.79 446.867
1540 0 85.2683 14.343 1223 119.883 1186.76 447.379
1541 0 92.4093 15.6153 1443 129.764 1186.4 444.176
1542 0 92.2841 13.2526 1223 136.3 1186.78 441.08
1543 0 92.3269 8.66486 800 141.571 1188.15 444.316
1544 0 97.5191 9.39303 916 141.421 1188.66 440.228
1545 0 100.35 10.7823 1082 139.427 1189.15 441.942
1546 0 106.356 14.3762 1529 134.895 1189.13 437.659
1547 0 115.636 10.2995 1191 137.685 1188.54 444.816
1548 0 115.198 12.7954 1474 136.944 1188.9 435.754
1549 0 117.23 13.5375 1587 136.168 1188.19 435.135
1550 1 58.1677 8.71618 507 137.604 1188.14 456.312
1551 0 58.1156 8.91327 518 138.593 1188.13 455.546
1552 0 61.1437 7.04897 431 141.239 1188.41 456.608
1553 0 70.2074 10.7966 758 135.132 1188.44 464.094
1554 0 71.1121 11.0952 789 134.741 1188 466.223
1555 0 79.1966 8.06852 639 137.685 1187.57 468.275
1556 0 80.2225 9.46118 759 130.148 1186.61 465.245
1557 0 79.6586 12.7293 1014 134.563 1186.29 455.899
1558 0 81.5737 11.9279 973 136.218 1185.31 458.112
1559 0 84.3978 11.7657 993 136.517 1184.48 456.278
1560 0 86.4401 12.4248 1074 136.494 1183.32 456.034
1561 0 91.4978 17.4321 1595 127.875 1183.38 451.59
1562 0 93.5129 13.2923 1243 133.709 1182.05 451.189
1563 0 94.5387 12.3336 1166 136.347 1182.81 450.744
1564 0 94.3689 13.7545 1298 134.805 1183.08 439.857
1565 0 94.3689 13.4896 1273 122.881 1183.08 439.72
1566 0 100.384 13.0101 1306 134.619 1181.56 447.047
1567 0 106.338 13.2408 1408 136.177 1181.38 435.551
1568 0 111.321 13.3937 1491 133.066 1181.07 441.691
1569 0 113.374 12.4984 1417 134.183 1180.57 440.478
1570 1 61.206 11.5021 704 130.653 1180.28 461.751
1571 0 63.0905 11.4122 720 133.153 1181.8 455.486
1572 0 64.102 12.7297 816 121.817 1181.61 457.515
1573 0 68.1398 13.0614 890 128.512 1181.66 459.024
1574 0 69.1423 12.1489 840 132.617 1181.9 448.967
1575 0 77.3237 13.8638 1072 127.545 1183.3 452.895
1576 0 77.3237 13.7733 1065 121.026 1184.25 452.887
1577 0 79.2074 12.3852 981 132.21 1183.8 444.236
1578 0 81.3127 11.7694 957 133.255 1183.92 444.721
1579 0 84.2314 13.9734 1177 129.413 1185.46 445.47
1580 0 87.1729 12.2056 1064 132.622 1185.37 444.123
1581 0 91.092 13.3382 1215 130.907 1185.82 442.301
1582 0 92.1051 12.6486 1165 133.224 1186.59 440.616
1583 1 52.0737 8.23832 429 135.044 1187.09 460.023
1584 0 54.2047 9.22429 500 133.522 1187.22 461.05
1585 0 55.0872 13.288 732 129.283 1188.81 457.939
1586 0 55.0872 13.2336 729 109.148 1188.86 457.896
1587 0 58.0826 16.7864 975 125.111 1190.23 459.286
1588 0 62.07 11.052 686 133.819 1190.57 462.041
1589 0 62.07 11.1326 691 118.395 1190.56 462.094
1590 0 67.2638 16.7847 1129 126.876 1190.48 459.419
1591 0 65.0618 9.99051 650 137.902 1190.92 462.149
1592 0 68.076 9.04871 616 138.218 1191.1 463.654
1593 0 70.1609 14.7518 1035 128.004 1190.07 467.1
1594 0 73.114 12.2138 893 135.221 1189.37 458.189
1595 0 79.2645 18.3563 1455 125.227 1189.17 460.709
1596 0 80.1368 12.0294 964 134.252 1188.46 464.1
1597 0 82.1151 13.3106 1093 132.666 1188.63 462.192
1598 0 81.1949 9.38482 762 141.878 1188.47 459.585
1599 0 88.1737 12.9517 1142 134.647 1187.33 456.046
1600 0 88.1737 12.9744 1144 117.415 1185.3 455.829
1601 0 91.3189 10.8849 994 140.28 1184.71 451.426
1602 0 95.2444 12.5887 1199 137.255 1184.25 451.407
1603 0 101.334 11.9309 1209 137.354 1182.88 448.444
1604 0 102.621 15.6498 1606 129.956 1182.67 449.159
1605 1 61.1297 11.4347 699 130.558 1181.19 465.519
1606 0 60.2468 10.1748 613 132.943 1179.87 468.992
1607 0 64.1758 14.5226 932 126.938 1180.55 465.217
1608 0 65.1277 12.0532 785 132.82 1180.2 462.473
1609 0 65.0736 13.139 855 132.665 1179.49 464.91
1610 0 68.107 12.8034 872 134.573 1179.09 463.843
1611 0 67.1133 10.6983 718 139.529 1178.85 460.465
1612 0 73.1785 11.3148 828 137.652 1179.66 459.717
1613 0 73.1693 11.2342 822 126.67 1180.67 459.797
1614 0 79.0796 14.2135 1124 131.519 1179.77 457.532
1615 0 79.0796 14.2262 1125 123.809 1177.77 457.626
1616 0 79.0811 14.3271 1133 123.005 1175.77 457.761
1617 0 86.1084 16.7696 1444 127.399 1180.2 451.418
1618 0 89.1542 11.4745 1023 136.4 1181 446.98
1619 0 93.3795 15.2389 1423 131.666 1181.09 441.075
1620 0 97.2404 12.1143 1178 136.562 1182.83 441.429
1621 0 97.2404 12.0526 1172 134.282 1183.82 441.359
1622 0 101.29 3.3172 336 150.628 1182.77 445.253
1623 0 105.53 13.1052 1383 134.77 1184.2 435.167
1624 0 110.305 13.789 1521 129.806 1184.33 439.13
1625 0 109.237 12.7978 1398 134.132 1185.11 430.315
1626 0 109.237 12.7887 1397 136.707 1185.1 430.442
1627 0 120.356 12.6791 1526 132.36 1187.63 432.081
1628 0 120.395 12.3759 1490 131.11 1190.66 432.731
1629 1 133.506 11.595 1548 136.245 1188.01 423.157
1630 0 136.525 11.866 1620 132.13 1187.74 432.399
1631 1 74.2426 10.2232 759 135.316 1188.47 449.501
1632 0 80.2263 12.203 979 128.965 1188.48 451.551
1633 0 82.4573 13.3645 1102 127.804 1188.94 451.419
1634 0 85.612 14.3438 1228 126.662 1189.53 449.399
1635 0 86.5118 12.5879 1089 128.33 1189.77 450.496
1636 0 87.2822 10.3916 907 130.946 1189.75 446.069
1637 0 87.2967 5.8536 511 133.773 1188.65 457.933
1638 0 96.2845 9.74196 938 131.131 1188.2 448.796
1639 1 181.528 12.0036 2179 136.083 1188.22 406.8
1640 0 189.565 10.6612 2021 138.228 1186.83 404.319
1641 0 190.332 14.4222 2745 132.529 1187.58 410.851
1642 1 109.401 11.5538 1264 130.946 1186.67 444.602
1643 0 109.404 11.6083 1270 127.541 1184.67 444.798
1644 0 118.35 11.9814 1418 130.054 1185.24 445.341
1645 0 122.508 13.5093 1655 126.228 1184.08 447.867
1646 0 121.301 13.4376 1630 129.402 1183.51 442.064
1647 1 73.143 9.25584 677 129.476 1184 467.877
1648 0 72.2441 14.8524 1073 121.743 1181.58 464.521
1649 0 74.3598 11.3771 846 127.356 1180.86 464.085
1650 0 74.2505 12.4444 924 126.879 1180.43 461.419
1651 0 80.3101 13.1739 1058 125.542 1181.2 456.112
1652 0 80.191 13.2184 1060 127.834 1182.04 457.087
1653 0 85.1798 16.6471 1418 122.202 1182.5 453.25
1654 0 84.2595 11.7613 991 131.571 1181.46 446.99
1655 0 90.302 11.4837 1037 130.779 1180.83 450.432
1656 0 89.2879 14.2685 1274 128.738 1180.35 445.27
1657 1 112.168 7.32832 822 134.212 1181.27 453.259
1658 0 111.161 8.59114 955 120.147 1181.22 453.933
1659 0 101.198 17.3026 1751 125.328 1181.83 433.946
1660 0 99.2809 9.78033 971 138.986 1182.04 433.264
1661 0 106.239 13.7803 1464 131.428 1182.32 436.187
1662 0 112.38 13.9438 1567 130.706 1182.39 433.283
1663 1 58.1944 13.3518 777 127.655 1184.34 454.293
1664 0 58.1944 13.4549 783 112.579 1185.38 454.322
1665 0 62.3148 13.3034 829 128.897 1185.65 454.748
1666 0 65.1607 12.1392 791 130.767 1185.94 456.718
1667 0 65.3003 13.9816 913 129.547 1186.8 451.663
1668 0 63.0781 13.0473 823 131.35 1186.74 453.752
1669 0 72.1648 13.7463 992 129.517 1187.39 451.402
1670 0 71.1649 12.0565 858 121.711 1187.26 453.414
1671 0 72.2692 12.4949 903 132.483 1187.84 451.243
1672 0 75.3384 14.6008 1100 128.755 1188.97 451.994
1673 0 75.3384 14.4415 1088 121.09 1189.97 451.951
1674 0 80.1066 11.8967 953 134.177 1190.08 450.015
1675 0 80.2826 11.8457 951 135.559 1189.83 449.369
1676 0 81.2308 14.625 1188 130.391 1188.99 452.636
1677 0 89.3192 13.4462 1201 132.459 1189.43 448.038
1678 0 94.2888 14.392 1357 131.282 1189.29 448.377
1679 0 96.1509 14.186 1364 131.603 1189.71 453.21
1680 0 96.1876 12.2781 1181 134.977 1187.77 455.126
1681 0 99.2359 11.5684 1148 139.186 1187.61 447.251
1682 1 157.335 13.8176 2174 137.94 1188.06 429.02
1683 0 157.333 13.7161 2158 136.549 1188.05 428.929
1684 1 214.336 12.4711 2673 144.495 1186.73 391.034
1685 0 223.811 13.3371 2985 142.568 1185.7 393.361
1686 1 196.777 10.9007 2145 142.171 1184.5 413.459
1687 0 196.479 9.18162 1804 145.46 1183.97 411.253
1688 0 198.506 11.647 2312 148.141 1183.78 418.417
1689 0 195.363 14.3016 2794 140.769 1182.01 398.161
1690 0 195.363 14.3067 2795 139.118 1181.01 397.971
1691 0 192.321 4.3521 837 139.688 1181.7 447.297
1692 0 193.51 6.06687 1174 146.641 1181.27 421.457
1693 0 195.533 7.27244 1422 140.7 1181.33 429.425
1694 0 191.4 8.63636 1653 135.48 1180.29 433.702
1695 1 171.364 7.48114 1282 134.534 1180.56 442.049
1696 0 169.418 7.40771 1255 139.61 1181.02 429.577
1697 0 166.444 12.707 2115 137.078 1181.23 407.017
1698 0 165.622 9.85375 1632 139.11 1180.12 415.079
1699 0 165.555 8.80672 1458 138.457 1180.76 422.416
1700 1 110.431 10.6583 1177 135.692 1180.75 435.428
1701 0 113.582 13.0391 1481 132.009 1180.85 429.533
1702 0 118.306 13.0424 1543 132.495 1181.54 423.869
1703 0 122.681 11.4606 1406 133.901 1180.91 423.637
1704 0 124.212 14.4028 1789 129.239 1181.03 424.61
1705 0 125.489 11.6425 1461 133.674 1182.28 423.246
1706 0 130.423 12.8965 1682 132.918 1182.72 414.332
1707 0 134.449 10.6211 1428 136.45 1184.37 407.626
1708 0 136.264 10.4577 1425 135.247 1184.74 420.208
1709 0 145.351 11.2211 1631 135.782 1185.54 402.01
1710 0 148.542 13.4036 1991 130.776 1185.63 413.639
1711 0 148.567 14.862 2208 113.866 1185.58 410.135
1712 0 155.385 10.9856 1707 137.914 1186.59 396.295
1713 0 165.477 15.265 2526 132.846 1187.34 394.665
1714 0 174.258 6.14606 1071 143.901 1188.15 409.566
1715 0 178.4 14.6749 2618 134.333 1188.26 402.898
1716 0 181.384 13.5789 2463 138.193 1189.83 396.964
1717 0 181.401 12.7618 2315 139.388 1189.16 401.417
1718 1 193.553 14.425 2792 137.988 1189.17 393.279
1719 0 201.602 16.3044 3287 135.503 1190.03 393.04
1720 0 201.601 16.235 3273 140.138 1189.03 392.952
1721 1 169.356 14.0473 2379 135.826 1188.53 407.947
1722 0 170.211 10.7983 1838 143.096 1188.6 405.969
1723 0 180.216 15.0708 2716 137.634 1188.95 395.361
1724 0 185.346 14.4163 2672 139.304 1188.13 394.908
1725 0 191.458 15.4185 2952 139.838 1188.3 387.303
1726 0 195.299 14.8336 2897 140.909 1188.51 393.788
1727 0 201.389 16.3216 3287 138.872 1186.95 400.05
1728 0 206.348 13.8504 2858 142.162 1186.38 403.916
1729 0 214.499 15.4127 3306 143.238 1184.83 389.237
1730 0 222.377 18.8059 4182 137.042 1183.02 388.792
1731 0 226.416 17.8565 4043 139.935 1183.52 384.467
1732 1 177.248 11.9099 2111 145.811 1182.62 415.174
1733 0 186.336 15.8316 2950 140.139 1181.96 411.091
1734 1 252.833 14.9585 3782 143.231 1180.84 391.224
1735 1 197.63 15.4734 3058 142.596 1181.36 403.592
1736 0 200.411 14.6399 2934 144.757 1180.2 399.262
1737 0 207.423 14.0534 2915 146.712 1179.67 392.875
1738 1 280.603 12.3805 3474 151.577 1179.18 369.944
1739 1 293.447 13.948 4093 150.798 1180.08 353.104
1740 1 226.536 15.2382 3452 147.943 1179.63 383.007
1741 0 236.517 15.0264 3554 149.306 1179.04 373.88
1742 0 244.793 15.6459 3830 148.632 1180.79 376.887
1743 1 182.39 14.7979 2699 144.529 1179.58 408.167
1744 0 192.402 15.3065 2945 147.037 1180.29 395.105
1745 0 195.437 14.7516 2883 149.787 1180.93 389.213
1746 0 204.279 16.1348 3296 147.038 1181.75 389.492
1747 0 211.394 14.6882 3105 150.632 1181.5 382.45
1748 0 218.459 15.6688 3423 151.009 1183.05 376.499
1749 0 222.36 15.376 3419 154.002 1183.17 365.215
1750 0 230.221 14.8249 3413 152.537 1183.92 376.684
1751 0 238.391 16.4226 3915 150.04 1185.2 362.77
1752 0 245.542 17.891 4393 147.628 1185 360.911
1753 0 253.512 13.6049 3449 156.244 1185.38 357.66
1754 1 199.294 12.9658 2584 151.896 1186.83 390.868
1755 0 202.358 10.9064 2207 159.616 1186.57 383.116
1756 0 211.411 14.4931 3064 151.357 1186.46 378.422
1757 0 216.417 14.777 3198 148.798 1187.59 386.531
1758 0 225.686 13.1111 2959 154.865 1188.18 373.924
1759 0 220.53 8.5884 1894 146.804 1187.81 411.844
1760 1 239.496 13.946 3340 153.791 1188.83 360.122
1761 0 244.793 11.3075 2768 158.134 1188.97 365.069
1762 0 252.528 13.5985 3434 154.871 1188.73 355.26
1763 0 263.4 11.5604 3045 157.308 1188.29 360.528
1764 0 273.686 14.301 3914 152.772 1188.48 358.555
1765 0 278.695 13.7247 3825 155.901 1188.01 351.771
1766 0 288.615 15.8169 4565 151.762 1187.63 351.432
1767 1 300.873 14.1488 4257 154.715 1187.4 347.123
1768 0 310.773 17.1991 5345 150.125 1187.75 339.63
1769 0 355.859 14.0842 5012 154.73 1186.42 334.935
1770 0 354.912 25.7359 9134 135.331 1185.96 289.71
1771 0 354.934 25.5541 9070 126.398 1185.95 289.666
1772 0 356.043 26.9883 9609 135.572 1185.12 297.933
1773 0 363.768 27.9629 10172 134.933 1183.29 305.198
1774 1 48.0867 10.5851 509 122.725 1183.48 475.666
1775 0 48.2349 8.85252 427 126.717 1182.45 478.941
1776 0 48.3119 9.79054 473 129.696 1181.04 477.129
1777 0 48.2609 11.0234 532 128.711 1180.34 478.742
1778 0 52.1417 12.4852 651 127.068 1180.22 477.707
1779 0 51.2473 9.79564 502 132.986 1179.63 473.213
1780 0 54.1419 11.1743 605 130.24 1179.65 477.205
1781 0 51.2185 15.0141 769 127.437 1179.49 473.622
1782 0 51.1155 8.80359 450 138.573 1179.44 473.613
1783 0 51.2385 11.8661 608 134.781 1179.01 474.538
1784 0 50.1451 10.689 536 139.05 1177.71 470.666
1785 0 54.2035 13.7814 747 133.141 1180.11 471.063
1786 0 53.1274 13.3076 707 135.68 1180.01 470.112
1787 0 53.1366 13.0795 695 135.328 1180.4 469.145
1788 0 51.1488 12.5125 640 136.761 1180.55 470.139
1789 0 50.1351 8.13801 408 144.819 1181.34 471.255
1790 0 47.2905 10.9536 518 142.085 1181.08 468.649
1791 0 48.199 11.8467 571 137.58 1183.93 468.918
1792 0 61.1219 20.9908 1283 119.879 1183.3 459.711
1793 0 61.1219 20.9908 1283 135.5 1183.3 459.711
1794 0 63.3173 19.5207 1236 121.714 1184.42 458.204
1795 0 62.2195 20.3795 1268 121.055 1185.11 461.193
1796 0 62.2195 20.3152 1264 136.172 1185.13 461.156
1797 0 60.2204 17.2865 1041 127.856 1186.58 460.504
1798 0 65.6572 16.0074 1051 125.714 1186.94 465.708
1799 0 64.1551 18.9073 1213 123.589 1186.4 460.144
1800 0 59.126 15.4078 911 132.853 1187.92 461.796
1801 0 67.1479 17.5434 1178 124.469 1187.22 461.597
1802 0 63.3334 15.1579 960 130.956 1188.48 464.662
1803 0 66.4861 16.7103 1111 126.854 1187.95 462.163
1804 0 64.1938 15.6713 1006 130.286 1188.47 463.58
1805 0 68.54 18.2521 1251 122.851 1186.97 464.145
1806 0 60.1695 15.207 915 133.148 1189.03 467.809
1807 0 65.2146 18.3241 1195 124.455 1187.16 466.236
1808 0 63.1837 15.6528 989 130.123 1188.07 470.635
1809 0 63.1402 17.7383 1120 127.126 1187.46 471.889
1810 0 64.1206 18.0285 1156 125.058 1186.87 472.078
1811 0 72.5954 25.8143 1874 110.862 1182.51 470.053
1812 0 66.2067 18.8198 1246 121.902 1186.33 475.401
1813 0 65.0713 17.427 1134 126.075 1186.68 471.969
1814 0 68.2888 22.522 1538 115.761 1184.23 471.399
1815 0 68.2634 19.0292 1299 120.019 1185.19 474.185
1816 0 68.1835 20.6061 1405 117.712 1183.85 473.364
1817 0 65.0867 18.145 1181 123.025 1183.1 474.809
1818 0 67.2228 21.8081 1466 116.353 1182.32 471.367
1819 0 64.3125 17.3217 1114 125.122 1182.88 473.031
1820 0 65.6101 21.0943 1384 117.844 1181.49 466.5
1821 0 67.1865 19.1854 1289 121.006 1181.61 471.7
1822 0 69.2335 21.3047 1475 116.445 1180.74 467.512
1823 0 66.1159 21.3564 1412 118.246 1181 470.386
1824 0 67.2625 21.26 1430 117.623 1180.32 464.78
1825 0 65.1096 18.2615 1189 123.097 1181.54 468.507
1826 0 65.0711 19.5632 1273 121.666 1180.84 467.836
1827 0 68.2456 24.1627 1649 113.395 1180.02 464.555
1828 0 69.1808 22.1738 1534 116.293 1180.49 463.761
1829 0 73.2292 20.4563 1498 115.874 1180.97 468.253
1830 0 68.1945 17.7287 1209 122.942 1180.96 464.053
1831 0 71.1839 23.924 1703 113.445 1180.31 459.974
1832 0 69.4731 20.9146 1453 117.516 1180.9 461.365
1833 0 68.0874 22.4417 1528 115.784 1181.46 461.11
1834 0 72.2396 17.4004 1257 121.561 1181.87 461.378
1835 0 68.1656 20.0834 1369 119.722 1181.85 458.749
1836 0 70.0855 19.091 1338 120.641 1182.31 455.428
1837 0 69.1988 20.6218 1427 117.572 1183.12 454.991
1838 0 72.0799 16.4401 1185 123.912 1183.78 454.506
1839 0 70.0871 19.3188 1354 119.747 1185.01 458.603
1840 0 68.1021 18.3548 1250 122.427 1184.96 458.035
1841 0 68.137 15.7037 1070 126.825 1185.71 456.396
1842 0 74.4119 26.0845 1941 98.0191 1183.79 456.421
1843 0 68.106 16.1807 1102 114.744 1186.76 458.959
1844 0 70.0905 18.9897 1331 109.137 1186.26 456.43
1845 0 71.2618 20.5159 1462 106.389 1186.65 459.379
1846 0 73.4105 18.2944 1343 109.2 1187 459.099
1847 0 73.4105 18.2944 1343 144.133 1187 459.099
1848 0 72.1101 21.3285 1538 104.744 1186.95 458.011
1849 0 67.0991 16.6023 1114 113.87 1188.14 461.443
1850 0 73.2202 19.175 1404 107.346 1187.67 466.06
1851 0 76.6696 18.3515 1407 107.397 1187.45 467.274
1852 0 71.1423 22.0403 1568 103.908 1186.46 465.365
1853 0 72.2717 21.3638 1544 104.72 1186.34 466.416
1854 0 72.2719 17.9323 1296 109.573 1186.66 469.549
1855 0 71.3082 19.3386 1379 107.732 1186.71 467.49
1856 0 74.2669 23.0385 1711 101.028 1184.83 475.547
1857 0 76.6195 22.0962 1693 102.281 1185.09 467.44
1858 0 73.192 19.9885 1463 106.232 1184.8 470.479
1859 0 75.5578 23.5978 1783 101.135 1183.08 466.045
1860 0 74.3211 27.9059 2074 97.0198 1182.4 467.403
1861 0 70.1553 19.4568 1365 108.516 1182.08 465.074
1862 0 68.1338 16.0713 1095 115.246 1181.24 465.481
1863 0 70.122 17.9116 1256 112.604 1180.93 466.181
1864 0 69.0559 16.5229 1141 114.677 1180.53 469.855
1865 0 69.0686 18.2138 1258 111.997 1180.57 465.611
1866 0 71.201 16.7975 1196 114.436 1180.85 465.25
1867 0 70.1859 18.451 1295 111.702 1180.48 465.971
1868 0 72.2229 17.9029 1293 111.81 1180.23 463.583
1869 0 72.1206 19.1208 1379 109.292 1179.45 463.438
1870 0 72.1545 18.1832 1312 111.196 1179.32 464.175
1871 0 71.1275 21.0186 1495 107.916 1179.79 460.747
1872 0 69.0947 16.7885 1160 115.197 1179.77 461.174
1873 0 71.1293 21.3836 1521 106.174 1179.66 463.33
1874 0 74.2622 19.0676 1416 110.222 1179.48 460.673
1875 0 71.2287 18.7425 1335 111.532 1180.65 459.619
1876 0 71.1196 18.4197 1310 111.211 1181.72 454.224
1877 0 72.2089 18.7373 1353 110.601 1182.25 456.62
1878 0 70.1067 16.0612 1126 115.885 1182.25 457.707
1879 0 70.1067 16.2039 1136 147.533 1182.25 457.642
1880 0 76.1249 22.5682 1718 105.366 1183.21 453.768
1881 0 72.2746 19.2045 1388 111.06 1185.02 453.04
1882 0 72.1576 20.677 1492 108.718 1184.56 454.395
1883 0 72.1576 20.8433 1504 133.473 1184.53 454.28
1884 0 78.3253 23.9386 1875 101.755 1184.95 457.899
1885 0 72.4849 16.0585 1164 114.648 1187.1 457.582
1886 0 73.2536 23.3436 1710 104.468 1186.5 452.032
1887 0 76.3133 23.2987 1778 103.551 1186 454.269
1888 0 76.1914 23.9266 1823 102.302 1186.85 451.532
1889 0 76.1914 23.7954 1813 129.149 1186.87 451.52
1890 0 73.1541 18.3175 1340 110.033 1188.41 459.357
1891 0 73.1541 18.4405 1349 136.489 1188.38 459.292
