time division length width area intensity CMx CMy
0 0 58.1797 17.7725 1034 119.722 885.884 437.374
1 0 60.2322 21.965 1323 117.522 887.3 437.61
2 0 60.2757 12.7249 767 124.339 888.241 438.549
3 1 137.415 20.4054 2804 120.641 888.368 413.853
4 0 135.423 14.9605 2026 128.038 888.645 410.778
5 0 137.632 16.6604 2293 127.479 888.942 394.398
6 0 143.594 20.7808 2984 123.465 888.49 401.77
7 0 146.433 14.6689 2148 127.238 887.527 405.67
8 1 75.2193 13.0286 980 121.063 887.495 439.571
9 0 78.1208 24.0909 1882 111.794 885.197 438.808
10 0 76.2336 14.4293 1100 122.219 884.458 434.158
11 0 84.4893 16.0849 1359 119.201 883.988 435.851
12 0 85.1796 17.152 1461 120.819 882.723 435.443
13 0 89.2122 11.68 1042 126.043 881.978 439.774
14 0 91.4404 19.1272 1749 120.33 881.21 433.788
15 0 93.5389 19.0937 1786 123.578 879.971 427.33
16 1 52.105 11.7839 614 130.257 878.855 451.679
17 0 49.1469 9.64455 474 139.403 877.709 449.063
18 0 53.1298 12.4789 663 140.033 875.836 446.068
19 0 55.2109 13.5481 748 137.575 874.516 445.107
20 0 55.0627 12.3859 682 138.886 872.277 443.312
21 0 58.1313 15.809 919 131.921 871.803 443.941
22 0 60.0596 11.5219 692 141.259 871.915 440.616
23 0 65.1221 18.6726 1216 127.008 871.446 437.465
24 0 65.2231 13.6608 891 138.401 871.235 436.156
25 0 67.0395 13.3652 896 138.518 871.494 434.526
26 0 69.2723 13.6563 946 136.646 871.492 431.227
27 0 71.3358 13.6537 974 136.337 871.758 429.873
28 0 75.5436 13.3565 1009 134.069 872.548 429.826
29 0 77.2068 12.9781 1002 132.508 873.833 426.186
30 0 81.5226 15.1614 1236 127.303 874.409 426.918
31 0 85.3355 13.3473 1139 125.082 876.009 425.225
32 1 45.1303 12.2977 555 116.874 877.676 445.695
33 0 48.0867 11.8744 571 116.231 880.363 445.275
34 0 46.0518 8.57731 395 118.853 880.808 446.418
35 0 50.2126 14.339 720 109.653 884.303 446.307
36 0 49.169 7.72845 380 114.208 885.142 450.705
37 0 50.0469 7.67281 384 113.956 884.661 449.047
38 0 54.072 7.61947 412 109.289 885.476 455.153
39 0 59.8264 17.2332 1031 106.145 885.784 445.329
40 0 59.1223 9.25201 547 112.442 884.72 449.856
41 0 59.2674 18.9143 1121 106.236 885.229 448.11
42 0 58.0738 13.8617 805 109.896 884.593 451.032
43 0 61.1752 20.0898 1229 106.251 883.147 450.34
44 0 72.3364 18.8702 1365 107.72 882.664 448.084
45 0 69.5622 14.1744 986 111.899 881.928 445.118
46 0 69.1795 13.3132 921 114.701 880.698 446.364
47 0 71.0629 14.3253 1018 115.971 879.292 446.789
48 0 74.1385 18.1147 1343 113.208 878.261 443.499
49 0 78.2136 16.0714 1257 115.278 876.267 440.186
50 0 83.3351 12.8157 1068 119.254 874.211 441.819
51 1 43.0341 14.5931 628 111.914 873.081 460.245
52 0 42.1162 8.95142 377 118.552 871.103 458.891
53 0 43.1245 8.78851 379 118.388 870.541 458.858
54 0 45.0695 15.1322 682 110.696 870.333 454.419
55 0 46.0829 8.18092 377 119.767 869.249 453.424
56 0 48.1465 12.0258 579 113.005 869.078 454.425
57 0 49.1244 12.906 634 113.634 868.771 450.978
58 0 52.0869 16.3381 851 109.589 868.687 448.465
59 0 52.205 12.5467 655 114.985 868.269 448.064
60 0 52.1047 12.8587 670 113.433 868.19 449.172
61 0 55.0917 11.7985 650 114.669 868.726 445.986
62 0 56.1554 13.0887 735 112.152 869.113 444.022
63 0 56.242 8.37453 471 116.442 869.977 444.034
64 0 57.3428 13.0095 746 111.698 873.027 441.298
65 0 61.3702 28.1896 1730 97.4775 874.146 443.897
66 0 62.1078 13.8147 858 106.932 877.214 438.725
67 0 65.187 22.3051 1454 99.6843 879.268 441.033
68 0 71.1413 19.5245 1389 100.921 881.5 440.898
69 0 67.1159 17.2686 1159 103.207 882.507 439.035
70 0 73.4318 21.6936 1593 99.629 883.234 439.011
71 0 73.4121 9.26278 680 109.109 883.593 438.616
72 0 75.1383 19.8567 1492 101.16 884.475 441.381
73 0 78.5064 15.1707 1191 104.812 884.473 436.399
74 0 78.5759 17.8172 1400 103.434 885.636 433.717
75 0 83.275 8.63405 719 111.446 883.477 439.787
76 1 43.0752 11.5844 499 108.405 882.898 455.635
77 0 44.412 12.294 546 108.31 881.745 455.606
78 0 47.3371 12.1469 575 108.077 882.753 458.67
79 0 44.0404 11.4894 506 107.984 882.628 459.688
80 0 53.2014 16.5409 880 101.991 881.842 457.828
81 0 51.0762 28.1344 1437 97.0111 880.225 457.301
82 0 51.4151 12.1754 626 111.11 879.075 457.668
83 0 53.0486 14.383 763 109.324 877.172 456.433
84 0 55.1935 18.0456 996 106.591 875.81 458.212
85 0 56.1349 12.7728 717 112.905 874.24 456.074
86 0 57.1669 16.2332 928 112.617 872.971 449.176
87 0 58.1849 12.8728 749 116.499 872.144 451.874
88 0 58.0374 13.4051 778 115.121 870.707 449.851
89 0 62.2724 19.3826 1207 110.527 870.435 444.507
90 0 66.4288 17.5225 1164 111.235 869.47 447.117
91 0 64.3284 15.2499 981 121.13 869.662 444.229
92 0 73.7602 17.6382 1301 115.672 869.696 442.112
93 0 71.3435 14.6755 1047 121.926 869.54 440.277
94 0 71.4152 13.4705 962 125.241 869.407 439.805
95 0 74.1755 17.3373 1286 121.4 868.588 439.484
96 0 80.6185 15.6168 1259 121.832 868.836 439.347
97 0 76.0939 13.1285 999 128.114 870.462 433.131
98 0 85.9172 16.9815 1459 116.842 872.618 437.186
99 0 83.4318 13.4601 1123 121.344 874.529 437.683
100 0 87.5812 14.0099 1227 121.278 876.267 434.441
101 1 49.1403 11.6605 573 119.953 877.834 451.108
102 0 51.4808 12.8397 661 112.41 879.725 455.616
103 0 53.1978 14.1923 755 113.803 881.26 447.075
104 0 60.7928 14.5905 887 110.578 882.636 453.618
105 0 54.5363 13.6606 745 114.635 883.021 447.757
106 0 58.5885 14.5762 854 110.359 884.44 455.388
107 0 59.2552 9.46752 561 114.51 884.996 456.276
108 0 59.6971 11.8431 707 115.805 884.409 450.313
109 0 57.1883 11.4359 654 118.387 884.685 450.116
110 1 122.824 25.7522 3163 111.059 883.251 429.03
111 0 124.794 16.8198 2099 122.347 882.659 422.927
112 0 128.521 17.4212 2239 121.862 881.947 420.879
113 0 133.52 14.0578 1877 130.781 880.462 423.956
114 0 135.587 16.8306 2282 131.791 879.048 413.635
115 0 141.403 16.3787 2316 133.43 877.452 411.659
116 0 146.634 15.6103 2289 133.723 876.488 412.78
117 1 76.3934 17.8418 1363 129.253 875.521 443.346
118 0 81.2202 17.0401 1384 123.402 873.65 449.571
119 0 82.381 14.4815 1193 132.68 872.227 443.548
120 0 88.4501 16.416 1452 128.438 870.693 442.152
121 0 86.3881 19.204 1659 126.443 869.307 439.165
122 0 86.3881 19.0767 1648 135.976 867.328 439.194
123 0 86.3948 18.9595 1638 135.774 865.336 439.111
124 0 93.2548 13.1789 1229 136.841 865.533 428.657
125 1 56.547 12.1669 688 132.709 864.624 450.291
126 0 54.2515 13.0319 707 134.929 864.427 447.694
127 0 53.1968 9.69984 516 142.597 864.601 445.537
128 0 60.3942 14.6206 883 132.366 864.98 444.824
129 0 61.1522 15.1426 926 130.514 865.208 442.672
130 0 63.0807 15.3296 967 126.249 866.381 444.341
131 0 67.1063 16.7346 1123 122.172 868.455 443.475
132 0 68.3088 21.3442 1458 115.831 869.433 442.648
133 0 69.1652 18.0582 1249 121.275 871.542 439.729
134 0 73.3077 18.9202 1387 118.662 873.857 443.207
135 1 143.595 22.7863 3272 118.157 875.335 414.784
136 0 143.611 11.9141 1711 131.104 876.916 402.357
137 0 151.652 17.2895 2622 125.918 879.203 403.261
138 0 159.777 17.0113 2718 125.55 879.212 403.731
139 1 86.3191 15.5817 1345 116.117 879.868 446.986
140 0 86.2906 12.991 1121 123.733 879.847 437.148
141 0 88.1093 11.5879 1021 127.281 880.309 441.433
142 0 92.2324 15.9055 1467 123.888 880.396 436.076
143 0 97.3082 14.2537 1387 127.296 879.636 437.383
144 0 99.2721 20.6805 2053 124.84 878.883 432.508
145 0 101.311 16.7405 1696 130.522 878.361 438.038
146 0 104.303 16.5479 1726 133.487 877.037 433.769
147 0 107.166 11.4216 1224 136.661 876.26 441.841
148 0 112.15 18.7071 2098 134.491 874.398 438.235
149 0 115.651 16.1953 1873 136.837 871.907 434.137
150 0 115.644 16.3778 1894 139.001 869.908 433.743
151 1 65.934 11.4054 752 132.64 870.434 460.965
152 0 70.8936 14.0915 999 130.569 868.528 454.502
153 0 68.103 14.2284 969 132.43 867.173 451.17
154 0 72.1405 22.8859 1651 119.751 865.377 452.751
155 0 72.252 15.0861 1090 132.694 864.483 444.683
156 0 75.2959 13.9051 1047 140.062 863.727 447.292
157 0 78.1466 16.0851 1257 134.875 862.967 443.913
158 0 80.317 14.9906 1204 135.541 862.231 438.7
159 0 81.2851 13.2251 1075 138.384 862.432 438.868
160 0 85.334 16.371 1397 132.87 862.799 433.801
161 0 90.2426 19.7024 1778 123.281 862.591 440.336
162 0 89.2209 14.0774 1256 131.882 863.528 438.857
163 0 94.1957 14.8202 1396 129.152 864.021 434.081
164 0 96.2734 12.2152 1176 130.463 865.048 428.994
165 0 98.3893 14.1072 1388 125.908 867.064 432.066
166 0 98.382 13.966 1374 134.114 869.014 432.072
167 1 59.0771 10.3086 609 121.777 869.251 451.468
168 0 60.1237 14.4036 866 118.617 871.842 449.844
169 0 62.3502 19.0537 1188 109.234 873.8 444.985
170 0 62.3502 19.3584 1207 123.992 874.821 444.987
171 0 66.4059 17.4985 1162 111.361 875.951 450.498
172 0 68.4896 14.5132 994 110.438 876.579 455.09
173 0 68.127 13.5776 925 115.784 877.162 450.027
174 0 69.2174 9.26068 641 122.867 878.047 447.919
175 0 73.2832 11.5715 848 116.156 878.096 456.362
176 0 76.1992 15.1839 1157 116.143 877.897 448.557
177 0 78.082 14.1646 1106 122.271 877.573 444.524
178 0 81.1122 16.7299 1357 119.758 877.676 449.904
179 0 83.378 13.6967 1142 125.715 876.142 446.729
180 0 84.1232 15.3941 1295 124.541 875.111 444.205
181 0 89.6341 17.6607 1583 123.54 874.282 441.267
182 0 91.81 12.7764 1173 131.655 872.439 432.295
183 0 94.9959 14.3164 1360 126.019 870.693 433.397
184 0 96.8552 10.1905 987 131.247 869.271 433.682
185 0 97.5865 10.6162 1036 132.148 867.363 427.337
186 1 57.4539 12.5666 722 119.681 866.838 457.873
187 0 53.4062 7.73319 413 127.792 865.475 455.489
188 0 57.4556 15.8557 911 116.763 864.746 452.252
189 0 58.2763 14.6543 854 115.876 863.631 453.04
190 0 58.2568 11.2777 657 122.309 862.76 449.568
191 0 61.4971 15.204 935 117.327 862.667 446.206
192 0 62.5019 18.1275 1133 117.179 861.409 445.097
193 0 66.3186 14.0232 930 124.912 861.128 446.885
194 0 65.4657 13.6866 896 126.526 861.734 442.792
195 0 70.7899 16.4713 1166 119.41 860.822 448.468
196 0 73.5672 13.9192 1024 125.065 861.623 445.244
197 0 75.1852 17.5566 1320 118.3 862.576 443.653
198 0 75.5916 13.2158 999 124.746 863.779 443.843
199 0 76.446 13.9576 1067 124.351 865.612 434.541
200 0 78.3523 13.5414 1061 123.465 867.089 437.543
201 0 81.2295 25.6434 2083 104.384 868.883 440.195
202 0 83.1501 19.7955 1646 111.276 871.306 433.734
203 0 90.3876 16.9382 1531 113.639 872.788 431.927
204 0 89.2862 9.55355 853 122.373 874.124 432.945
205 1 48.0656 14.5842 701 109.489 877.419 458.632
206 0 49.0532 13.7198 673 114.432 878.761 457.205
207 0 51.1137 12.5994 644 114.447 878.528 457.648
208 0 47.1474 7.89015 372 119.489 879.07 459.288
209 0 49.1156 26.9976 1326 102.679 877.695 456.775
210 0 52.4043 18.4527 967 108.2 878.108 459.236
211 0 53.1628 15.7817 839 112.757 877.595 458.154
212 0 52.139 14.4613 754 116.117 876.682 457.455
213 0 55.3368 13.1377 727 118.326 875.464 458.532
214 0 53.1384 13.5119 718 118.666 874.638 460.001
215 0 53.1384 13.4554 715 110.731 873.698 459.91
216 0 56.1638 16.897 949 115.956 871.689 455.555
217 0 57.2024 12.3421 706 120.188 870.235 457.52
218 0 58.1783 14.3009 832 117.385 868.594 454.459
219 0 59.208 10.7418 636 124.59 867.588 453.179
220 0 60.3124 14.2591 860 118.917 866.101 454.748
221 0 62.1717 13.3662 831 121.185 864.97 451.698
222 0 64.3294 13.5863 874 120.771 864.015 450.902
223 0 59.2331 9.25159 548 127.92 863.803 444.478
224 0 65.2121 18.0488 1177 114.489 862.806 447.271
225 0 69.2726 17.857 1237 115.011 861.855 443.575
226 0 65.2387 9.91743 647 124.949 861.855 444.674
227 0 69.1912 11.4899 795 121.54 861.805 442.686
228 0 71.3231 15.0302 1072 117.792 861.96 437.467
229 0 73.1464 15.9953 1170 113.933 862.526 438.513
230 0 76.511 28.5449 2184 102.109 862.785 437.359
231 0 74.2935 16.3002 1211 110.745 863.737 433.334
232 0 76.2739 17.7518 1354 108.043 866.302 432.405
233 0 80.3823 17.8771 1437 108.839 867.156 431.827
234 0 82.5131 17.1973 1419 108.377 868.994 431.416
235 0 77.2372 13.2579 1024 112.498 869.513 425.797
236 0 80.5026 14.4219 1161 109.5 871.657 433.635
237 0 83.8238 22.8217 1913 101.86 873.183 432.16
238 0 84.2 6.28266 529 111.79 874.473 436.21
239 0 86.385 26.9144 2325 96.231 875.028 441.431
240 0 83.6662 10.3387 865 113.769 876.135 437.114
241 0 87.144 15.8932 1385 109.415 876.887 434.448
242 0 89.4037 19.4623 1740 108.325 876.521 428.331
243 0 84.4173 12.2487 1034 117.231 875.901 426.48
244 0 89.1675 13.9288 1242 116.135 875.111 433.654
245 0 88.2706 15.3279 1353 114.531 874.558 431.682
246 0 88.2706 14.263 1259 109.394 873.508 432.318
247 0 89.3802 9.15192 818 120.742 872.218 435.677
248 0 89.1835 10.0355 895 119.978 871.593 432.218
249 0 96.4326 9.90329 955 120.68 870.365 433.438
250 0 95.2571 12.587 1199 116.801 869.081 430.686
251 0 97.5188 13.8435 1350 115.09 867.527 426.521
252 0 99.1914 13.7008 1359 114.935 865.86 424.82
253 0 101.129 12.7956 1294 116.434 864.881 429.618
254 0 102.333 11.6483 1192 116.391 863.856 420.467
255 0 100.549 13.844 1392 114.236 862.249 417.319
256 0 106.335 16.1283 1715 111.001 861.338 424.945
257 0 104.387 11.5724 1208 116.224 861.238 406.47
258 0 106.203 13.4836 1432 113.348 860.524 422.087
259 0 102.659 15.4297 1584 113.53 860.129 415.915
260 1 188.63 13.0891 2469 128.78 859.906 376.757
261 1 50.0997 12.0959 606 109.312 859.606 444.88
262 0 53.1048 8.62445 458 111.806 860.247 440.36
263 1 199.622 13.6809 2731 123.863 859.869 374.21
264 1 43.0958 14.0385 605 105.724 861.711 436.754
265 0 48.2447 8.87143 428 109.456 862.68 438.451
266 0 49.3058 13.4467 663 103.575 865.057 444.03
267 0 53.1798 11.3953 606 105.921 866.766 438.649
268 0 54.2345 11.7637 638 105.049 868.685 439.724
269 0 49.1159 10.1189 497 104.179 871.157 438.36
270 0 44.0636 11.8692 523 101.612 873.101 442.606
271 0 51.1862 13.4216 687 100.722 873.936 442.303
272 0 50.1792 11.7977 592 101.561 875.323 445.858
273 0 54.2649 9.74848 529 102.885 875.501 445.204
274 0 52.1366 15.2292 794 100.02 875.757 441.447
275 0 47.2412 11.0708 523 103.906 875.581 443.92
276 1 105.464 6.89338 727 109.059 875.26 406.966
277 0 113.444 15.2674 1732 103.088 874.964 417.069
278 0 122.356 7.18397 879 107.572 874.246 428.25
279 1 52.3387 11.7886 617 105.379 873.452 440.64
