time division length width area intensity CMx CMy
0 0 58.1015 12.3233 716 128.647 426.932 440.883
1 0 61.0755 13.9008 849 130.494 428.939 440.925
2 0 66.0724 15.7706 1042 125.877 429.317 438.161
3 0 66.145 12.2307 809 127.11 429.974 443.375
4 0 71.4908 18.1142 1295 117.797 429.925 445.668
5 0 68.2154 13.3548 911 125.502 429.721 441.131
6 0 71.2444 21.0683 1501 115.435 428.779 446.836
7 0 71.199 13.0058 926 125.927 428.32 439.222
8 0 75.3162 18.7211 1410 119.677 427.744 439.24
9 0 74.2941 13.5677 1008 125.442 425.206 439.256
10 0 76.2135 12.0451 918 128.379 424.629 435.764
11 0 81.225 16.1034 1308 124.183 424.427 435.334
12 0 82.2142 13.7446 1130 127.469 423.376 439.514
13 0 83.472 18.8686 1575 124.408 422.58 433.791
14 0 88.5532 17.5601 1555 124.498 422.063 440.152
15 0 88.3658 14.1457 1250 133.311 420.889 437.987
16 0 92.402 18.9606 1752 130.87 419.303 428.679
17 1 51.7261 11.5029 595 135.104 419.387 456.232
18 0 49.3384 11.107 548 148.396 417.42 447.743
19 0 50.4508 13.1217 662 143.659 416.869 450.26
20 0 53.2836 10.9978 586 150.64 415.865 448.886
21 0 56.2519 14.0973 793 145.091 415.324 447.304
22 0 55.4005 12.0938 670 151.521 415.27 444.215
23 0 57.1291 12.9531 740 149.608 413.397 443.139
24 0 59.0872 12.3377 729 147.728 413.886 443.996
25 0 61.1303 15.377 940 141.821 413.969 440.121
26 0 64.169 15.9423 1023 139.839 413.386 438.364
27 0 64.0827 12.9988 833 147.634 413.804 437.724
28 0 68.2548 16.0575 1096 136.07 414.12 439.618
29 0 70.0643 15.1718 1063 135.514 415.174 436.279
30 0 75.1483 20.1468 1514 124.186 415.382 438.631
31 0 75.1243 15.0018 1127 130.647 417.554 430.684
32 0 76.0745 12.5272 953 127.442 420.155 433.247
33 0 78.1963 14.4636 1131 123.275 421.171 435.201
34 0 87.3882 13.9035 1215 124.243 422.403 432.914
35 0 86.2268 12.2352 1055 124.099 424.753 433.032
36 0 88.2517 15.9317 1406 120.421 425.984 430.982
37 0 90.2652 14.2691 1288 123.207 426.3 427.547
38 1 50.0588 15.6416 783 112.609 426.314 452.732
39 0 51.0943 15.1876 776 109.629 427.115 459.58
40 0 51.1663 13.2509 678 115.844 426.063 454.333
41 0 54.1536 14.6805 795 116.726 425.746 452.616
42 0 56.1601 14.6901 825 115.781 426.601 452.645
43 0 55.2047 14.2923 789 118.541 424.38 454.456
44 0 57.0764 14.0864 804 121.405 423.984 454.509
45 0 61.0949 27.7601 1696 106.287 422.558 455.029
46 0 60.1004 12.1963 733 124.24 421.97 453.351
47 0 61.0729 14.3435 876 126.517 420.12 449.228
48 0 63.2114 13.621 861 128.617 418.771 448.22
49 0 63.1308 11.7692 743 131.197 417.089 451.094
50 0 66.1942 13.3395 883 131.277 415.319 448.284
51 0 70.1622 15.963 1120 123.338 414.452 451.811
52 0 71.2807 14.1974 1012 129.035 413.034 445.37
53 0 76.1183 20.5864 1567 119.325 412.665 445.224
54 0 75.2014 14.6274 1100 127.799 411.771 440.827
55 0 78.1898 16.153 1263 126.307 411.196 438.499
56 0 81.2391 14.3034 1162 128.108 410.755 437.293
57 0 85.2837 15.1143 1289 126.78 410.45 438.094
58 1 43.0579 9.56851 412 130.529 410.092 456.723
59 0 45.0828 11.9114 537 129.78 411.782 452.507
60 0 47.0174 16.6747 784 119.633 411.432 452.949
61 0 49.1283 13.5563 666 124.434 412.185 450.204
62 0 52.0604 14.6945 765 120.775 412.875 451.471
63 0 51.1633 10.8867 557 121.178 412.589 446.151
64 0 52.1452 12.6378 659 118.323 414.794 446.759
65 0 54.1515 10.4891 568 118.423 415.952 443.687
66 0 51.4031 6.10859 314 123.064 418.997 444.404
67 0 52.069 8.96886 467 114.764 421.032 452.212
68 0 56.174 11.4288 642 114.12 422.687 446.813
69 0 53.0846 9.47545 503 117.811 423.791 442.159
70 0 60.3216 15.9478 962 105.631 424.775 452.951
71 0 64.1434 17.8506 1145 108.559 425.144 445.979
72 0 62.2741 11.8187 736 116.273 425.554 447.879
73 0 66.1218 18.3147 1211 112.611 425.155 449.978
74 0 68.5296 16.2995 1117 114.64 424.958 452.762
75 0 70.3724 22.1536 1559 111.573 424.268 449.616
76 0 76.383 17.5432 1340 116.693 424.069 445.313
77 0 72.2177 10.9807 793 125.955 422.823 447.006
78 0 76.3833 18.5643 1418 119.949 422.702 442.383
79 0 77.1287 14.21 1096 125.678 421.692 448.183
80 0 79.1312 15.5564 1231 123.452 420.788 445.629
81 0 84.1703 18.8428 1586 120.492 419.676 444.449
82 0 86.2795 14.6848 1267 129.215 418.15 439.102
83 0 90.2137 19.9748 1802 121.744 416.433 440.381
84 0 90.4171 15.34 1387 131.399 414.779 436.746
85 0 93.2004 21.0085 1958 122.857 413.28 439.196
86 0 93.3129 11.3168 1056 141.51 412.213 429.678
87 1 53.1215 12.5373 666 129.838 411.251 456.477
88 0 53.0514 12.6481 671 133.697 409.954 453.784
89 0 57.053 13.3385 761 132.695 409.597 452.376
90 0 57.1243 13.8645 792 133.441 408.894 450.26
91 0 58.4723 15.0328 879 136.18 408.787 452.19
92 0 63.0848 17.4368 1100 130.423 408.691 449.04
93 0 62.277 13.8574 863 140.765 409.73 445.017
94 0 64.2219 11.8651 762 144.364 410.096 444.589
95 0 64.1916 11.2476 722 145.474 410.913 444.198
96 0 71.2547 15.9007 1133 134.129 411.071 443.218
97 0 72.3069 17.1906 1243 130.862 412.988 444.175
98 0 77.3167 14.6023 1129 129.576 415.128 442.938
99 0 75.2538 16.7965 1264 129.08 416.555 436.046
100 0 77.2074 16.8766 1303 129.097 418.058 436.929
101 0 79.3312 18.9081 1500 125.915 419.7 432.658
102 0 84.2823 20.9059 1762 120.967 420.877 435.473
103 0 89.2745 19.0984 1705 119.882 422.716 436.038
104 0 89.2699 21.8215 1948 120.763 423.652 431.516
105 0 93.2774 12.3181 1149 128.382 424.836 434.815
106 1 49.1026 14.1133 693 122.508 425.851 456.251
107 0 51.267 18.745 961 115.934 424.335 456.546
108 0 50.2828 17.3419 872 119.673 424.143 453.978
109 0 53.2673 12.3716 659 127.144 424.684 449.792
110 0 52.2079 13.1781 688 128.244 423.805 455.166
111 0 54.2401 12.3525 670 130.278 422.534 458.546
112 0 58.0722 13.8104 802 128.883 422.07 457.82
113 0 58.3602 11.8745 693 136.664 420.6 460.369
114 0 61.158 18.0189 1102 129.789 419.474 454.59
115 0 63.1378 14.2545 900 137.209 418.08 454.436
116 0 65.2901 11.5791 756 138.544 417.038 455.799
117 0 68.1251 18.2458 1243 131.183 415.471 454.685
118 0 70.1663 18.2424 1280 128.282 413.35 450.043
119 0 74.0775 17.6167 1305 132.718 411.891 447.129
120 0 74.1285 15.5945 1156 132.994 410.441 450.179
121 0 79.1816 14.1826 1123 135.46 409.102 445.878
122 0 82.3225 16.7876 1382 130.08 407.918 443.064
123 0 82.3225 16.8362 1386 135.136 405.931 443.149
124 0 84.2854 19.8255 1671 124.318 406.859 436.297
125 1 44.072 4.69686 207 145.923 405.841 449.937
126 0 46.1316 7.21847 333 139.372 405.994 450.796
127 0 50.2278 13.3392 670 127.299 406.233 451.882
128 0 49.1524 12.1052 595 130.385 406.262 449.627
129 0 47.2047 10.6769 504 131.347 406.47 443.252
130 0 54.232 10.031 544 125.8 407.858 442.925
131 0 56.179 10.9116 613 119.414 409.827 451.772
132 0 56.1085 15.8621 890 113.887 410.278 452.581
133 0 61.2022 15.2609 934 116.103 412.55 446.694
134 0 61.1884 11.9957 734 119.356 414.841 448.928
135 0 63.1409 15.8693 1002 112.253 417.057 449.35
136 0 65.2074 14.6303 954 114.479 418.351 442.947
137 0 71.5099 20.3608 1456 107.71 420.105 448.443
138 0 73.1808 15.4549 1131 111.935 420.317 443.312
139 0 73.2679 26.0551 1909 103.979 420.25 446.9
140 0 76.1626 16.2678 1239 111.54 420.672 443.302
141 0 79.2856 15.5135 1230 112.289 420.74 445.347
142 1 163.902 24.7526 4057 112.596 420.004 406.836
143 0 164.75 12.8255 2113 127.544 419.373 404.807
144 0 174.766 26.9675 4713 116.971 418.525 388.501
145 0 176.408 14.6139 2578 132.475 418.034 387.512
146 1 91.3234 13.6767 1249 125.926 416.789 440.553
147 0 93.1697 15.885 1480 123.446 416.077 440.445
148 1 48.0454 9.24126 444 136.009 414.75 462.932
149 0 48.0868 15.8047 760 121.905 412.824 463.947
150 0 48.0868 15.8255 761 110.292 410.792 463.855
151 0 54.0779 14.701 795 121.561 411.078 461.85
152 0 58.3184 11.3343 661 124.478 410.743 459.821
153 0 57.2158 11.5877 663 126.887 409.7 454.216
154 0 61.1076 11.6189 710 125.045 408.097 454.158
155 0 63.1314 13.7333 867 121.321 407.328 453.77
156 0 64.147 14.0459 901 126.41 406.622 452.091
157 0 67.1266 14.2715 958 126.399 405.799 449.422
158 0 71.1724 16.8464 1199 119.767 404.919 446.46
159 0 70.155 12.9713 910 125.462 405.521 444.144
160 0 72.1188 10.2886 742 129.667 405.437 442.069
161 0 78.2039 15.2166 1190 122.168 405.137 440.438
162 0 82.2484 16.5353 1360 118.818 406.235 440.053
163 0 82.1952 15.0982 1241 119.524 406.507 435.346
164 0 86.3008 14.3104 1235 115.016 408.095 443.889
165 0 89.5256 16.7215 1497 112.654 409.595 441.524
166 0 89.2378 12.2033 1089 118.056 410.762 434.914
167 0 93.1728 16.2494 1514 112.999 411.659 434.018
168 0 94.2991 14.5919 1376 116.31 413.972 429.131
169 1 49.1048 10.223 502 114.502 416.046 453.143
170 0 52.38 13.0393 683 112.606 417.665 453.769
171 0 52.2884 12.7562 667 114.955 418.709 453.028
172 0 53.1867 9.55125 508 117.181 419.333 455.72
173 0 56.2254 15.9359 896 112.242 419.432 454.449
174 0 56.232 16.2896 916 114.361 420.035 454.16
175 0 60.4866 12.664 766 120.507 420.031 453.278
176 0 62.2701 18.2592 1137 114.012 419.439 452.602
177 0 59.1905 12.671 750 124.988 418.769 456.149
178 0 63.2486 15.0359 951 121.088 417.812 458.055
179 0 65.1564 15.1021 984 124.379 417.205 452.685
180 0 68.238 13.0133 888 128.048 416.148 452.9
181 0 70.3763 11.7653 828 132.909 415.236 451.685
182 0 73.2694 13.6619 1001 128.753 413.552 449.569
183 0 73.4233 11.2907 829 130.545 411.659 451.258
184 0 76.2133 12.898 983 127.435 410.051 449.113
185 0 82.2211 14.7894 1216 125.122 408.961 447.252
186 1 46.28 13.1374 608 121.804 409.14 464.079
187 0 45.0546 12.4072 559 121.979 407.233 465.081
188 0 49.1513 11.4341 562 125.272 407.198 460.578
189 0 47.0424 8.14159 383 129.303 404.42 460.692
190 0 50.1636 12.6187 633 119.215 403.908 463.145
191 0 47.0735 12.5336 590 123.783 403.98 457.253
192 0 51.1725 13.9919 716 124.827 402.219 455.219
193 0 51.1494 12.2191 625 122.706 402.464 453.365
194 0 51.0882 13.3886 684 122.596 402.845 446.844
195 0 56.0794 13.0351 731 125.606 404.256 452.424
196 0 59.1762 13.7893 816 125.653 405.252 452.762
197 0 61.0794 17.5673 1073 118.292 405.652 450.897
198 0 64.3683 16.6075 1069 118.897 407.36 451.43
199 0 62.1883 11.9154 741 128.105 408.815 446.227
200 0 62.1136 18.7721 1166 118.409 410.178 443.368
201 0 64.1292 10.9934 705 128.299 412.766 444.528
202 0 65.151 11.082 722 128.917 414.35 443.453
203 0 72.3154 14.2293 1029 121.768 415.762 448.517
204 0 73.2738 16.3633 1199 121.422 416.678 441.642
205 0 78.6215 15.7082 1235 120.229 418.486 445.449
206 0 79.3147 18.6094 1476 117.155 418.84 448.335
207 0 81.2383 14.3651 1167 126.968 418.905 443.347
208 0 84.4114 16.7395 1413 121.173 419.331 441.901
209 0 84.3441 14.7491 1244 126.344 418.711 443.425
210 0 89.2637 17.7564 1585 122.502 418.837 440.949
211 1 47.103 10.9972 518 129.207 418.06 463.514
212 0 51.1556 10.4974 537 128.622 416.549 463.408
213 0 50.0482 13.1274 657 130.279 416.467 461.244
214 0 53.1817 12.5043 665 129.798 416.298 463.259
215 0 52.1631 12.1925 636 142.586 415.374 462.425
216 0 54.1708 17.2971 937 117.544 411.28 465.155
217 0 55.1278 14.9834 826 124.84 409.564 458.502
218 0 58.1463 14.0336 816 124.461 408.075 458.494
219 0 59.102 12.2331 723 129.355 406.243 457.046
220 0 61.0964 15.7292 961 125.34 405.371 450.728
221 0 64.1147 15.1135 969 126.097 404.495 451.062
222 0 63.1579 15.105 954 126.201 403.137 454.009
223 0 65.0932 16.6069 1081 124.256 403.076 452.319
224 0 69.1152 13.586 939 128.93 402.103 445.086
225 0 70.123 15.6867 1100 126.227 401.301 447.126
226 0 75.1906 25.0164 1881 112.587 401.421 447.814
227 0 71.188 9.18694 654 137.735 401.165 443.575
228 0 75.2283 13.2796 999 132.094 401.706 438.44
229 1 42.0479 12.8663 541 125.351 401.712 456.165
230 0 41.0957 10.8527 446 126.991 402.278 458.278
231 0 47.5244 9.36361 445 120.892 402.721 458.672
232 0 46.1518 9.46876 437 121.231 405.281 456.744
233 0 47.0881 10.8308 510 122.333 406.673 455.965
234 0 44.0993 8.57157 378 122.622 408.352 455.934
235 0 45.0359 12.5011 563 113.504 409.478 455.194
236 0 47.038 11.225 528 118.665 411.051 452.083
237 0 49.129 15.673 770 109.412 413.632 459.579
238 0 51.1028 11.7802 602 112.331 413.929 454.477
239 0 50.0319 16.8493 843 107.584 415.677 460.181
240 0 54.2882 11.7705 639 120.083 416.038 457.751
241 0 52.1869 14.6205 763 117.257 416.706 456.178
242 0 55.1158 15.3132 844 117.709 416.372 457.161
243 0 56.1318 14.3591 806 121.625 416.037 457.282
244 1 124.925 13.4241 1677 132.977 416.079 422.878
245 0 129.607 17.1673 2225 124.202 415.318 427.043
246 0 131.45 15.4279 2028 131.84 414.393 422.044
247 0 132.531 12.4273 1647 135.99 412.944 414.503
248 1 64.0638 14.1734 908 124.673 412.536 453.126
249 0 67.1213 14.3025 960 126.586 411.329 452.768
250 0 68.1633 14.5093 989 123.738 409.804 454.304
251 1 35.0834 8.52254 299 126.214 407.03 471.512
252 0 38.0894 10.3703 395 125.653 405.777 467.696
253 0 41.0648 10.1303 416 128.296 405.197 469.685
254 0 38.0389 11.4357 435 128.018 404.041 464
255 0 42.0716 11.8132 497 125.909 403.123 464.193
256 0 43.0708 13.0947 564 126.257 404.379 461.872
257 0 42.1033 9.9042 417 132.022 403.247 464.118
258 0 45.2388 12.9314 585 127.691 401.012 457.453
259 0 47.227 12.1964 576 131.507 401.188 457.925
260 0 48.0546 13.9633 671 130.385 402.908 457.949
261 0 51.0934 14.3463 733 125.202 402.233 457.696
262 0 51.3489 15.4823 795 123.937 402.902 454.312
263 0 50.4111 11.8625 598 129.478 402.801 454.263
264 0 53.1934 15.7914 840 121.118 403.543 453.021
265 0 56.3633 18.4872 1042 116.814 404.722 450.973
266 0 56.145 11.8265 664 126.327 407.38 450.578
267 0 60.2244 15.243 918 120.009 408.724 448.096
268 0 59.3949 12.2233 726 124.842 411.125 450.435
269 0 62.2026 14.501 902 118.133 413.277 448.986
270 0 61.2399 11.4631 702 123.105 415.083 449.67
271 0 64.4255 14.932 962 119.998 415.869 446.078
272 0 65.2219 11.1926 730 126.666 417.223 446.329
273 0 69.405 13.0106 903 123.477 417.236 447.283
274 0 71.4385 12.8782 920 126.722 417.75 445.134
275 0 73.3845 14.4581 1061 126.115 417.253 447.343
276 0 77.5384 20.0804 1557 119.103 416.642 447.73
277 0 79.5438 13.5523 1078 132.835 416.234 447.845
278 0 80.5264 15.4732 1246 131.027 415.288 443.6
279 0 84.498 15.9767 1350 132.096 414.385 440.604
280 0 87.4606 15.3098 1339 133.742 412.996 442.495
281 0 92.6219 17.0802 1582 129.908 411.738 444.298
282 0 92.611 14.264 1321 139.232 410.033 439.851
283 1 50.8769 10.5745 538 137.301 409.203 459.714
284 0 52.3039 10.3816 543 126.681 406.637 465.263
285 0 54.343 12.3291 670 128.409 405.315 460.921
286 0 55.3282 11.6939 647 131.24 405.427 462.799
287 0 57.2646 13.0971 750 132.035 404.635 457.335
288 0 58.228 13.4815 785 127.003 402.414 455.803
289 0 62.1832 14.6342 910 126.818 401.598 453.191
290 0 64.2276 12.3 790 130.178 401.097 451.673
291 0 67.4426 14.8571 1002 122.266 400.855 455.231
292 0 67.1982 14.7028 988 126.57 400.534 447.166
293 0 69.125 14.0759 973 127.769 400.405 446.08
294 0 69.4714 12.7822 888 131.78 400.393 442.514
295 0 74.3863 15.5136 1154 125.756 401.475 442.136
296 0 78.1685 12.8952 1008 129.562 401.312 440.968
297 0 79.2972 13.9097 1103 127.604 403.064 439.692
298 1 40.1043 10.1485 407 126.455 403.287 458.941
299 0 41.0685 8.52234 350 127.546 404.743 458.32
300 0 45.1636 10.1409 458 123.817 408.825 458.378
301 0 52.6647 12.9309 681 117.727 411.097 454.736
302 0 52.3836 11.3776 596 124.013 413.124 455.525
303 0 46.2055 7.40171 342 136.865 415.281 456.596
304 0 51.2095 12.6734 649 126.032 416.205 454.909
305 0 51.0707 14.2352 727 129.961 414.879 454.858
306 0 53.1193 17.9031 951 119.103 415.424 452.626
307 0 55.0742 13.618 750 124.695 416.231 456.844
308 0 59.1387 15.7596 932 121.639 416.045 458.19
309 0 61.1709 16.1351 987 124.081 415.738 455.022
310 0 58.1927 10.9636 638 135.829 414.583 457.194
311 0 62.1916 13.1851 820 134.173 414.363 454.238
312 0 62.2087 11.7508 731 137.892 413.616 456.524
313 0 65.1038 16.0052 1042 132.561 412.352 454.048
314 0 64.1157 15.784 1012 134.732 411.238 452.869
315 0 68.1384 14.089 960 136.878 410.17 453.24
316 0 74.1463 15.6852 1163 130.077 409.396 456.507
317 0 73.1797 14.8538 1087 135.223 408.082 448.615
318 0 75.0932 13.2103 992 133.9 406.85 453.249
319 0 79.2463 14.3477 1137 134.495 405.639 446.789
320 0 82.2656 15.7052 1292 134.657 404.426 446.94
321 0 84.3623 17.2826 1458 130.655 403.56 440.229
322 0 87.3884 16.4896 1441 129.092 402.482 441.415
323 1 48.0958 11.4563 551 136.421 401.882 457.907
324 0 54.0182 14.8839 804 125.587 402.502 459.001
325 0 53.1836 12.3534 657 130.965 402.461 455.881
326 0 52.5024 13.7327 721 131.092 402.204 451.706
327 0 59.559 15.6651 933 125.349 402.613 450.809
328 0 57.5247 12.4121 714 130.997 403.42 449.102
329 0 62.57 13.1852 825 125.592 403.647 450.152
330 0 61.3014 19.0697 1169 118.806 403.109 446.778
331 0 64.0921 13.4494 862 123.913 404.183 450.531
332 0 67.4083 13.3515 900 120.531 405.648 449.331
333 0 66.2021 14.0479 930 119.505 407.175 443.888
334 0 70.2235 19.4807 1368 112.494 408.854 443.202
335 0 74.7476 17.7263 1325 112.033 409.913 448.531
336 0 70.0996 18.4737 1295 120.99 412.061 443.425
337 0 70.2204 12.2329 859 126.874 414.451 447.051
338 0 74.2317 17.5397 1302 120.261 415.676 442.892
339 0 74.3361 14.5152 1079 123.483 416.163 446.571
340 0 77.3089 17.1778 1328 121.929 417.009 447.67
341 0 78.4383 14.113 1107 128.24 416.513 444.653
342 0 85.3931 16.7929 1434 118.257 417.063 449.327
343 0 80.284 12.4184 997 129.488 416.979 439.271
344 0 82.2223 13.2811 1092 144.966 415.808 437.364
345 1 41.0402 11.5497 474 147.89 415.667 456.494
346 0 44.032 10.1517 447 147.808 413.962 459.508
347 0 50.0676 11.3047 566 142.403 412.875 461.436
348 0 50.0487 13.2471 663 140.377 411.097 458.677
349 0 49.0606 11.8017 579 142 409.632 457.554
350 0 52.0333 11.7809 613 142.212 408.778 457.524
351 0 55.1009 13.2666 731 137.126 407.356 459.124
352 0 56.0706 12.6091 707 140.547 406.31 453.246
353 0 61.2142 15.748 964 132.547 404.783 455.498
354 0 60.0219 13.9449 837 138.986 403.585 452.342
355 0 62.1963 13.2484 824 137.725 402.421 452.988
356 0 64.0675 14.4379 925 137.302 401.751 448.004
357 0 65.1203 13.0067 847 140.279 401.45 449.329
358 0 69.2402 13.8215 957 139.653 400.766 445.853
359 0 68.1419 14.2497 971 142.866 400.64 443.461
360 0 74.1183 14.6792 1088 137.203 401.034 443.812
361 0 75.2822 15.4485 1163 133.268 401.844 441.517
362 0 77.1883 14.9245 1152 136.938 401.143 437.548
363 0 77.0814 12.4803 962 130.136 403.21 441.839
364 0 83.2573 15.326 1276 127.865 404.592 447.539
365 0 87.3154 16.4232 1434 127.04 405.558 437.997
366 1 49.1575 13.6907 673 126.052 407.425 455.47
367 0 48.1476 12.1709 586 142.565 408.394 456.527
368 0 48.2035 12.5302 604 128.315 411.336 456.104
369 0 49.0312 18.1109 888 120.305 413.729 456.602
370 0 52.0951 14.2624 743 125.144 415.58 458.965
371 0 52.0321 8.61007 448 134.27 416.033 459.154
372 0 55.3101 14.8436 821 120.345 417.203 458.093
373 0 55.1216 15.0395 829 121.157 416.425 457.305
374 0 56.0645 12.8602 721 126.838 416.573 459.322
375 0 60.1497 14.0317 844 125.608 416.37 458.955
376 0 61.0996 28.8873 1765 109.581 415.647 457.905
377 0 59.1023 15.4478 913 127.169 415.013 459.353
378 0 64.1481 15.2927 981 130.053 414.426 457.127
379 0 66.2455 15.6841 1039 129.574 413.303 458.281
380 0 67.0811 15.6229 1048 133.79 411.93 457.943
381 0 68.2457 18.0964 1235 130.608 410.91 455.999
382 0 69.1208 18.9523 1310 131.375 409.898 457.421
383 0 70.0736 17.8669 1252 134.982 408.626 456.825
384 0 73.067 16.3822 1197 134.454 407.285 452.594
385 0 77.1375 17.4623 1347 134.609 406.51 452.154
386 0 77.1313 16.3358 1260 135.763 405.219 451.888
387 0 80.1077 16.3405 1309 139.712 404.304 450.125
388 0 83.1615 16.6303 1383 136.685 403.425 446.812
389 0 84.2041 16.8044 1415 135.425 402.797 448.321
390 0 88.1125 15.7866 1391 136.317 402.119 442.456
391 0 91.3839 17.7055 1618 133.425 402.078 439.551
392 0 93.2093 16.7687 1563 134.322 401.814 437.601
393 0 96.3911 13.8187 1332 139.75 401.567 434.703
394 1 53.1177 10.2602 545 132.6 403.527 459.204
395 0 53.135 13.6445 725 132.04 403.051 453.757
396 0 56.0645 14.9471 838 129.384 403.193 453.998
397 0 55.0346 10.7205 590 128.376 404.142 456.308
398 0 62.2398 16.9024 1052 117.013 404.246 455.067
399 0 60.1187 15.4195 927 120.83 406.055 449.512
400 0 62.1067 14.0081 870 122.825 408.339 449.209
401 0 65.1613 14.9475 974 121.328 410.4 449.471
402 0 68.1332 13.7672 938 121.214 411.818 453.811
403 0 70.1946 21.825 1532 115.295 412.931 448.326
404 0 72.3069 16.6651 1205 121.989 414.287 449.206
405 0 74.2664 19.1069 1419 120.027 415.03 447.774
406 0 76.1432 12.8442 978 128.035 415.07 448.036
407 0 78.0906 14.3423 1120 146.554 416.065 445.33
408 1 42.1449 12.0774 509 124.652 416.919 464.817
409 0 43.0547 12.6119 543 130.858 416.214 468.271
410 0 44.0814 12.0232 530 137.394 416.081 466.228
411 0 46.1443 11.0956 512 141.883 415.029 464.494
412 0 49.0556 13.1891 647 139.473 414.062 465.467
413 0 47.0535 13.4528 633 138.978 410.912 466.071
414 0 49.034 12.7259 624 142.59 410.018 462.431
415 0 52.0363 13.0102 677 139.387 408.966 464.926
416 0 52.0539 14.8884 775 141.508 408.062 461.91
417 0 53.0549 11.8933 631 149.859 407.635 461.29
418 0 54.1243 12.6376 684 143.108 406.094 460.836
419 0 57.0951 14.1168 806 143.859 404.454 457.806
420 0 59.0855 13.015 769 141.982 402.636 460.645
421 0 62.1508 12.2927 764 147.593 402.592 456.433
422 0 62.0953 13.2055 820 143.877 401.713 454.221
423 0 66.17 15.2637 1010 138.805 400.85 452.22
424 0 66.1791 15.0803 998 141.365 400.936 447.726
425 0 70.3966 13.3245 938 140.64 400.319 448.601
426 0 72.153 13.1249 947 140.42 399.761 446.393
427 0 74.2292 13.5122 1003 141.352 399.757 443.923
428 0 78.2029 14.9739 1171 136.06 399.967 438.622
429 0 80.3746 15.3531 1234 132.994 401.555 439.705
430 0 83.3202 15.3024 1275 132.295 402.293 440.78
431 0 86.2524 18.1444 1565 128.304 403.557 441.489
432 0 90.4912 14.7418 1334 134.885 404.726 438.343
433 0 90.4912 14.7749 1337 136.564 405.731 438.511
434 0 89.3269 9.67233 864 143.991 408.682 438.6
435 0 97.1792 16.2175 1576 133.661 410.532 432.75
436 0 101.423 13.1429 1333 136.527 411.96 432.251
437 0 104.181 12.5647 1309 135.5 413.682 437.455
438 0 108.617 16.6917 1813 129.489 414.499 437.041
439 1 55.1661 16.4231 906 126.233 414.874 456.639
440 0 59.1226 14.4446 854 130.381 415.902 455.943
441 0 59.0972 13.1648 778 133.589 415.952 454.243
442 0 61.2395 16.0028 980 129.228 415.583 457.843
443 0 63.2116 17.7974 1125 127.405 414.682 458.867
444 0 67.2976 12.3779 833 140.541 415.09 458.036
445 0 68.075 16.0411 1092 135.755 413.827 454.627
446 0 70.2043 14.4008 1011 142.348 412.68 457.165
447 0 71.2441 12.8572 916 153.614 411.626 452.056
448 0 76.304 13.2627 1012 148.696 410.663 450.618
449 0 78.3509 14.0649 1102 145.21 408.99 448.415
450 1 41.2844 11.1664 461 146.02 408.167 469.499
451 0 41.0764 10.6631 438 143.192 406.324 470.32
452 0 43.279 11.0215 477 139.547 404.887 469.784
453 0 45.2472 12.288 556 136.437 403.469 467.022
454 0 45.0697 12.3143 555 134.02 402.58 468.708
455 0 47.088 15.5666 733 128.183 402.124 465.041
456 0 48.089 11.2916 543 135.645 401.311 463.355
457 0 50.2356 12.103 608 135.441 402.969 458.293
458 0 50.2356 12.0831 607 133.31 402.97 458.229
459 0 54.2317 13.9771 758 129.427 402.012 455.734
460 0 53.1246 11.5766 615 137.711 400.597 457.774
461 0 53.1725 13.4656 716 135.345 400.487 453.728
462 0 55.1091 11.45 631 136.051 400.114 455.761
463 0 62.3344 15.6414 975 124.281 401.658 453.732
464 0 62.1532 14.7539 917 122.895 401.983 453.182
465 0 61.1664 13.8311 846 138.188 402.976 451.835
466 0 68.1364 18.2869 1246 123.927 405.299 447.646
467 0 67.1473 17.6627 1186 127.996 407.831 448.019
468 0 70.2506 15.9999 1124 129.392 409.468 449.096
469 0 72.2307 17.5549 1268 127.014 411.84 445.519
470 0 75.2575 20.1575 1517 123.949 413.14 441.157
471 0 78.0974 14.3795 1123 130.717 414.517 450.183
472 0 82.5525 20.4718 1690 121.228 415.622 448.85
473 0 86.4185 14.1868 1226 134.142 416.923 445.462
474 0 86.4157 16.2355 1403 133.463 416.728 442.453
475 1 46.2549 11.3718 526 131.717 418.357 467.203
476 0 52.7334 10.1074 533 133.133 417.614 467.212
477 0 48.374 13.1269 635 133.233 417.244 468.03
478 0 48.3507 12.6989 614 129.87 415.619 464.808
479 0 48.2915 11.5755 559 136.199 414.955 462.73
480 0 49.1041 12.8095 629 135.556 414.156 465.31
481 0 50.0997 12.3953 621 138.544 412.934 463.254
482 0 55.0682 18.3772 1012 123.902 411.916 466.734
483 0 55.1373 14.1465 780 132.803 409.913 463.063
484 0 57.0417 12.447 710 133.092 408.365 465.523
485 0 57.2288 13.2451 758 134.799 407.372 461.73
486 0 63.1654 20.8342 1316 119.024 405.758 457.799
487 0 63.1493 12.5734 794 131.931 404.895 460.049
488 0 64.124 14.1913 910 133.287 404.338 456.921
489 0 65.3422 18.3496 1199 124.907 403.328 455.255
490 0 67.1688 14.8581 998 132.729 403.613 451.772
491 0 67.1342 15.1488 1017 130.979 403.449 452.336
492 0 72.1917 13.949 1007 133.485 402.814 448.105
493 0 73.1518 14.34 1049 131.479 403.255 448.228
494 0 75.2871 15.5936 1174 128.615 402.833 443.175
495 0 77.3668 12.2921 951 136.222 403.59 443.728
496 0 80.2334 12.3016 987 136.856 404.584 441.07
497 1 47.0903 12.7839 602 132.518 406.033 457.078
498 0 49.0427 11.4798 563 134.147 407.547 457.023
499 0 52.1777 10.1959 532 133.53 408.513 455.028
500 0 51.2553 11.511 590 132.437 410.79 455.18
501 0 51.2995 12.3783 635 127.524 411.485 449.861
502 0 51.2995 12.3198 632 129.625 412.497 449.84
503 0 52.0924 9.32958 486 129.088 414.593 446.628
504 0 56.2781 12.4205 699 123.93 415.67 448.013
505 0 61.3121 16.7177 1025 117.675 416.795 454.442
506 0 60.3369 13.0434 787 123.897 416.996 451.119
507 0 60.1791 12.8782 775 126.465 416.853 450.005
508 0 64.3376 16.973 1092 119.503 417.238 454.265
509 0 65.3023 13.2767 867 129.992 417.596 455.057
510 0 68.246 14.3891 982 130.019 417.112 455.144
511 0 69.1481 14.1725 980 130.116 416.734 458.038
512 0 69.1795 13.6168 942 136.191 415.344 453.849
513 0 73.2784 14.1106 1034 135.464 414.104 454.13
514 1 37.0368 6.93905 257 147.689 414.237 472.261
515 0 41.0537 10.9369 449 139.131 413.045 470.497
516 0 39.0134 8.433 329 144.863 411.836 470.119
517 0 45.0627 15.3564 692 129.848 409.5 466.012
518 0 48.2135 14.7054 709 133.31 406.498 463.939
519 0 50.0647 13.4426 673 133.514 405.611 462.333
520 0 49.1385 14.0623 691 132.884 405.63 461.017
521 0 52.124 15.7701 822 129.674 405.371 460.318
522 0 53.1078 13.3879 711 132.222 404.146 459.733
523 0 52.1723 13.3021 694 137.903 403.617 455.457
524 0 55.0679 14.8907 820 129.762 401.504 459.83
525 0 57.1401 13.9832 799 129.402 402.886 457.033
526 0 58.1557 14.2033 826 129.567 402.89 451.923
527 0 59.0821 12.5926 744 132.582 403.418 452.599
528 0 60.1879 12.2948 740 132.459 404.065 449.755
529 0 64.1687 16.3787 1051 125.464 403.951 447.284
530 0 65.0978 13.7946 898 132.361 405.674 444.86
531 0 67.0892 11.9691 803 129.061 407.141 448.334
532 0 72.3047 20.4966 1482 114.658 407.589 450.028
533 0 72.2892 12.3393 892 127.067 410.016 443.954
534 0 73.2308 9.72269 712 132.562 411.992 446.608
535 0 75.237 11.6299 875 131.195 414.199 440.336
536 0 81.2633 16.748 1361 122.469 414.855 440.866
537 1 41.0372 11.4286 469 130.267 416.19 458.753
538 0 41.0412 9.18588 377 132.231 417.891 460.963
539 0 44.0429 12.011 529 129.078 418.259 458.558
540 0 48.0336 13.4489 646 122.438 417.667 461.882
541 0 48.4942 11.6509 565 127.642 415.481 458.621
542 0 50.0515 14.8647 744 124.077 415.491 461.953
543 0 51.1786 14.9476 765 124.731 415.148 462.788
544 0 52.0527 14.8503 773 127.688 414.339 462.995
545 0 54.032 18.8962 1021 120.063 412.971 464.82
546 0 55.1135 15.4953 854 125.882 411.443 460.886
547 0 55.1116 14.0261 773 130.113 410.891 463.788
548 0 59.1446 15.6058 923 126.634 409.158 459.603
549 0 60.0824 14.2138 854 129.543 408.015 459.139
550 0 60.0252 13.9775 839 130.551 407.184 457.155
551 0 63.0516 17.9694 1133 123.472 405.95 456.508
552 0 66.0936 16.1287 1066 125.569 404.552 457.047
553 0 65.1138 13.9295 907 130.463 403.329 453.233
554 0 68.1258 16.2787 1109 127.512 402.466 452.818
555 0 70.1442 13.6576 958 131.623 401.451 448.61
556 0 76.1634 16.7009 1272 128.901 400.558 448.073
557 0 76.0925 14.9292 1136 131.488 400.179 449.518
558 0 78.2323 16.6172 1300 129.208 400.256 442.839
559 0 82.3089 15.8306 1303 127.755 400.318 441.537
560 0 86.1844 20.9203 1803 118.177 400.205 442.795
561 0 86.1844 20.8391 1796 132.935 400.171 442.727
562 0 92.3079 18.5358 1711 121.131 401.392 439.333
563 0 95.6748 21.0296 2012 117.114 403.04 437.121
564 0 94.3198 21.5437 2032 131.331 402.958 437.068
565 0 98.3993 14.2786 1405 120.195 405.738 425.959
566 0 103.294 18.7522 1937 114.221 407.701 419.454
567 0 104.536 17.4773 1827 118.344 410.019 421.314
568 0 108.718 19.6748 2139 114.351 412.495 420.812
569 1 61.2393 14.5821 893 114.009 414.976 449.828
570 0 60.3582 10.7359 648 119.403 416.198 445.738
571 0 62.2261 14.2545 887 114.13 416.56 449.99
572 0 68.1014 16.5929 1130 110.979 417.046 446.139
573 0 67.2027 13.6602 918 114.544 417.611 449.878
574 0 72.5444 16.6105 1205 112.553 416.996 448.409
575 0 72.1357 15.9283 1149 115.936 417.206 446.01
576 0 74.2471 11.6503 865 123.088 416.755 447.883
577 0 77.3098 16.0264 1239 119.586 416.708 445.726
578 0 80.2261 12.2279 981 129.206 415.286 446.55
579 0 81.256 14.4359 1173 127.896 414.332 445.228
580 0 85.1718 14.6645 1249 126.656 413.772 447.639
581 0 87.3432 17.769 1552 122.436 412.162 440.477
582 0 92.3561 13.9677 1290 127.844 410.818 442.973
583 0 97.2909 16.0138 1558 125.378 409.256 446.207
584 0 95.2578 14.382 1370 133.654 408.139 439.819
585 0 103.29 14.7449 1523 131.392 407.42 438.575
586 1 53.161 10.8162 575 129.744 406.256 462.381
587 0 56.1304 9.5492 536 130.295 404.89 464.694
588 0 54.1739 9.50642 515 135.765 404.027 459.831
589 0 58.2166 13.6559 795 132.819 403.584 459.247
590 0 66.063 14.6678 969 127.901 402.669 459.995
591 0 64.1849 13.6481 876 132.804 402.789 458.57
592 0 65.1682 12.7056 828 136.58 402.066 455.767
593 0 70.158 16.4486 1154 126.977 400.86 453.209
594 0 72.4958 17.5458 1272 127.984 401.301 450.691
595 0 75.3764 16.2518 1225 127.201 401.679 451.944
596 0 78.3679 17.8007 1395 127.398 402.354 450.905
597 0 80.4771 16.4395 1323 125.098 402.751 452.092
598 0 78.1952 13.5814 1062 136.936 404.75 446.213
599 0 85.1802 17.2458 1469 127.204 405.65 445.583
600 0 85.3163 13.6551 1165 136.133 407.486 441.401
601 0 89.1282 15.1467 1350 132.347 409.731 444.901
602 0 90.2213 13.8327 1248 138.165 410.883 439.627
603 1 53.1027 13.6528 725 128.297 412.921 461.286
604 0 53.1908 10.4529 556 132.556 413.709 460.068
605 0 52.1141 8.23194 429 133.098 413.261 464.378
606 0 53.0838 7.40339 393 133.682 412.16 460.196
607 0 56.0639 9.34648 524 134.922 411.882 454.885
608 0 57.1593 10.7244 613 133.977 411.031 457.124
609 0 59.1094 14.0756 832 129.337 411.569 464.8
610 0 63.0343 10.6291 670 134.648 409.236 465.17
611 0 66.056 18.7114 1236 120.537 408.445 465.964
612 0 67.2218 14.0877 947 131.114 407.622 464.073
613 0 68.0642 14.7508 1004 132.088 406.605 461.178
614 0 71.1534 15.5439 1106 130.517 405.467 458.29
615 0 73.0389 12.6782 926 134.975 403.756 457.683
616 0 76.1053 17.1736 1307 127.078 402.353 458.915
617 0 79.097 14.4253 1141 127.918 401.005 456.237
618 0 80.1107 13.731 1100 128.763 399.661 452.865
619 0 82.1564 14.2411 1170 132.79 398.362 447.313
620 0 87.1219 14.0034 1220 130.002 397.828 447.37
621 0 90.1387 20.2798 1828 116.749 397.429 452.73
622 0 92.1427 15.183 1399 126.634 397.168 444.534
623 0 93.159 12.8919 1201 131.349 397.498 443.527
624 0 96.1952 13.7533 1323 131.147 397.39 435.84
625 1 55.0844 13.561 747 120.025 398.051 463.859
626 0 55.097 11.2347 619 129.233 398.315 457.111
627 0 57.1461 13.9117 795 126.8 398.477 454.096
628 0 59.1928 12.113 717 128.908 399.151 451.707
629 0 62.0616 12.5682 780 126.487 402.127 452.105
630 0 63.0501 20.3013 1280 113.744 402.518 451.319
631 0 66.0683 15.3478 1014 118.979 404.25 450.329
632 0 70.2053 15.7395 1105 117.543 405.754 448.377
633 0 69.1882 13.774 953 122.413 406.855 446.759
634 0 69.2577 11.6088 804 127.012 408.607 442.101
635 0 74.2094 11.2519 835 126.826 410.547 445.969
636 0 79.2587 14.3454 1137 120.218 412.208 449.532
637 0 75.2415 13.45 1012 124.217 412.565 445.386
638 0 81.2561 15.2481 1239 122.791 413.292 441.642
639 0 84.384 17.1241 1445 120.99 413.532 446.012
640 0 84.3406 12.4732 1052 130.91 414.349 446.152
641 0 85.2571 14.7554 1258 132.021 414.289 443.664
642 1 45.1836 10.5791 478 133.312 414.274 465.146
643 0 45.0917 13.0623 589 128.267 413.747 466.448
644 0 50.1591 12.58 631 130.616 413.117 463.38
645 0 51.0967 14.1496 723 128.849 411.916 463.654
646 0 50.1815 12.0961 607 132.053 411.537 465.509
647 0 52.1371 12.2561 639 134.509 409.884 459.787
648 0 53.0256 14.7099 780 127.123 408.645 463.777
649 0 56.0665 15.3746 862 123.546 407.071 461.742
650 0 56.2145 12.7547 717 132.869 404.091 462.672
651 0 51.2531 8.37022 429 140.793 402.886 460.793
652 0 57.1138 12.5189 715 129.657 401.585 461.406
653 0 60.2419 14.0102 844 128.967 400.77 458.675
654 0 62.1078 13.3478 829 130.642 399.945 455.644
655 0 65.1611 16.206 1056 123.783 399.801 455.277
656 0 64.1589 15.711 1008 124.121 398.781 454.695
657 0 69.0974 17.0773 1180 122.121 398.331 447.669
658 0 72.1937 16.802 1213 119.125 397.878 453.797
659 0 73.0908 13.2438 968 128.293 399.164 449.865
660 0 72.1651 14.744 1064 126.81 398.938 446.752
661 0 74.2203 11.2772 837 131.075 399.351 446.977
662 0 80.1663 20.944 1679 116.674 400.871 444.186
663 0 81.1294 15.9129 1291 123.704 402.73 442.708
664 0 85.2488 16.9035 1441 120.88 404.018 440.723
665 0 86.1822 13.367 1152 127.69 406.109 439.177
666 0 89.1897 12.6136 1125 129.678 408.147 434.412
667 0 93.1523 17.9598 1673 119.752 410.374 440.888
668 0 96.2 16.2994 1568 125.559 411.66 433.333
669 0 98.1065 14.7799 1450 128.443 413.734 433.982
670 0 102.459 14.6791 1504 129.292 416.099 433.348
671 1 60.3978 13.6263 823 127.073 418.094 455.475
672 0 58.2137 13.7768 802 130.59 418.036 453.949
673 0 59.1396 12.8002 757 128.851 418.333 457.38
674 0 62.1398 12.5202 778 131.911 417.496 455.774
675 0 65.1619 13.3974 873 129.83 416.978 457.109
676 0 66.1462 12.5631 831 134.992 416.348 456.16
677 0 70.3623 15.8608 1116 128.097 415.394 454.387
678 0 72.2243 15.4934 1119 130.595 413.758 454.87
679 0 71.3102 12.9575 924 136.718 412.552 455.001
680 0 74.3064 14.4133 1071 135.105 410.757 451.199
681 0 77.2625 15.9456 1232 131.406 409.205 451.626
682 0 79.3347 18.2014 1444 125.634 407.476 449.735
683 0 87.5706 18.4651 1617 122.618 406.028 448.575
684 0 85.3936 16.0199 1368 123.071 405.04 453.535
685 0 88.52 15.1604 1342 133.057 404.011 442.618
686 0 94.4369 20.1404 1902 120.026 402.489 446.853
687 1 46.0624 13.5686 625 128.202 402.874 463.454
688 0 52.1358 12.314 642 130.098 400.752 459.368
689 0 50.1936 13.2089 663 126.937 400.507 458.437
690 0 52.4323 13.0835 686 127.848 401.057 455.701
691 0 56.3179 13.193 743 126.852 400.52 452.545
692 0 56.5065 13.8922 785 125.238 400.797 451.181
693 0 59.3352 12.876 764 123.153 402.251 453.208
694 0 61.1633 14.5676 891 124.983 403.355 449.643
695 0 61.1513 14.9302 913 124.642 404.331 448.566
696 0 63.1689 14.2317 899 126.25 405.335 448.088
697 0 65.1657 12.1076 789 127.221 405.728 446.483
698 0 68.5819 14.6103 1002 121.722 408.089 446.241
699 0 71.1475 15.1657 1079 121.689 409.946 442.593
700 0 74.3638 18.3826 1367 116.52 411.808 442.797
701 0 79.299 19.0166 1508 115.147 412.747 443.916
702 0 78.3004 18.0714 1415 118.584 413.419 444.683
703 0 82.3358 20.0399 1650 114.798 414.787 445.455
704 0 86.1532 22.3788 1928 112.694 415.037 440.296
705 0 87.2149 16.3619 1427 118.572 415.085 446.64
706 0 85.275 16.7575 1429 123.627 414.957 440.404
707 0 89.3014 15.8788 1418 125.083 414.753 443.128
708 0 92.2539 16.6064 1532 124.405 414.833 442.33
709 1 50.2166 11.0919 557 132.636 414.729 462.043
710 0 52.1468 11.3717 593 131.567 413.744 464.145
711 0 51.2386 13.5054 692 132.727 411.919 463.344
712 0 54.2266 10.6405 577 137.558 411.052 464.312
713 0 57.2472 13.433 769 134.819 409.921 462.662
714 0 57.188 13.3594 764 131.924 407.887 460.445
715 0 57.1376 12.1986 697 132.798 406.604 458.63
716 0 62.1832 16.2906 1013 123.97 404.64 457.779
717 0 62.0871 16.2836 1011 124.526 403.4 456.561
718 0 62.1032 11.3682 706 131.296 402.279 458.071
719 0 65.0717 11.4643 746 130.869 401.886 457.646
720 0 66.1279 12.0222 795 134.657 400.786 452.174
721 0 71.2919 15.0228 1071 124.385 400.46 455.275
722 0 73.1882 14.4696 1059 130.504 400.574 449.391
723 0 74.165 15.5599 1154 128.95 400.906 447.765
724 0 76.1245 13.1364 1000 130.849 400.968 451.602
725 0 78.1341 14.2319 1112 131.339 400.783 443.404
726 0 82.1361 15.1456 1244 130.726 402.081 443.969
727 1 42.0878 11.6661 491 127.36 403.035 464.605
728 0 43.1667 11.7915 509 128.373 404.713 461.305
729 0 48.1185 10.4949 505 125.463 405.923 461.786
730 0 48.0779 11.3358 545 130.927 407.382 458.308
731 0 51.3109 14.0711 722 122.201 409.086 463.893
732 0 50.0374 12.5107 626 136.3 411.744 458.304
733 0 52.118 14.3712 749 133.302 413.841 459.288
734 0 51.0407 12.4998 638 132.412 413.74 460.865
735 0 51.3275 11.6702 599 138.329 414.247 459.182
736 0 53.1207 13.6858 727 135.835 415.492 459.589
737 0 55.1781 15.894 877 132.97 416.412 460.38
738 0 57.1426 13.2651 758 136.741 416.489 462.567
739 0 59.344 14.6434 869 135.988 415.619 459.052
740 0 60.1328 13.8693 834 141.275 415.233 459.145
741 0 64.3128 15.9999 1029 137.303 414.775 461.277
742 0 67.0653 15.6266 1048 140.739 413.541 462.056
743 0 68.1558 14.4228 983 146.105 412.179 460.297
744 0 68.1776 14.2862 974 149.864 410.841 460.793
745 0 75.188 15.0822 1134 146.179 409.342 458.002
746 0 74.2292 12.5692 933 153.181 407.444 458.662
747 0 78.1805 15.7712 1233 146.111 405.933 456.169
748 1 40.0366 10.5653 423 151.678 404.232 473.508
749 0 42.0323 10.373 436 149.894 402.658 473.656
750 0 45.056 12.8285 578 144.531 401.711 471.907
751 0 41.0234 10.8962 447 150.121 401.28 468.573
752 0 46.0177 10.6481 490 146.482 400.769 469.361
753 0 48.0513 13.9226 669 138.558 400.01 467.804
754 0 51.1014 14.4615 739 134.342 399.702 467.215
755 0 49.2029 14.1252 695 135.17 400.384 466.583
756 0 49.1051 11.5263 566 145.993 400.375 464.793
757 0 53.2379 16.0224 853 131.971 400.156 463.46
758 0 55.147 14.1803 782 138.237 400.825 464.045
759 0 56.1321 13.5929 763 134.008 400.304 462.318
760 0 59.3078 14.2477 845 130.988 401.265 461.13
761 0 61.1599 16.2034 991 126.248 401.972 457.553
762 0 60.1295 12.2901 739 133.911 403.138 459.208
763 0 63.5317 14.2449 905 130.606 404.306 457.474
764 0 67.2802 16.3198 1098 125.559 406.548 459.814
765 0 68.5662 16.9763 1164 127.072 407.324 459.415
766 0 68.2806 14.5722 995 137.123 408.026 452.406
767 0 69.3848 13.2306 918 138.782 408.834 454.607
768 0 77.4529 13.5179 1047 139.311 410.078 456.981
769 0 75.2028 14.4144 1084 138.982 411.076 455.027
770 0 77.1679 12.1294 936 144.926 411.588 453.926
771 0 79.1152 13.1201 1038 143.283 412.069 454.077
772 0 84.1873 16.5346 1392 137.886 411.738 449.819
773 0 85.1413 16.4785 1403 138.708 412.197 457.098
774 0 89.3049 14.9824 1338 142.984 411.389 452.258
775 0 91.1397 15.8987 1449 142.95 410.251 450.685
776 1 52.0761 10.1774 530 146.632 407.858 475.679
777 0 47.1437 9.9483 469 152.52 407.104 472.806
778 0 54.079 12.7961 692 144.699 405.227 472.957
779 0 57.1235 10.4861 599 149.412 403.957 472.987
780 0 59.0391 15.4643 913 141.347 402.011 467.535
781 0 61.0844 13.8169 844 145.376 400.69 467.477
782 0 63.0255 13.6453 860 147.203 399.178 462.362
783 0 67.305 14.5457 979 132.574 399.137 459.534
784 0 66.0933 16.4918 1090 131.947 397.775 462.652
785 0 68.065 16.0435 1092 135.99 397.14 460.868
786 0 73.2252 15.8279 1159 134.424 395.76 455.439
787 0 74.1174 18.8755 1399 126.883 395.505 459.109
788 0 77.1499 16.7207 1290 133.05 394.918 451.46
789 0 76.3646 14.7974 1130 136.106 396.384 449.893
790 0 81.3259 15.9974 1301 133.105 396.548 447.476
791 0 81.5348 14.2761 1164 135.776 397.729 447.874
792 0 85.3452 17.0133 1452 126.287 397.209 448.716
793 0 90.3132 17.3064 1563 125.737 398.481 446.064
794 0 92.4261 27.1352 2508 115.168 398.955 441.451
795 0 96.3239 17.2335 1660 130.449 400.06 437.412
796 0 99.4548 17.063 1697 131.272 401.592 436.583
797 0 101.439 17.7939 1805 129.705 403.294 435.673
798 1 53.1182 9.95892 529 138.399 405.624 458.66
799 0 56.23 13.3737 752 128.789 405.707 457.556
800 0 56.0814 14.1401 793 124.419 407.068 458.86
801 0 59.0397 13.9398 823 127.122 408.401 456.993
802 0 66.1545 14.6778 971 123.689 411.976 456.72
803 0 66.1818 15.1703 1004 126.211 413.714 454.53
804 0 69.0799 16.3723 1131 123.66 414.469 455.156
805 0 69.2173 13.2192 915 130.37 415.034 456.872
806 0 70.1228 13.6617 958 130.749 414.266 450.297
807 0 75.3242 18.3739 1384 123.141 414.25 452.311
808 0 76.1298 13.0172 991 134.058 414.412 454.111
809 0 79.271 14.7973 1173 131.19 413.282 456.987
810 0 78.3222 12.7167 996 140.135 412.289 451.113
811 0 83.3058 14.1287 1177 137.154 411.636 448.254
812 0 87.2043 15.0451 1312 134.986 411.199 449.763
813 0 90.1897 14.4695 1305 137.438 410.075 448.975
814 0 91.2052 16.0298 1462 135.768 408.802 445.712
815 0 96.3331 19.7336 1901 127.547 407.73 445.36
816 0 97.1035 14.4485 1403 140.386 406.641 443.093
817 0 102.288 14.8796 1522 136.206 405.507 442.196
818 1 45.1183 9.72997 439 138.64 405.774 466.8
819 0 45.1536 11.6934 528 135.559 404.589 463.737
820 0 49.173 9.35472 460 136.959 405.028 463.413
821 0 52.2102 12.3156 643 127.21 404.344 464.428
822 0 52.3522 14.7463 772 125.784 402.89 456.614
823 0 52.4541 12.2393 642 128.886 402.727 458.081
824 0 59.6649 15.5535 928 119.961 404.651 460.159
825 0 57.3434 13.6895 785 126.674 402.185 457.86
826 0 60.1569 14.8279 892 122.033 402.731 458.747
827 0 62.2003 14.5498 905 122.664 404.043 454.354
828 0 64.2241 17.5012 1124 118.584 404.975 450.595
829 0 66.3267 15.9966 1061 120.217 406.529 448.406
830 0 68.3171 14.5498 994 121.426 407.505 449.324
831 0 68.2303 12.3406 842 130.314 409.07 450.717
832 0 70.3578 17.1267 1205 123.428 410.746 447.324
833 0 74.4181 16.582 1234 123.051 412.481 450.259
834 0 72.3902 16.0519 1162 127.26 414.435 446.776
835 0 75.3779 15.9729 1204 128.605 414.823 451.262
836 0 77.4356 14.8769 1152 130.602 416.557 449.92
837 0 75.4822 12.2148 922 137.648 416.409 450.024
838 0 80.4558 16.0337 1290 130.011 416.774 448.034
839 0 81.5026 15.0425 1226 135.833 416.585 443.706
840 0 82.6642 14.3714 1188 143.818 415.986 446.334
841 0 85.3465 14.365 1226 136.878 416.079 449.014
842 0 83.1563 11.8572 986 144.28 416.838 448.299
843 0 87.1778 15.7265 1371 139.605 415.464 447.074
844 0 89.2452 14.477 1292 143.134 413.02 448.02
845 0 90.262 13.5605 1224 146.39 411.942 448.236
846 0 92.2981 15.0707 1391 143.748 410.919 448.354
847 0 95.2624 14.5388 1385 145.586 409.55 447.837
848 0 94.1838 16.213 1527 141.709 408.45 441.702
849 0 95.2801 14.9979 1429 145.669 407.204 443.857
850 0 97.3164 14.8279 1443 144.073 406.052 439.631
851 0 98.2949 15.6671 1540 142.891 404.589 440.049
852 0 98.3864 15.6831 1543 143.936 403.481 440.975
853 0 100.25 14.8628 1490 145.919 402.64 440.068
854 0 100.26 14.9213 1496 147.661 402.404 436.82
855 0 103.417 16.1772 1673 146.51 401.856 437.075
856 0 101.33 15.7209 1593 147.33 402.219 433.67
857 0 104.485 16.8445 1760 143.571 402.116 430.489
858 0 107.252 16.4099 1760 144.867 402.705 432.948
859 0 109.359 19.0656 2085 138.476 403.269 431.567
860 0 109.452 18.3551 2009 140.202 404.046 432.383
861 0 110.267 19.6976 2172 137.18 404.322 432.156
862 0 115.602 20.1554 2330 136.175 404.973 432.427
863 0 112.277 18.4455 2071 142.482 407.771 433.569
864 0 111.472 16.9011 1884 140.937 408.153 431.997
865 0 110.247 16.7442 1846 143.72 409.628 430.63
866 0 112.21 17.8594 2004 142.419 411.035 428.117
867 0 112.184 17.9973 2019 147.364 412.718 431.69
868 0 112.276 17.3946 1953 145.096 413.948 428.742
869 0 112.488 17.4507 1963 144.979 414.145 432.238
870 0 114.284 19.8454 2268 138.714 415.013 434.524
871 0 113.226 19.0945 2162 144.565 414.992 431.502
872 0 112.272 17.0924 1919 149.308 415.368 432.204
873 0 112.215 19.8814 2231 144.024 415.015 433.779
874 0 114.203 19.693 2249 144.266 414.686 437.504
875 0 111.29 17.5936 1958 154.543 414.587 437.114
876 0 112.266 19.142 2149 149.88 414.055 437.007
877 0 111.239 16.8916 1879 154.149 412.202 439.347
878 0 110.312 16.263 1794 161.522 411.132 436.928
879 0 113.208 20.6346 2336 146.573 409.816 437.129
880 0 112.224 18.0265 2023 153.73 407.913 436.018
881 0 112.201 19.1977 2154 150.703 406.248 434.307
882 0 111.304 18.0855 2013 152.455 405.096 435.306
883 0 112.212 19.0087 2133 148.523 403.934 437.847
884 0 112.262 18.1361 2036 149.393 402.903 430.861
885 0 113.24 19.5426 2213 149.317 402.234 434.61
886 0 112.31 18.7873 2110 150.377 401.192 432.003
887 0 111.262 15.7646 1754 159.432 401.311 431.913
888 0 113.515 19.5129 2215 145.866 400.763 428.549
889 0 113.515 19.1693 2176 152.619 399.775 428.298
890 0 111.21 16.914 1881 151.058 400.147 428.14
891 0 112.285 24.3398 2733 134.001 400.255 427.486
892 0 112.368 18.3682 2064 144.789 400.527 419.499
893 0 113.265 18.9025 2141 142.936 401.14 423.781
894 0 115.418 19.7283 2277 139.416 402.42 428.749
895 0 112.381 17.3874 1954 146.147 403.085 425.012
896 0 110.224 21.5924 2380 140.774 404.59 422.901
