time division length width area intensity CMx CMy
0 0 80.1113 12.6574 1014 135.509 738.104 435.421
1 0 79.3691 12.9899 1031 135.942 739.181 430.192
2 0 79.3691 13.0655 1037 148.959 740.195 430.312
3 0 92.3598 16.1542 1492 127.981 739.534 434.755
4 0 103.923 18.8794 1962 120.165 740.438 436.643
5 1 50.3043 14.0147 705 120.013 740.546 454.304
6 0 54.3026 11.8411 643 121.964 739.726 454.862
7 0 54.3026 11.8779 645 129.743 738.75 454.847
8 0 54.2932 13.7771 748 120.425 738.205 454.856
9 0 55.2692 13.0091 719 125.562 734.345 451.855
10 0 63.5212 19.7257 1253 118.286 734.903 451.865
11 0 64.9181 15.5581 1010 121.865 732.491 455.447
12 0 59.0619 13.0202 769 134.286 732.107 453.553
13 0 61.1738 13.5025 826 135.207 731.529 449.987
14 0 61.0952 13.0779 799 145.816 730.15 447.439
15 0 65.1812 17.0601 1112 143.278 728.576 449.879
16 0 65.1574 14.1503 922 153.563 726.618 448.079
17 0 68.1232 12.3746 843 159.329 724.936 445.751
18 0 72.1699 14.4936 1046 154.865 723.93 443.335
19 0 72.1583 11.4748 828 163.75 722.872 441.477
20 0 75.18 14.6316 1100 153.357 722.575 440.541
21 1 42.0179 11.4475 481 154.917 721.717 455.366
22 0 41.1414 9.04199 372 156.524 721.594 454.629
23 0 42.0567 13.1489 553 147.521 721.656 454.36
24 0 44.0455 11.6925 515 150.52 721.287 451.682
25 0 44.1158 9.04437 399 153.193 721.935 452.143
26 0 45.3781 14.1037 640 144.188 722.898 449.689
27 0 48.3041 11.7174 566 139.993 724.074 450.237
28 0 50.1847 12.6931 637 142.242 723.763 445.716
29 0 50.1847 12.7927 642 129.202 723.745 445.699
30 0 50.2313 12.9003 648 128.366 723.736 445.744
31 0 55.111 11.7218 646 133.649 728.512 447.217
32 0 57.274 11.8553 679 123.476 731.004 446.221
33 0 59.2456 17.554 1040 111.359 732.328 443.55
34 0 60.2257 11.1414 671 112.857 734.328 448.551
35 0 67.5757 10.8027 730 112.17 736.105 449.973
36 0 67.2741 15.9943 1076 106.235 736.895 453.254
37 0 70.6558 14.2522 1007 109.863 737.553 446.791
38 0 68.2368 21.1616 1444 108.949 737.361 442.528
39 0 395.86 40.2768 15944 108.713 735.267 273.343
40 1 150.887 22.5335 3400 109.909 736.544 420.732
41 1 82.0656 34.4724 2829 97.3556 734.705 451.28
42 0 79.296 16.1547 1281 111.369 736.272 446.397
43 0 85.0299 17.7467 1509 112.085 735.036 443.665
44 0 82.2106 15.3022 1258 121.088 734.029 441.645
45 0 84.648 18.571 1572 112.511 733.362 448.858
46 1 45.154 14.5281 656 112.133 731.651 468.137
47 0 45.154 14.1073 637 116.752 729.611 468.042
48 0 49.0398 11.7863 578 127.663 729.638 464.45
49 0 51.0517 12.3013 628 133.033 728.013 459.36
50 0 52.0419 12.0288 626 141.692 726.896 458.235
51 0 53.116 11.955 635 140.346 725.124 456.389
52 0 56.041 12.0447 675 139.727 723.407 458.856
53 0 56.0452 11.6513 653 132.066 721.433 458.525
54 0 59.2165 14.8438 879 129.461 722.363 455.684
55 0 58.0546 14.0213 814 133.055 721.541 451.154
56 0 62.1513 13.3062 827 133.64 720.988 451.704
57 0 67.0602 13.1375 881 133.613 720.527 449.844
58 0 66.1211 12.5376 829 135.405 721.095 445.809
59 0 68.3416 14.3836 983 132.161 721.021 443.188
60 0 70.3808 12.9723 913 133.163 721.148 444.399
61 0 71.1792 12.2648 873 139.216 721.297 440.824
62 0 75.2468 14.6319 1101 133.845 721.19 441.053
63 0 78.1359 15.1403 1183 131.594 722.32 440.677
64 0 82.2996 11.6647 960 131.958 724.756 441.624
65 0 83.2911 14.8875 1240 126.548 725.657 435.005
66 0 85.2467 13.373 1140 121.666 729.035 440.515
67 0 90.3743 15.4579 1397 116.981 731.586 435.993
68 1 48.0484 9.71936 467 122.227 734.141 453.131
69 0 54.2447 10.213 554 118.238 735.552 454.307
70 0 53.2509 18.2344 971 107.905 736.036 458.779
71 0 51.1197 13.752 703 113.306 737.037 453.117
72 0 56.3662 18.5218 1044 107.489 735.399 457.067
73 0 60.2113 19.8136 1193 106.986 735.521 458.131
74 0 59.2468 11.9162 706 110.108 736.839 465.289
75 0 57.2302 11.6896 669 118.039 735.901 456.504
76 0 62.2303 22.0471 1372 108.773 734.343 461.437
77 0 63.4946 15.7336 999 123.738 733.834 458.689
78 0 65.0761 18.7012 1217 120.707 734.049 459.214
79 0 64.1189 14.9566 959 131.097 732.324 455.193
80 0 66.1066 9.34854 618 141.058 731.175 456.576
81 0 66.1066 9.43931 624 141.801 729.159 456.676
82 0 72.0838 13.9282 1004 135.171 727.424 455.204
83 0 71.1438 12.0882 860 147.215 726.479 451.2
84 0 77.1292 13.6006 1049 140.113 724.728 453.887
85 1 39.0375 7.73614 302 151.583 723.189 464.444
86 0 42.0406 11.7743 495 141.646 722.026 467.796
87 0 44.0622 11.5518 509 144.495 720.851 463.328
88 0 44.078 9.80081 432 151.174 720.167 460.995
89 0 46.0845 12.3252 568 144.333 719.305 459.364
90 0 46.1566 12.1326 560 144.246 717.961 459.727
91 0 49.229 11.6801 575 143.781 718.511 457.939
92 0 51.2981 13.5288 694 140.111 718.331 452.399
93 0 52.1288 11.7977 615 143.616 717.605 453.472
94 0 53.0851 11.491 610 145.061 716.734 452.082
95 0 55.0826 11.1469 614 147.464 717.441 452.106
96 0 57.0616 13.7395 784 135.626 718.214 452.688
97 0 58.1019 12.3576 718 140.979 720.033 448.852
98 0 58.0341 11.7345 681 134.417 721.893 446.74
99 0 62.0803 12.6127 783 130.538 724.374 449.326
100 0 64.0706 12.5799 806 127.035 725.438 450.846
101 0 62.1013 11.5134 715 125.737 727.723 446.164
102 0 72.4421 13.3348 966 116.289 729.808 447.381
103 0 71.2545 11.4519 816 117.897 730.425 450.403
104 0 76.4516 18.0768 1382 109.958 732.377 448.976
105 0 75.1844 13.274 998 115.529 732.228 448.448
106 0 79.2153 10.9575 868 118.142 732.097 450.356
107 0 83.1997 10.8174 900 115.091 733.324 450.729
108 0 86.462 20.0435 1733 110.717 732.658 444.931
109 0 92.6445 26.0674 2415 107.241 732.748 439.848
110 0 89.114 10.6381 948 124.969 731.368 446.75
111 1 48.0655 11.2139 539 123.866 730.432 465.36
112 0 46.133 10.7949 498 128.349 729.948 466.396
113 0 48.1712 11.0647 533 129.184 728.672 462.651
114 0 48.1712 11.0647 533 135.053 727.672 462.651
115 0 48.1712 11.0647 533 134.54 726.672 462.651
116 0 54.1146 15.3933 833 124.067 725.293 466.719
117 0 53.1383 13.399 712 129.698 723.907 463.372
118 0 58.0522 13.5051 784 131.546 722.133 463.524
119 0 54.0776 11.4835 621 137.266 720.831 462.349
120 0 59.1186 14.8684 879 131.95 719.949 460.16
121 0 62.1952 16.0141 996 129.937 718.552 458.56
122 0 60.211 10.0978 608 140.47 717.446 459.192
123 0 62.101 15.829 983 132.13 716.626 452.154
124 0 64.0943 13.4957 865 140.079 715.554 450.724
125 0 65.0671 11.3882 741 140.518 715.978 452.973
126 0 67.0731 15.1327 1015 134.775 715.571 447.936
127 0 68.1324 13.6646 931 138.043 715.648 444.256
128 0 71.3544 15.402 1099 131.908 715.673 447.796
129 0 73.1916 12.0915 885 139.103 716.575 446.92
130 0 77.2408 15.1345 1169 131.227 717.303 446.919
131 0 77.1047 14.5387 1121 134.502 718.846 441.976
132 0 80.2456 18.6926 1500 122.639 720.513 439.302
133 0 82.3547 14.134 1164 129.614 722.973 443.034
134 0 88.4621 16.866 1492 118.375 725.184 445.771
135 0 89.9779 14.4369 1299 124.225 726.834 433.336
136 0 96.6121 15.6502 1512 117.548 728.347 439.481
137 0 94.2234 17.4054 1640 115.662 729.34 442.6
138 0 98.2711 19.0392 1871 114.872 731.514 434.261
139 0 103.918 16.359 1700 114.726 731.784 439.393
140 1 52.2413 14.6627 766 112.317 732.822 461.601
141 0 56.1296 14.3774 807 115.073 732.472 457.25
142 0 58.5723 25.2679 1480 102.939 731.499 464.494
143 0 58.2359 15.8493 923 117.81 730.514 456.949
144 0 59.2857 15.1976 901 119.4 727.67 462.825
145 0 56.2754 11.497 647 133.029 725.51 459.326
146 0 60.1507 13.2168 795 130.75 726.136 456.818
147 0 66.1092 13.9164 920 126.933 725.268 461.476
148 0 66.1621 15.9003 1052 127.067 723.932 456.679
149 0 68.1749 15.3282 1045 129.514 722.405 454.846
150 0 70.132 12.1628 853 137.558 720.569 454.952
151 0 74.1008 14.4533 1071 133.063 719.981 454.175
152 0 73.197 13.4842 987 139.946 718.009 448.687
153 0 77.3652 14.787 1144 135.828 717.158 447.454
154 0 81.4001 13.5381 1102 136.993 715.554 448.244
155 0 84.2423 14.9925 1263 136.496 715.11 445.348
156 0 85.2412 12.1303 1034 139.372 714.429 440.596
157 0 87.1962 12.7758 1114 137.662 713.837 439.663
158 0 92.2708 11.7805 1087 138.862 712.927 436.755
159 1 46.0573 10.5955 488 137.654 712.131 459.141
160 0 48.0227 9.72458 467 141.197 712.019 454.685
161 0 52.1361 11.1631 582 137.734 712.646 454.376
162 0 54.4218 12.4582 678 130.586 715.559 455.442
163 0 54.4277 12.3466 672 133.484 715.464 451.964
164 0 58.0473 16.7966 975 121.532 716.817 453.708
165 0 57.274 13.741 787 124.511 719.977 452.569
166 0 55.1168 12.3193 679 130.18 721.51 451.281
167 0 61.162 14.012 857 126.683 724.331 451.064
168 0 64.0737 10.9405 701 128.111 725.783 455.367
169 0 68.2527 15.7063 1072 116.744 726.757 447.949
170 0 67.3887 11.8714 800 126.711 727.679 448.145
171 0 70.3149 13.9089 978 123.064 728.71 447.458
172 0 72.2489 12.3877 895 125.907 728.437 448.859
173 0 78.4514 12.6575 993 124.149 729.548 453.093
174 0 77.2589 14.0696 1087 125.609 729.792 451.602
175 0 80.4007 15.9824 1285 125.715 729.563 448.807
176 0 81.334 14.3114 1164 135.525 728.381 445.547
177 0 86.2526 15.9879 1379 132.943 727.529 445.635
178 0 89.2096 16.5789 1479 132.619 727.83 448.469
179 0 91.2733 12.731 1162 142.253 725.573 446.063
180 1 45.0688 13.1355 592 143.949 725.62 469.245
181 0 49.1627 12.001 590 139.253 724.676 469.997
182 0 48.0634 11.3184 544 142.812 722.574 466.347
183 0 51.1496 12.1213 620 144.331 718.566 463.624
184 0 50.0674 15.3193 767 137.246 719.97 465.798
185 0 51.0864 12.8018 654 144.211 718.795 463.317
186 0 54.1815 13.4548 729 141.391 717.364 464.7
187 0 53.0892 13.2042 701 143.789 716.435 461.702
188 0 56.0783 12.6074 707 143.533 715.321 460.724
189 0 57.1255 11.7636 672 144.222 715.905 461.821
190 0 60.2619 11.533 695 144.563 714.601 457.207
191 0 62.1413 13.5337 841 140.762 713.834 456.715
192 0 63.1812 13.4534 850 143.107 713.432 453.348
193 0 66.2049 13.4129 888 141.238 712.899 454.028
194 0 71.1962 17.6695 1258 131.68 714 450.689
195 0 72.1559 13.9836 1009 140.614 713.802 451.141
196 0 76.2458 15.1746 1157 138.12 714.989 447.146
197 0 75.2335 13.93 1048 137.474 716.101 444.86
198 0 80.246 18.518 1486 128.225 717.293 444.723
199 0 78.282 14.8182 1160 139 718.803 440.96
200 0 81.1977 15.3329 1245 136.909 719.969 442.027
201 0 85.1294 15.1299 1288 133.988 722.83 444.426
202 0 88.271 15.7017 1386 133.577 724.223 443.745
203 0 86.3644 15.6662 1353 135.286 725.157 436.807
204 0 88.2007 15.1246 1334 139.177 726.272 437.579
205 0 93.4676 18.3165 1712 133.31 727.246 438.065
206 0 97.2108 16.5825 1612 131.829 727.385 441.329
207 0 96.1509 15.3717 1478 139.212 727.661 436.965
208 0 103.262 15.4751 1598 139.927 727.918 437.535
209 0 103.447 18.0672 1869 138.478 727.074 434.16
210 0 106.301 15.6725 1666 142.344 727.405 434.211
211 0 109.186 15.0019 1638 151.697 726.716 435.451
212 0 115.145 16.7875 1933 147.726 726.211 437.892
213 0 116.225 15.8658 1844 156.106 724.358 430.606
214 0 121.154 16.8051 2036 152.649 723.894 429.679
215 0 123.144 15.9001 1958 157.604 722.65 429.198
216 0 129.185 17.1227 2212 154.375 721.235 420.499
217 0 132.181 15.789 2087 159.295 719.594 418.864
218 0 138.314 16.5493 2289 156.605 718.37 421.017
219 1 77.3035 11.4484 885 156.359 717.356 454.001
220 0 78.1432 11.4405 894 158.887 715.584 450.959
221 0 83.1524 14.5636 1211 151.364 714.352 449.78
222 0 83.2208 14.4675 1204 153.166 712.968 444.435
223 0 86.2923 14.0105 1209 151.634 712.509 448.369
224 0 90.165 16.0927 1451 149.398 712.123 441.096
225 0 90.1164 14.0263 1264 154.456 711.426 438.814
226 0 94.2349 14.5381 1370 151.85 711.909 439.036
227 0 99.2166 17.1745 1704 146.772 711.558 434.978
228 0 100.178 16.88 1691 145.502 712.449 433.015
229 0 106.485 16.5564 1763 146.389 712.914 428.881
230 0 107.49 15.7875 1697 143.321 714.035 432.798
231 0 114.53 15.9084 1822 140.271 715.217 428.44
232 1 61.5767 9.09434 560 142.991 717.039 451.732
233 0 66.3394 14.9534 992 129.387 718.644 454.352
234 0 68.2755 14.0753 961 138.461 720.587 448.366
235 0 71.6813 12.6811 909 134.543 722.679 446.883
236 0 73.4506 15.5615 1143 133.637 724.488 446.737
237 0 75.4817 15.0898 1139 131.686 725.956 447.456
238 0 78.5387 18.1694 1427 127.081 726.523 447.106
239 0 79.5292 12.5991 1002 136.73 727.926 447.127
240 0 81.7083 12.6303 1032 137.254 728.556 444.801
241 0 80.6016 13.2628 1069 134.575 727.576 442.324
242 0 81.6108 15.3901 1256 122.72 727.625 445.616
243 0 82.8192 15.7572 1305 120.904 726.989 449.552
244 0 78.6723 14.1981 1117 128.288 726.079 443.121
245 0 78.7513 13.3966 1055 118.232 725.57 447.373
246 0 79.6631 11.8876 947 112.354 724.414 447.004
247 0 72.5991 10.7026 777 109.646 723.335 439.148
