time division length width area intensity CMx CMy
0 0 49.1675 14.6031 718 129.29 364.042 380.483
1 0 52.1676 13.8017 720 130.182 364.819 380.7
2 0 54.1166 14.1546 766 127.223 365.715 382.778
3 0 53.1702 14.8956 792 131.706 366.167 377.909
4 0 52.436 14.2269 746 132.965 366.042 379.836
5 0 55.2409 12.708 702 136.117 365.843 382.514
6 0 60.1252 18.5114 1113 126.932 365.465 381.682
7 0 60.184 16.4662 991 131.812 364.854 382.554
8 0 69.3472 21.7024 1505 119.353 363.76 389.154
9 0 64.3149 16.3881 1054 131.626 362.507 385.17
10 0 65.0967 13.6105 886 140.148 361.67 385.254
11 0 67.0515 19.2538 1291 133.419 361.459 385.598
12 0 70.2909 15.7488 1107 143.524 360.014 386.376
13 0 71.4005 16.6525 1189 140.574 359.472 388.825
14 0 72.2105 13.4191 969 154.481 358.469 383.275
15 1 39.213 9.56316 375 153.467 357.027 404.299
16 0 42.1163 10.3523 436 154.589 355.594 402.679
17 0 41.3693 11.4094 472 159.398 354.081 402.244
18 0 44.0944 12.0877 533 160.555 352.529 399.717
19 0 45.0931 12.707 573 159.41 351.723 399.168
20 0 46.0783 12.5873 580 157.297 350.555 400.633
21 0 47.0335 13.7774 648 156.977 350.176 398.338
22 0 50.0454 15.9255 797 151.014 349.556 397.054
23 0 51.0484 14.3589 733 153.378 349.445 394.674
24 0 50.0509 13.5862 680 157.837 348.884 395.915
25 0 53.0727 14.2069 754 155.906 348.885 392.599
26 0 53.1056 13.0118 691 159.415 349.2 390.845
27 0 57.0676 15.7182 897 150.649 349.886 391.027
28 0 58.1234 13.781 801 153.477 350.06 390.07
29 0 61.2526 14.0402 860 150.529 351.813 390.845
30 0 59.1785 12.099 716 154.732 353.015 388.147
31 0 64.1308 13.9714 896 147.923 355.3 391.315
32 0 66.2892 15.4927 1027 147.419 357.079 389.956
33 0 67.0948 13.8461 929 144.067 359.089 388.67
34 0 73.3205 16.8439 1235 133.449 360.504 392.976
35 0 74.1203 16.1899 1200 133.79 362.784 388.079
36 0 79.6944 22.1345 1764 123.181 363.057 393.24
37 0 82.6583 18.6551 1542 128.379 363.848 391.119
38 0 84.3734 15.704 1325 135.433 364.032 388.862
39 0 85.1917 15.1541 1291 139.885 364.115 387.17
40 0 89.5096 17.1155 1532 133.877 363.52 391.776
41 1 47.0985 10.9345 515 142.697 362.909 410.707
42 0 48.0971 11.1233 535 147.486 361.972 409.31
43 0 49.1749 14.3163 704 143.866 361.303 410.26
44 0 51.1513 12.551 642 152.447 360.466 409.888
45 0 54.1761 17.3139 938 141.272 360.351 410.836
46 0 52.3598 12.8343 672 154.731 359.177 409.795
47 0 53.1536 12.8119 681 157.636 357.479 410.072
48 0 56.0975 16.1861 908 152.333 356.037 409.039
49 0 57.143 15.2075 869 153.498 354.338 410.536
50 0 59.1649 14.468 856 154.959 353.157 408.926
51 0 60.2047 16.2114 976 152.974 351.519 405.662
52 0 61.2022 14.1988 869 156.747 350.16 407.177
53 0 65.1652 16.4659 1073 149.743 349.725 406.634
54 0 65.1155 14.1902 924 158.712 349.45 400.821
55 0 68.1046 14.4337 983 156.082 348.432 401.645
56 0 70.1181 13.8623 972 156.577 348.114 399.566
57 0 74.2308 16.0445 1191 150.986 347.892 398.114
58 0 73.0925 16.7596 1225 152.487 348.312 395.181
59 1 39.1246 10.5816 414 155.925 346.519 414.128
60 0 42.1666 10.7431 453 156.664 347.252 412.375
61 0 41.1359 9.79679 403 164.228 347.437 409.3
62 0 44.1391 14.4543 638 150.997 347.708 410.174
63 0 44.1571 13.6784 604 154.488 349.469 407.584
64 0 45.1607 13.4187 606 158.117 351.439 405.947
65 0 48.1476 12.7109 612 154.66 353.644 408.52
66 0 47.2117 13.7466 649 152.76 355.721 410.154
67 0 49.2185 12.4547 613 152.055 358.985 407.3
68 0 51.2643 14.6691 752 144.426 359.835 409.894
69 0 52.226 16.2754 850 136.318 361.026 409.632
70 0 55.2149 14.2896 789 138.603 362.019 407.951
71 0 55.1954 13.425 741 138.903 363.482 407.534
72 0 57.3552 14.1051 809 138.944 362.916 407.253
73 0 62.5231 24.6789 1543 120.276 362.871 411.412
74 0 59.1963 17.518 1037 149.53 364.372 405.503
75 0 66.2892 15.9755 1059 138.178 361.72 410.636
76 0 66.1504 13.4542 890 150.087 360.6 405.648
77 0 65.1091 13.0704 851 154.792 360.143 407.021
78 0 69.0822 15.4164 1065 149.378 359.436 408.558
79 0 68.1723 12.8645 877 158.295 358.778 405.542
80 0 75.1716 15.285 1149 152.585 357.502 407.343
81 1 39.0692 11.6716 456 155.923 355.329 422.116
82 0 41.0098 10.1439 416 159.601 354.156 422.483
83 0 40.0202 11.5442 462 158.773 352.896 420.433
84 0 43.0477 11.3363 488 154.734 350.705 422.418
85 0 42.0103 10.8069 454 157.874 349.522 420.493
86 0 47.063 13.45 633 151.787 348.13 418.404
87 0 44.0208 10.6541 469 161.606 347.755 415.84
88 0 47.1104 12.1842 574 157.449 347.359 414.134
89 0 50.0328 15.25 763 146.608 346.916 416.02
90 0 49.1365 13.5948 668 154.621 346.32 412.314
91 0 53.2179 12.5522 668 155.458 346.272 409.434
92 0 51.1354 12.5745 643 159.061 346.77 404.533
93 0 54.1663 12.7386 690 156.368 346.049 405.254
94 0 55.3375 13.6797 757 152.83 346.587 406.201
95 0 58.2854 14.8236 864 150.817 346.628 402.821
96 0 58.1244 11.527 670 158.545 347.167 403.222
97 0 60.2472 13.8264 833 154.684 349.382 399.729
98 0 62.2475 13.2214 823 154.627 351.558 398.702
99 0 62.3691 10.9509 683 154.328 354.243 398.496
100 0 68.3952 12.3693 846 144.628 355.637 402.467
101 0 72.2477 15.3361 1108 135.863 357.019 401.151
102 0 77.2749 15.3996 1190 136.464 359.016 399.759
103 0 76.2673 11.8399 903 142.823 360.068 399.019
104 0 79.3013 12.9758 1029 136.355 360.82 399.85
105 1 46.1037 15.3784 709 124.827 360.63 418.142
106 0 46.1492 11.4195 527 135.619 360.556 413.994
107 0 50.4139 14.619 737 125.076 361.696 417.7
108 0 50.2111 13.981 702 128.917 361.368 415.292
109 0 51.3988 15.1365 778 126.22 361.014 417.665
110 0 51.272 13.6137 698 136.381 360.272 414.991
111 0 53.1713 10.626 565 144.382 359.455 413.773
112 0 53.1669 12.7147 676 142.151 359.031 412.778
113 0 55.1946 14.0956 778 139.703 357.661 412.289
114 0 53.1331 11.857 630 149.832 355.859 411.637
115 0 57.1187 13.6208 778 146.158 354.807 413.968
116 0 59.1103 14.3122 846 143.807 353.035 413.746
117 0 62.1891 16.8679 1049 139.784 351.969 409.489
118 0 62.0933 15.8954 987 142.096 350.393 409.433
119 0 66.1217 15.9252 1053 139.462 348.44 411.442
120 0 64.0645 12.7528 817 150.058 347.075 405.531
121 0 69.055 15.2342 1052 144.661 346.285 405.036
122 0 69.1821 11.954 827 151.256 345.353 403.823
123 0 74.1594 15.2779 1133 142.518 345.049 401.566
124 1 38.0812 6.45987 246 150.28 343.102 420.695
125 0 41.0575 14.638 601 138.82 343.619 416.953
126 0 40.1574 9.68688 389 146.92 343.267 417.666
127 0 43.1087 13.7095 591 140.865 343.08 415.257
128 0 45.0636 12.7597 575 143.223 343.19 413.141
129 0 44.054 10.7368 473 149.044 344.59 413.854
130 0 49.1229 15.2271 748 137.622 345.041 411.269
131 0 48.1087 14.2802 687 141.199 346.937 409.151
132 0 50.1587 13.6168 683 142.495 348.649 408.876
133 0 51.1959 16.1341 826 137.918 351.479 406.948
134 0 51.2414 13.1144 672 142.624 352.966 408.597
135 0 53.1423 14.7528 784 137.171 354.665 407.385
136 0 57.1677 14.3962 823 136.914 356.425 406.914
137 0 56.1636 14.9029 837 137.981 357.085 404.616
138 0 57.1063 11.8726 678 144.283 357.752 406.254
139 0 59.1831 14.9536 885 137.714 357.937 407.629
140 0 61.2373 13.9947 857 139.473 358.2 408.338
141 0 65.0925 12.7511 830 142.441 357.475 407.659
142 0 61.0615 12.7576 779 150.112 357.598 405.798
143 0 67.1643 13.8317 929 143.744 356.774 407.748
144 0 67.2722 13.8839 934 146.543 356.424 405.65
145 0 71.2372 15.2168 1084 142.955 356.145 409.191
146 0 72.1263 18.3983 1327 143.22 354.68 405.052
147 0 72.2485 12.0002 867 157.54 353.641 406.295
148 0 75.0727 18.1291 1361 143.616 352.25 406.63
149 1 42.0652 8.72456 367 153.768 350.06 423.387
150 0 42.0748 10.1961 429 148.776 348.706 424.175
151 0 44.0527 12.5532 553 146.273 347.7 423.201
152 0 45.0382 13.544 610 148.325 345.562 420.618
153 0 48.0944 14.0349 675 145.966 344.25 420.259
154 0 49.0904 11.9372 586 150.937 343.218 418.331
155 0 51.1028 14.1871 725 146.72 342.575 416.681
156 0 50.0794 14.3173 717 147.796 341.915 415.739
157 0 52.1205 13.8333 721 148.288 341.626 414.051
158 0 52.0532 12.9483 674 152.749 340.797 411.171
159 0 56.2184 14.835 834 148.559 341.029 408.784
160 0 54.1603 12.3338 668 154.825 341.207 408.289
161 0 57.2152 17.1807 983 142.822 341.242 408.533
162 0 60.1163 14.9377 898 150.275 341.492 402.763
163 0 61.1119 20.4052 1247 138.302 342.038 404.348
164 0 61.135 14.7052 899 151.888 343.341 400.782
165 0 65.2657 13.7898 900 150.452 344.906 404.268
166 0 68.0711 17.8049 1212 141.182 346.765 404.634
167 0 70.149 15.8947 1115 147.351 348.828 400.27
168 1 39.0295 10.223 399 151.769 349.356 416.521
169 0 39.0372 11.0407 431 148.947 350.986 416.619
170 0 39.0769 9.26378 362 145.196 352.193 421.166
171 0 42.175 11.9265 503 144.342 353.292 420.487
172 0 44.118 12.2172 539 140.801 353.397 422.414
173 0 44.0257 11.039 486 146.123 354.28 422.329
174 0 46.1003 12.7331 587 147.688 354.712 421.249
175 0 46.0521 16.7419 771 138.992 354.77 422.739
176 0 47.1059 13.6713 644 147.146 353.918 422.356
177 0 49.0665 14.246 699 148.894 353.25 420.994
178 0 49.163 13.14 646 151.322 353.039 422.449
179 0 50.181 12.4549 625 155.878 352.03 420.192
180 0 50.1683 13.1158 658 155.886 351.754 419.783
181 0 52.3359 13.7764 721 154.889 350.266 418.935
182 0 53.1602 15.3122 814 150.657 348.912 421.102
183 0 54.2798 12.7119 690 156.928 347.928 418.687
184 0 56.2832 12.6681 713 155.987 346.506 417.934
185 0 58.1711 12.7383 741 157.762 345.155 414.829
186 0 56.2133 11.8299 665 160.373 343.759 413.985
187 0 61.2965 15.7268 964 150.05 342.372 413.693
188 0 62.2779 18.9955 1183 143.984 341.422 409.804
189 0 64.4461 14.291 921 150.736 341.207 410.267
190 0 69.2725 16.4423 1139 147.214 340.498 406.658
191 0 67.3764 13.2094 890 154.761 340.238 403.966
192 0 70.155 12.1873 855 153.326 339.945 407.054
193 0 72.2305 14.7029 1062 151.044 339.571 401.621
194 0 74.2454 11.4485 850 155.704 340.185 402.06
195 0 78.22 15.1368 1184 147.253 339.764 400.069
196 0 80.3694 15.0679 1211 148.532 340.648 396.339
197 0 83.4975 14.5034 1211 146.935 342.086 397.377
198 1 44.017 8.45129 372 153.825 343.011 412.371
199 0 46.0329 13.0776 602 146.068 344.497 410.495
200 0 46.0822 9.87366 455 152.22 346.233 411.884
201 0 47.16 13.4012 632 146.065 348.5 410.71
202 0 50.1199 13.8468 694 142.863 350.396 412.281
203 0 51.2082 15.1148 774 138.193 352.093 411.848
204 0 53.0641 12.8335 681 143.786 352.856 411.226
205 0 53.1264 11.4068 606 144.446 353.203 415.459
206 0 56.0543 16.2521 911 133.948 353.524 416.267
207 0 60.1067 13.3929 805 139.932 354.624 412.379
208 0 59.102 14.9403 883 138.479 354.811 413.282
209 0 61.1005 13.2241 808 146.069 353.519 409.613
210 0 63.0758 13.4917 851 144.998 353.781 409.202
211 0 66.0963 15.4925 1024 142.774 353.057 410.465
212 0 68.2035 15.1605 1034 143.576 352.457 407.41
213 0 71.2266 17.0863 1217 139.041 350.578 409.848
214 0 70.4023 14.2893 1006 144.225 349.932 405.696
215 0 74.1734 18.5107 1373 135.796 348.461 407.207
216 0 75.3066 10.7826 812 150.075 347.294 408.516
217 0 78.1919 13.9273 1089 143.198 346.575 408.648
218 0 83.4706 17.4313 1455 137.076 345.926 406.221
219 1 43.1903 11.5304 498 142.695 344.201 421.323
220 0 45.2417 10.4108 471 143.14 342.633 422.261
221 0 46.197 15.1308 699 133.592 341.362 422.462
222 0 45.1133 11.593 523 143.803 340.203 418.115
223 0 48.1199 13.7157 660 138.988 339.635 418.626
224 0 50.3478 14.38 724 139.943 338.99 414.775
225 0 54.3185 15.8694 862 134.31 337.827 415.965
226 0 54.0752 16.3661 885 137.129 338.329 410.55
227 0 55.0709 12.7109 700 143.766 338.189 409.927
228 0 58.0388 17.54 1018 132.671 338.829 410.697
229 0 58.0696 13.7938 801 142.009 339.652 408.536
230 0 60.0774 15.1471 910 139.231 340.007 407.418
231 0 61.1255 14.9365 913 138.694 341.087 405.616
232 0 63.0697 16.2994 1028 135.197 343.199 405.304
233 0 67.1198 15.7331 1056 135.439 345.327 405.254
234 0 66.2382 12.3343 817 141.25 347.037 406.629
235 0 72.2754 16.4094 1186 132.831 348.702 406.343
236 0 71.0233 16.4453 1168 134.036 350.373 404.198
237 0 74.1391 15.7002 1164 134.942 352.17 400.674
238 0 75.3145 10.5292 793 145.652 352.774 403.672
239 0 78.2546 13.5583 1061 137.5 354.312 400.23
240 0 82.3385 11.4527 943 139.83 355.595 403.566
241 1 45.0916 13.528 610 131.748 353.797 420.048
242 0 46.1092 11.0173 508 135.187 353.53 422.742
243 0 46.1732 10.0708 465 137.824 353.004 423.361
244 0 48.1059 12.5764 605 135.742 352.349 421.253
245 0 48.1615 12.0428 580 136.769 351.438 422.091
246 0 51.3157 15.1805 779 130.507 350.605 422.272
247 0 49.3644 17.0366 841 131.741 350.214 417.939
248 0 52.3562 15.1272 792 135.351 350.082 415.87
249 0 53.3125 14.4431 770 137.199 348.287 416.239
250 0 53.4155 14.2468 761 136.886 347.598 414.945
251 0 57.3847 15.8405 909 132.344 345.614 416.856
252 0 60.3468 16.6372 1004 131.018 343.912 414.366
253 0 59.3495 14.6758 871 135.397 343.282 412.968
254 0 59.2722 13.7501 815 138.131 342.034 412.728
255 0 63.7853 13.3259 850 141.259 341.274 404.655
256 0 64.4138 15.1676 977 137.719 340.099 405.401
257 0 67.1618 15.7977 1061 134.819 340.055 406.27
258 0 69.2663 14.0472 973 137.77 339.163 403.569
259 0 70.1798 14.6053 1025 136.781 338.528 404.493
260 0 72.2242 15.5627 1124 135.601 338.834 402.786
261 0 78.3244 20.6066 1614 125.953 338.872 400.387
262 1 39.0308 9.45407 369 138.439 338.35 416.691
263 0 42.0274 12.3729 520 131.456 339.367 416.992
264 0 41.0605 11.0082 452 139.949 339.94 412.029
265 0 43.1088 9.46442 408 138.431 341.571 415.145
266 0 45.1112 11.1281 502 138.424 343.679 412.046
267 0 45.1112 10.7512 485 140.775 345.695 411.635
268 0 51.0731 15.2135 777 128.396 347.91 412.169
269 0 49.172 13.2392 651 133.237 349.366 412.825
270 0 50.2613 12.2162 614 135.503 351.319 413.156
271 0 52.3686 11.8583 621 132.37 352.142 414.002
272 0 54.365 13.4094 729 132.067 353.549 412.462
273 0 54.4009 11.5255 627 138.177 353.209 411.585
274 0 55.3796 13.1818 730 133.834 353.856 412.273
275 0 58.3661 15.0087 876 132.546 353.395 411.115
276 0 55.3969 11.0476 612 142.351 353.302 410.824
277 0 59.3255 15.6425 928 132.503 353.207 411.288
278 0 59.2798 11.9434 708 138.887 352.48 410.895
279 0 65.2704 17.9867 1174 126.028 351.718 410.847
280 0 66.2787 16.7626 1111 128.985 350.408 409.607
281 0 67.3244 15.0614 1014 132.551 349.903 408.179
282 0 67.3244 15.1951 1023 139.902 350.9 408.225
283 0 71.2656 14.2285 1014 134.371 347.088 406.644
284 0 73.3499 15.392 1129 131.786 345.704 403.678
285 0 75.1602 14.0101 1053 134.055 343.392 401.849
286 1 39.0362 9.06851 354 137.054 341.655 419.525
287 0 41.0841 9.20064 378 137.019 340.463 417.661
288 0 41.0253 7.41006 304 135.605 339.951 420.688
289 0 45.0923 12.1972 550 128.749 339.078 416.953
290 0 43.0368 12.3383 531 133.576 338.653 410.232
291 0 46.0699 12.8283 591 130.553 338.1 410.31
292 0 48.0816 9.79585 471 134.435 337.616 412.115
293 0 47.1024 13.4176 632 132.411 338.191 406.829
294 0 50.107 12.0342 603 133.458 337.935 405.973
295 0 52.1367 14.7305 768 128.392 339.147 404.772
296 0 53.1309 16.1864 860 128.241 339.68 402.844
297 0 54.1659 15.6002 845 128.581 340.832 401.666
298 0 54.0543 12.7094 687 135.105 342.138 400.591
299 0 57.179 14.271 816 132.754 343.793 398.583
300 0 56.1575 10.5774 594 138.998 345.461 399.975
301 0 59.2128 12.2102 723 135.562 347.113 401.485
302 0 62.258 12.0306 749 136.756 349.555 399.043
303 0 64.2153 15.2145 977 132.122 350.911 399.697
304 0 67.2167 13.2259 889 131.547 351.911 401.769
305 0 66.138 14.0918 932 134.158 353.103 395.79
306 0 69.0655 10.8448 749 138.053 353.336 398.011
307 0 72.1419 12.0457 869 137.197 354.917 397.113
308 0 76.1417 14.565 1109 135.995 354.472 393.422
309 0 78.3321 15.9449 1249 131.99 353.53 396.765
310 0 79.3101 18.8248 1493 129.76 352.691 394.694
311 1 42.0588 13.6238 573 133.92 352.049 413.628
312 0 47.0368 10.7575 506 142.229 351.338 410.864
313 0 44.0574 12.1886 537 141.795 349.68 411.989
314 0 48.0237 17.4081 836 130.772 348.453 411.207
315 0 47.0323 12.3107 579 142.61 347.699 411.466
316 0 51.0833 16.0718 821 135.618 347.006 409.734
317 0 50.0234 14.893 745 139.286 345.158 409.302
318 0 54.1111 15.7823 854 135.214 344.078 410.255
319 0 52.0824 12.9986 677 141.352 342.904 410.344
320 0 55.0519 15.1312 833 139.711 341.636 405.797
321 0 56.0569 17.732 994 133.56 341.179 407.751
322 0 57.0926 12.7512 728 140.288 339.692 409.051
323 0 60.0998 14.0433 844 140.571 339.699 404.139
324 0 61.0626 15.9836 976 137.518 339.019 402.351
325 0 65.154 17.2054 1121 132.385 338.899 402.995
326 0 64.0394 13.2887 851 141.687 338.895 399.02
327 0 64.0394 13.3668 856 147.911 339.891 399.057
328 0 69.111 16.0611 1110 136.887 338.832 397.586
329 0 68.0602 14.8251 1009 139.717 339.138 395.828
330 0 73.0743 14.6563 1071 139.066 340.2 394.738
331 0 73.1107 14.6764 1073 139.677 342.091 394.523
332 0 76.1112 14.2555 1085 138.945 343.582 394.906
333 0 79.1636 16.8638 1335 134.736 344.814 389.753
334 0 78.167 13.6886 1070 140.844 347.075 389.429
335 0 84.0956 14.4003 1211 135.967 349.11 391.939
336 1 44.0319 11.7642 518 135.577 350.253 408.708
337 0 47.2729 11.9307 564 131.624 350.766 412.816
338 0 45.2461 9.85721 446 135.639 352.975 411.043
339 0 49.3285 14.5758 719 126.37 354.189 412.138
340 0 51.2757 15.2119 780 125.424 354.419 410.162
341 0 52.1853 12.4556 650 131.112 353.889 412.963
342 0 54.087 12.369 669 131.311 353.422 412.859
343 0 55.1688 13.3228 735 130.965 352.788 411.441
344 0 55.0475 11.4447 630 134.2 351.9 411.744
345 0 57.1155 15.4249 881 129.78 351.302 408.886
346 0 61.0667 12.3472 754 134.195 350.214 412.541
347 0 64.1297 16.6694 1069 127.178 349.059 409.415
348 0 64.0469 19.2671 1234 123.078 347.721 411.509
349 0 66.124 15.6675 1036 130.271 346.225 409.682
350 0 68.2177 15.905 1085 130.582 345.109 409.304
351 0 68.0813 14.3652 978 134.998 343.374 407.098
352 0 71.0934 17.7513 1262 129.983 342.106 405.232
353 0 70.3097 15.8584 1115 134.869 340.592 402.341
354 1 34.0657 9.21748 314 135.605 339.615 424.838
355 0 39.1194 13.1904 516 129.32 338.857 421.973
356 0 36.0707 8.62197 311 143.042 338 417.714
357 0 42.1714 13.7297 579 131.807 338.371 417.447
358 0 43.2182 13.212 571 134.935 338.058 414.702
359 0 42.2723 13.8152 584 134.673 338.219 413.663
360 0 44.2601 16.1545 715 130.271 338.018 413.221
361 0 45.2937 14.2404 645 135.096 339.133 411.665
362 0 47.2089 14.9548 706 133.731 339.302 410.22
363 0 47.2259 13.1919 623 138.053 341.506 408.657
364 0 49.2197 13.3686 658 136.915 341.909 409.571
365 0 48.3916 13.4321 650 139.909 343.858 407.015
366 0 50.3363 12.0589 607 139.839 344.442 409.267
367 0 53.3028 16.7721 894 131.959 346.898 407.6
368 0 54.2805 15.4752 840 135.495 349.05 405.343
369 0 53.2061 14.3217 762 140.14 351.164 404.29
370 0 56.2249 18.177 1022 130.505 351.775 408.431
371 0 58.1736 14.4911 843 136.412 353.151 407.134
372 0 60.253 15.269 920 135.521 353.788 405.925
373 0 60.0788 13.4657 809 139.791 353.553 407.953
374 0 61.2126 13.592 832 141.639 353.722 405.785
375 0 66.2124 18.6219 1233 133.041 353.644 403.83
376 0 68.2625 19.0734 1302 132.544 353.488 405.78
377 0 72.1973 17.3968 1256 134.107 352.731 405.989
378 0 70.1049 14.136 991 141.406 351.879 405.942
379 0 72.0971 17.5874 1268 135.571 350.562 406.685
380 0 76.3497 17.5115 1337 136.77 349.803 404.064
381 0 77.119 16.0661 1239 140.43 349.143 401.088
382 0 83.1421 15.3352 1275 141.536 348.543 400.344
383 0 84.1336 17.08 1437 137.814 346.204 400.196
384 0 84.0855 13.07 1099 142.637 344.353 403.329
385 0 88.1919 16.0332 1414 139.219 343.17 395.353
386 0 90.1259 13.9804 1260 143.477 341.886 394.84
387 1 46.0933 12.4096 572 145.288 340.825 413.486
388 0 46.1687 11.9995 554 144.603 340.193 415.668
389 0 49.0366 12.6232 619 144.354 339.267 411.472
390 0 54.1282 12.9138 699 141.886 338.874 410.741
391 0 55.0874 14.3771 792 139.558 337.577 408.092
392 0 52.1897 14.1407 738 145.883 337.892 403.104
393 0 58.1009 15.955 927 139.923 337.809 403.62
394 0 59.1266 17.8769 1057 136.591 338.686 401.87
395 0 61.211 13.7067 839 145.939 339.113 401.321
396 0 63.1517 15.6449 988 142.152 339.615 400.193
397 0 66.1748 15.8973 1052 140.777 341.223 400.179
398 0 67.1023 15.2156 1021 144.865 342.31 396.389
399 1 38.062 13.4255 511 139.708 343.802 412.094
400 0 37.0701 8.92904 331 146.634 344.918 412.861
401 0 37.1054 13.017 483 139.917 347.273 413.573
402 0 39.0495 14.4944 566 138.429 349.155 412.039
403 0 41.0351 12.0872 496 143.7 351.077 409.482
404 0 43.0511 12.4503 536 141.468 352.907 411.483
405 0 45.0555 13.5388 610 140.816 352.559 410.428
406 0 45.0523 17.1578 773 135.696 352.981 408.479
407 0 46.038 12.3159 567 145.46 352.901 410.081
408 0 49.06 14.9205 732 138.536 352.653 408.633
409 0 50.1583 13.2181 663 141.919 352.775 409.781
410 0 51.0649 14.7655 754 139.225 351.873 409.397
411 0 54.1182 16.8705 913 136.417 351.606 408.069
412 0 53.1605 14.0142 745 141.491 350.729 409.826
413 0 57.0958 14.607 834 138.374 349.43 407.876
414 0 57.2609 14.53 832 137.976 348.293 407.453
415 0 58.1695 15.5924 907 136.908 348.395 406.728
416 0 62.1925 15.243 948 134.946 347.593 407.998
417 0 63.2571 17.1839 1087 132.684 345.797 406.168
418 0 63.2554 12.6946 803 139.838 344.44 407.681
419 0 66.1209 12.7796 845 139.372 342.915 406.063
420 0 70.2277 18.5112 1300 128.955 341.448 403.382
421 0 73.1303 14.7682 1080 133.428 340.549 400.708
422 0 72.1047 12.9257 932 139.253 340.447 395.595
423 1 46.1459 12.5688 580 129.828 338.979 413.91
424 0 43.1486 10.5681 456 137.702 338.662 410.906
425 0 43.0997 14.246 614 129.601 338.453 407.715
426 0 46.1347 17.6873 816 123.439 338.039 406.366
427 0 45.1382 13.9793 631 130.74 338.876 407.103
428 0 47.2034 13.7067 647 131.074 339.218 403.51
429 0 46.2058 13.4615 622 131.315 339.889 405.326
430 0 49.1692 15.0907 742 129.218 341.127 402.082
431 0 49.1692 14.9077 733 122.048 342.151 402.12
432 0 52.1601 14.3788 750 130.28 343.796 399.688
433 0 55.0836 13.5612 747 130.399 345.635 403.187
434 0 56.1655 13.7807 774 127.393 347.643 405.72
435 0 55.2512 11.1672 617 136.227 349.809 401.211
436 0 60.1033 14.525 873 129.903 351.658 395.7
437 0 59.1725 12.6241 747 132.752 353.27 401.683
438 0 63.2135 11.9278 754 134.837 353.237 400.48
439 0 66.3373 14.4112 956 129.633 354.751 397.953
440 0 65.1768 12.7499 831 133.017 354.558 402.481
441 0 67.3772 12.289 828 134.159 354.303 402.527
442 0 69.1635 13.403 927 133.83 353.808 400.354
443 0 73.2737 13.1152 961 133.311 353.667 401.338
444 0 74.373 11.3213 842 138.057 353.539 397.767
445 0 78.2767 14.1677 1109 132.497 353.036 397.963
446 0 78.2381 14.2769 1117 133.382 351.627 397.218
447 0 84.414 14.0735 1188 132.51 349.76 397.109
448 0 86.4255 14.1162 1220 132.589 349.193 392.656
449 0 92.368 16.5101 1525 128.092 347.665 393.519
450 1 46.1963 9.69774 448 142.016 346.196 410.583
451 0 49.0981 14.3794 706 132.996 344.581 412.232
452 0 51.3443 13.1465 675 135.628 342.689 410.105
453 0 52.522 12.49 656 137.453 342.503 408.883
454 0 54.1926 12.6585 686 136.707 341.41 409.673
455 0 54.5612 12.0415 657 139.024 341.178 407.822
456 0 58.1874 13.783 802 134.91 340.039 406.04
457 0 59.3846 14.0272 833 135.633 340.138 402.004
458 0 61.3328 12.3751 759 137.93 339.863 401.428
459 0 63.2037 12.7682 807 137.227 339.113 401.216
460 0 65.2235 12.1735 794 136.247 339.122 401.485
461 0 67.1952 15.1797 1020 130.985 339.151 400.622
462 0 71.1872 15.0448 1071 132.689 339.951 395.462
463 0 72.1539 15.3422 1107 133.342 341.045 390.927
464 0 74.1203 16.4462 1219 130.915 342.253 393.546
465 1 37.0963 14.5567 540 130.556 343.126 408.757
466 0 39.0764 14.2285 556 129.383 344.536 409.624
467 0 42.1556 13.7111 578 129.112 347.009 408.422
468 0 44.0896 14.1076 622 131.244 349.486 404.394
469 0 45.1148 14.6072 659 128.176 350.818 406.865
470 0 47.2389 15.3263 724 128.583 352.076 403.988
471 0 48.2126 15.5146 748 126.824 353.362 406.009
472 0 48.2449 14.2813 689 130.361 353.536 403.444
473 0 51.2344 12.9991 666 132.643 353.468 403.204
474 0 56.9066 18.3634 1045 120.345 354.128 402.905
475 0 51.2479 13.6005 697 133.73 353.116 398.95
476 0 55.1354 13.5303 746 133.639 352.916 399.24
477 0 55.1392 14.3818 793 133.562 351.976 398.748
478 0 59.4995 15.1766 903 132.524 351.999 397.354
479 0 59.2238 18.3372 1086 127.589 350.834 398.036
480 0 61.1935 16.1292 987 132.057 349.838 399.946
481 0 64.1303 19.1017 1225 128.287 348.94 396.323
482 0 67.3505 15.2337 1026 134.038 347.589 397.025
483 0 67.234 18.2497 1227 132.523 346.072 392.43
484 0 68.151 15.9645 1088 137.648 344.428 390.038
485 0 69.2274 17.5653 1216 135.723 343.877 387.701
486 0 70.3432 14.5572 1024 142.473 342.419 388.187
487 0 74.2293 17.1496 1273 137.35 341.267 385.751
488 1 36.1726 9.6482 349 142.777 340.003 404.544
489 0 39.1292 13.0593 511 139.333 339.857 401.896
490 0 40.1709 14.0151 563 135.689 339.536 401.957
491 0 44.15 15.6738 692 133.318 339.344 399.295
492 0 45.1246 11.6123 524 143.821 339.208 398.214
493 0 43.2335 15.0346 650 136.228 339.089 398.625
494 0 46.2338 15.3567 710 137.646 339.58 394.877
495 0 46.1857 14.7665 682 138.955 340.091 394.541
496 0 48.0438 15.7356 756 138.061 340.866 393.505
497 0 50.1022 15.2888 766 138.509 342.52 393.305
498 0 53.283 16.1402 860 134.402 343.798 393.845
499 0 53.4213 13.9457 745 140.142 345.82 393.235
500 0 53.1806 12.9747 690 143.709 348.723 394.37
501 0 55.0791 14.6698 808 141.948 349.235 390.236
502 0 56.2888 15.0474 847 141.333 350.782 388.895
503 0 60.3952 15.3654 928 138.372 351.955 389.466
504 0 63.3614 17.6764 1120 132.349 353.845 388.536
505 0 59.2361 11.6145 688 146.445 354.609 388.911
506 0 68.4844 16.4125 1124 131.724 354.649 393.133
507 0 69.1612 14.4879 1002 135.774 353.815 392.872
508 0 75.4587 19.6266 1481 125.681 354.277 390.98
509 1 37.1543 15.3145 569 128.786 354.373 408.323
510 0 40.2235 12.6543 509 134.053 354.2 407.68
511 0 40.1708 10.3558 416 137.861 353.288 409.075
512 0 43.2558 13.7323 594 132.648 351.902 408.816
513 0 44.2285 11.5536 511 137.683 350.904 408.02
514 0 46.1917 15.4573 714 130.419 349.898 407.057
515 0 43.0927 11.5797 499 141.639 347.85 404.335
516 0 49.2852 15.6639 772 130.135 347.127 406.714
517 0 49.1538 15.9092 782 132.581 345.38 403.666
518 0 51.2762 13.7296 704 134.96 343.665 403.581
519 0 54.1963 15.2409 826 131.858 342.23 400.441
520 0 53.1351 16.3169 867 131.23 342.164 401.104
521 0 57.535 12.9313 744 135.177 341.297 400.179
522 0 58.13 14.846 863 133.769 340.138 397.366
523 0 58.2767 17.3654 1012 128.277 339.988 397.406
524 0 61.1621 17.2002 1052 130.739 339.165 389.108
525 0 63.407 14.0994 894 134.045 339.973 393.776
526 0 67.2678 19.1325 1287 126.953 340.343 391.376
527 0 68.3782 16.6574 1139 131.541 340.338 390.229
528 0 67.2473 15.0192 1010 138.351 341.248 386.906
529 0 71.137 16.166 1150 137.485 340.978 386.027
530 0 76.3613 16.4219 1254 136.281 342.721 383.751
531 0 77.3533 15.7589 1219 137.968 344.342 382.348
532 0 79.3285 17.3204 1374 135.611 345.616 382.304
533 0 77.4481 14.0223 1086 145.312 347.695 379.523
534 1 45.1697 12.287 555 141.793 349.786 399.883
535 0 48.6655 14.9798 729 138.239 350.997 399.177
536 0 47.3028 11.7329 555 144.685 352.319 401.014
537 0 50.4274 13.8615 699 136.807 353.864 403.449
538 0 52.2537 15.2908 799 138.899 353.892 399.787
539 0 54.196 16.6987 905 135.147 354.469 399.48
540 0 54.234 14.714 798 139.256 355.335 404.52
541 0 55.1723 14.2825 788 142.027 354.816 402.096
542 0 56.1915 14.3972 809 143.09 354.209 404.497
543 0 57.2762 13.8277 792 144.4 353.951 402.765
544 0 58.2992 12.4702 727 144.825 352.979 406.558
545 0 61.212 14.3926 881 141.683 351.588 404.889
546 0 60.3177 14.1252 852 144.627 350.512 400.229
547 0 66.3675 17.2373 1144 132.669 349.675 405.171
548 0 65.3239 15.6451 1022 139.831 347.74 399.232
549 0 69.2416 15.8142 1095 137.19 346.841 399.744
550 0 70.3648 15.1212 1064 138.414 345.62 397.354
551 0 73.4748 16.7949 1234 134.741 344.34 395.143
552 0 76.4062 16.6217 1270 135.335 343.065 387.67
553 1 39.3488 12.4273 489 129.904 342.652 411.067
554 0 44.3592 11.8577 526 134.224 341.479 407.015
555 0 44.2104 12.1465 537 137.412 340.512 404.646
556 0 47.3812 12.3678 586 132.799 340.592 406.027
557 0 47.3956 13.7354 651 133.255 340.218 401.272
558 0 49.4439 11.1439 551 134.45 340.036 402.985
559 0 49.1661 13.0374 641 130.053 340.193 403.084
560 0 52.4202 14.5364 762 129.253 339.696 397.663
561 0 54.1298 14.4283 781 128.572 340.635 397.618
562 0 54.1704 14.7497 799 129.207 341.655 395.186
563 0 56.5347 13.4431 760 129.962 342.687 392.472
564 0 56.5347 13.5138 764 121.36 343.705 392.471
565 0 60.2919 15.3752 927 125.905 346.139 390.648
566 0 63.4031 14.5261 921 124.444 347.92 395.276
567 0 65.3659 16.813 1099 121.295 349.824 393.721
568 0 65.204 11.7631 767 130.025 351.4 391.052
569 0 67.1219 14.5407 976 125.452 353.045 392.589
570 0 70.319 12.7562 897 126.168 354.873 394.371
571 0 71.2271 14.3485 1022 124.021 355.449 391.972
572 0 73.1175 19.0926 1396 118.084 355.663 389.871
573 0 76.1388 12.648 963 125.867 356.622 391.769
574 0 80.1642 16.4662 1320 121.336 355.345 392.666
575 0 83.1712 16.977 1412 120.913 355.028 394.956
576 0 86.3658 17.8543 1542 119.864 354.405 392.903
577 0 86.159 15.3205 1320 124.548 353.677 394.487
578 0 89.1665 15.8131 1410 125.018 352.114 390.736
579 1 47.1534 10.6673 503 126.491 352.01 413.821
580 0 50.1709 10.8629 545 123.176 351.589 416.176
581 0 51.1117 9.19554 470 126.381 350.143 414.851
582 0 51.0669 12.5522 641 126.913 348.725 408.468
583 0 53.1078 10.5069 558 128.677 347.378 411.627
584 0 59.1651 17.3582 1027 117.098 346.168 411.787
585 0 58.3406 13.027 760 123.587 344.599 411.096
586 0 61.2159 16.695 1022 119.75 343.329 409.046
587 0 62.2703 13.7305 855 122.546 341.793 408.903
588 0 63.3269 17.7176 1122 119.826 340.791 405.272
589 0 67.1508 18.2574 1226 118.705 339.916 401.692
590 0 70.3729 16.4126 1155 119.432 339.457 401.993
591 0 69.132 15.1739 1049 124.26 338.605 395.04
592 0 74.3207 15.7829 1173 122.296 338.175 395.899
593 0 73.2784 16.0211 1174 123.509 337.934 393.601
594 0 77.1772 17.3626 1340 121.45 338.612 394.637
595 0 79.1301 14.255 1128 123.546 338.931 398.312
596 0 81.188 14.8051 1202 125.21 339.987 395.396
597 0 81.2101 15.3429 1246 128.465 340.276 390.27
598 0 86.22 15.4605 1333 127.812 341.78 391.028
599 1 45.1643 12.3327 557 128.42 343.873 409.065
600 0 46.3641 11.7117 543 128.392 345.309 410.285
601 0 48.1165 14.2571 686 125.348 347.417 409.851
602 0 50.1877 13.0311 654 126.422 348.018 412.417
603 0 50.253 13.9096 699 125.413 348.422 413.69
604 0 54.134 15.7941 855 125.711 349.656 407.041
605 0 55.1272 17.8496 984 123.04 349.3 406.934
606 0 56.2445 15.5926 877 127.553 349.08 408.438
607 0 57.0531 15.3716 877 128.802 348.981 406.664
608 0 59.076 14.9468 883 129.131 348.695 405.831
609 0 63.0396 13.5788 856 130.047 348.368 405.425
610 0 65.1286 16.5826 1080 125.491 348.437 406.406
611 0 66.2028 16.0265 1061 126.717 347.198 406.899
612 0 69.1719 18.8227 1302 124.476 346.161 406.154
613 0 69.2024 14.4504 1000 130.291 344.56 407.622
614 0 74.2138 16.4525 1221 128.842 343.732 402.505
615 0 75.1706 15.7508 1184 132.018 342.276 401.226
616 0 75.2241 15.7795 1187 131.81 340.149 404.425
617 0 79.2659 14.7604 1170 132.907 339.051 402.625
618 0 81.2262 16.2017 1316 132.884 337.912 399.013
619 0 83.3863 16.8253 1403 133.492 336.857 395.267
620 0 87.3382 18.0791 1579 130.966 336.011 394.738
621 0 87.4528 14.3506 1255 138.767 335.31 391.882
622 1 47.2716 9.62523 455 138.301 336.044 413.844
623 0 48.1206 10.9309 526 140.129 335.222 408.686
624 0 48.1275 11.6981 563 141.064 334.721 404.854
625 0 50.1721 8.88939 446 143.733 335.928 406.152
626 0 54.1836 14.4878 785 136.194 335.734 402.744
627 0 59.1235 15.7129 929 131.936 335.942 402.115
628 0 56.0821 14.1222 792 139.503 336.711 396.556
629 0 60.1017 13.9264 837 135.079 338.632 400.38
630 0 63.1058 15.3552 969 133.169 339.546 397.563
631 0 61.1428 10.8762 665 142.606 340.547 396.337
632 0 64.0389 12.5705 805 138.832 342.727 398.714
633 0 67.2342 12.3895 833 138.563 343.469 398.636
634 0 68.1421 13.1784 898 138.852 345.194 394.963
635 0 75.3321 20.257 1526 124.495 347.404 398.337
636 0 73.1275 15.5072 1134 135.285 349.098 396.697
637 0 81.2168 16.0558 1304 131.748 349.962 397.453
638 0 80.185 16.9358 1358 132.7 350.498 392.201
639 0 84.168 18.5819 1564 129.435 351.164 393.226
640 0 90.1317 17.2081 1551 131.462 351.996 393.074
641 0 89.1295 15.0231 1339 138.235 351.064 392.019
642 1 53.0584 12.3637 656 133.567 350.53 412.439
643 0 50.1822 9.42566 473 139.387 349.894 414.059
644 0 53.2161 13.511 719 132.566 349.426 415.591
645 0 54.1218 9.10908 493 142.142 348.448 412.353
646 0 53.2801 12.8566 685 135.492 346.847 414.575
647 0 58.1241 16.482 958 130.244 346.143 413.772
648 0 59.0621 12.5969 744 138.757 345.481 411.055
649 0 60.1595 12.6663 762 138.331 344.163 411.825
650 0 64.0647 16.3428 1047 132.603 342.436 409.543
651 0 67.3113 17.8425 1201 128.16 342.262 411.445
652 0 65.1039 15.8055 1029 137.151 340.448 404.927
653 0 61.0853 12.0978 739 146.668 340.064 401.373
654 0 70.1652 14.6939 1031 140.004 339.182 398.196
655 0 74.1177 14.5579 1079 139.533 338.563 399.13
656 0 70.1391 13.459 944 144.34 337.757 395.764
657 0 77.2194 16.5761 1280 136.826 337.437 394.503
658 0 78.1225 15.5909 1218 140.484 337.322 391.702
659 0 82.1207 16.4514 1351 138.315 338.56 391.084
660 0 82.204 12.9677 1066 146.305 338.507 389.205
661 0 85.1309 16.1986 1379 141.216 339.326 385.663
662 0 87.1069 13.7991 1202 145.097 340.973 387.003
663 0 90.1403 15.4648 1394 141.636 342.633 385.628
664 1 52.0957 13.5136 704 134.125 344.585 409.305
665 0 54.1039 11.9585 647 139.414 346.787 408.227
666 0 54.1795 14.9134 808 135.163 348.126 407.047
667 0 54.0236 13.7903 745 138.346 349.511 407.788
668 0 58.0703 15.3607 892 135.529 351.53 405.287
669 0 56.0516 12.9523 726 139.745 351.941 407.044
670 0 60.0506 15.1206 908 135.087 353.017 404.957
671 0 61.0771 15.4395 943 133.305 353.455 405.506
672 0 63.1603 13.4261 848 138 352.998 407.892
673 0 66.1773 14.3252 948 137.867 352.878 405.299
674 0 67.1094 14.5136 974 137.771 352.295 406.267
675 0 69.3044 16.1173 1117 134.791 351.637 404.642
676 0 71.0668 16.3508 1162 135.751 350.953 402.468
677 0 74.1765 14.8834 1104 136.686 350.272 406.254
678 0 74.0881 13.5514 1004 141.217 348.938 404.097
679 0 78.1253 16.7295 1307 134.048 347.352 406.001
680 0 80.1403 17.0825 1369 133.533 346.228 405.833
681 0 79.1267 15.2287 1205 138.612 344.852 402.881
682 0 84.1689 15.5402 1308 137.816 343.258 396.357
683 0 86.221 16.5621 1428 135.873 342.644 398.702
684 0 89.2353 18.4456 1646 132.935 341.179 394.4
685 0 89.2765 16.0177 1430 138.397 339.812 393.123
686 1 54.3328 12.313 669 133.964 337.958 416.462
687 0 53.1689 10.288 547 135.048 336.79 417.876
688 0 57.1825 10.8949 623 139.583 337.194 410.246
689 0 59.2313 11.396 675 138.446 336.713 408.877
690 0 61.1815 12.9778 794 137.026 336.368 406.941
691 0 63.1347 12.4337 785 137.092 336.437 407.484
692 0 64.0791 14.4509 926 133.274 336.825 406.212
693 0 66.1258 16.7559 1108 129.097 336.435 405.602
694 0 69.1491 14.0277 970 133.093 337.979 403.618
695 0 69.2227 11.788 816 137.398 339.37 403.105
696 0 69.1142 12.5879 870 133.869 340.851 407.109
697 0 75.1248 12.7921 961 135.239 342.054 400.116
698 0 76.3499 12.7309 972 132.83 344.006 404.677
699 0 80.2048 17.181 1378 126.787 346.535 401.248
700 0 81.2502 15.36 1248 129.124 348.624 400.873
701 0 86.2732 19.7628 1705 120.337 349.521 403.316
702 0 86.2221 15.2397 1314 128.623 351.03 401.858
703 0 92.3155 13.7897 1273 130.357 352.324 399.099
704 0 91.2988 12.6946 1159 133.134 352.094 395.041
705 0 95.4776 14.7679 1410 128.877 352.741 397.257
706 1 53.2707 8.33479 444 130.93 351.284 420.471
707 0 55.1787 10.0039 552 126.697 349.815 421.442
708 0 55.0699 8.15327 449 129.682 349.871 421.842
709 0 57.0842 13.1034 748 123.206 349.62 420.643
710 0 61.139 14.8514 908 120.976 349.241 418.577
711 0 61.2373 14.0111 858 121.613 347.896 418.604
712 0 64.1656 10.4885 673 125.22 346.617 418.648
713 0 63.1846 10.7463 679 127.929 345.698 414.392
714 0 67.4702 13.6208 919 122.365 344.434 413.175
715 0 66.3218 13.3742 887 123.851 343.814 407.364
716 0 69.2661 13.3254 923 121.584 341.01 416.351
717 0 74.3237 10.8983 810 124.246 340.396 415.498
718 0 76.2869 12.2695 936 122.315 339.347 414.512
719 0 78.352 15.1113 1184 119.96 338.503 410.357
720 0 79.2437 11.2312 890 125.48 338.288 409.917
721 0 79.2437 11.2312 890 120.316 337.283 409.99
722 1 48.1772 10.2953 496 122.111 336.274 424.284
723 0 48.0547 5.20241 250 132.256 336.756 421.108
724 0 50.1095 8.18208 410 129.954 337.166 418.607
725 0 52.2835 12.7 664 123.532 337.577 417.53
726 0 50.1099 10.1577 509 125.676 338.527 419.745
727 0 56.2173 13.8036 776 121.28 339.313 415.762
728 0 59.1684 14.1799 839 120.613 340.734 413.48
729 0 58.1887 14.1952 826 121.695 342.109 411.551
730 0 59.2187 15.3837 911 120.079 344.375 410.34
731 0 60.183 11.3819 685 126.023 346.507 410.044
732 0 63.5364 13.8503 880 122.92 349.089 408.807
733 0 66.5073 13.2918 884 122.695 350.19 410.245
734 0 66.3377 15.7527 1045 118.599 350.017 411.72
735 0 66.3232 13.2834 881 125.169 351.627 408.632
736 0 70.3161 15.1886 1068 121.728 353.095 409.175
737 0 73.2772 18.0547 1323 118.041 352.568 409.463
738 0 73.3736 14.3648 1054 123.323 352.537 408.876
739 0 75.1262 16.3059 1225 121.384 351.535 410.974
740 0 76.276 14.4475 1102 126.475 351.61 409.12
741 0 79.3674 16.3165 1295 123.768 350.604 410.317
742 0 82.2282 17.5609 1444 122.852 349.53 410.563
743 0 90.2934 17.3878 1570 122.678 348.217 410.304
744 0 90.1702 21.1045 1903 119.653 346.522 404.627
745 0 94.2945 17.1272 1615 125.228 345.198 408.019
746 0 97.3227 14.231 1385 131.095 343.608 400.725
747 0 98.2315 15.0868 1482 130.036 342.016 404.108
748 0 104.305 13.8248 1442 127.37 340.01 413
749 0 106.206 21.317 2264 120.207 339.378 406.382
750 0 107.271 14.0299 1505 133.908 338.408 402.747
751 0 110.228 13.5356 1492 136.025 337.551 399.302
752 0 114.174 15.6165 1783 132.929 336.555 393.058
753 0 114.205 17.8363 2037 127.878 335.703 400.398
754 1 63.0551 12.8459 810 131.467 335.194 420.731
755 0 61.0849 12.1634 743 134.097 334.884 418.762
756 0 65.1165 11.5792 754 135.447 334.85 414.745
757 0 68.1051 15.4174 1050 128.779 335.586 415.996
758 0 72.2175 10.2191 738 133.763 336.419 420.009
759 0 74.2138 11.7498 872 133.95 337.245 412.216
760 0 75.3428 12.7683 962 131.943 337.929 412.177
761 0 77.3819 12.9488 1002 128.509 338.344 417.317
762 0 77.2978 13.1181 1014 132.324 340.853 406.806
763 0 77.4179 9.94601 770 137.06 342.13 407.982
764 0 86.2285 15.0762 1300 127.709 344.083 408.922
765 0 90.2386 14.4949 1308 128.212 344.888 409.367
766 0 90.2906 13.5119 1220 131.763 346.089 404.419
767 0 94.1996 14.3525 1352 131.297 347.79 401.599
768 0 100.295 18.2561 1831 123.839 348.774 401.867
769 0 103.214 13.6028 1404 129.477 349.046 406.79
770 1 56.1538 8.42329 473 127.706 348.474 429.586
771 0 54.117 11.7523 636 128.253 348.574 423.777
772 0 59.155 11.4445 677 126.697 348.665 426.39
773 0 62.1739 12.2399 761 125.371 348.711 427.277
774 0 63.1953 16.3145 1031 121.296 348.041 426.345
775 0 66.1387 18.1134 1198 116.176 346.468 434.106
776 0 64.4204 13.4274 865 126.961 345.243 428.006
777 0 66.1828 14.0369 929 127.333 344.287 426.829
778 0 70.2907 13.9421 980 127.223 342.219 429.308
779 0 72.1885 17.0526 1231 124.022 340.79 426.315
780 0 76.273 14.4743 1104 127.836 338.977 427.311
781 0 75.211 19.9306 1499 122.609 338.102 422.353
782 0 75.1465 13.8529 1041 133.695 335.999 420.911
783 0 78.1559 16.1856 1265 131.108 335.618 418.012
784 0 80.2016 13.3663 1072 136.496 334.521 418.042
785 0 82.2687 16.5798 1364 131.628 334.317 417.067
786 0 85.2047 14.6236 1246 135.835 333.427 414.657
787 0 88.2519 17.586 1552 132.469 332.718 410.019
788 0 89.1624 15.3091 1365 138.456 332.322 410.286
789 0 92.2568 12.9205 1192 145.59 332.413 404.445
790 0 94.1549 15.347 1445 140.768 332.304 404.723
791 0 91.1121 14.2133 1295 147.809 333.218 395.615
792 0 97.2099 14.6693 1426 146.07 334.117 395.048
793 0 105.215 14.9218 1570 141.71 334.415 400.323
794 0 106.158 17.1442 1820 142.298 335.423 394.525
795 0 109.164 15.6645 1710 144.789 336.939 396.948
796 0 109.19 15.6882 1713 147.538 338.43 390.131
797 0 113.132 14.7793 1672 150.849 340.736 388.316
798 1 65.102 9.30848 606 146.883 340.884 418.239
799 0 66.0487 10.2046 674 147.408 342.766 416.807
800 0 69.0389 13.7604 950 142.192 344.079 416.481
801 0 67.1244 12.1863 818 143.918 345.289 420.35
802 0 67.0802 11.121 746 150.744 347.395 415.985
803 0 70.1224 13.89 974 143.906 348.205 420.018
804 0 71.1299 12.667 901 148.739 348.872 418.161
805 0 74.1505 15.6304 1159 144.48 348.874 420.049
806 0 74.1379 13.4479 997 152.309 349.77 418.859
807 0 74.4922 12.3771 922 156.585 350.409 419.256
808 0 75.4192 13.8426 1044 154.46 349.972 422.383
809 0 76.328 15.2762 1166 154.543 349.98 417.211
810 0 79.5012 14.113 1122 155.239 349.185 424.039
811 0 77.3484 11.752 909 163.9 348.97 419.756
812 0 82.3902 12.3194 1015 161.208 348.261 421.764
813 0 82.4802 16.0038 1320 157.33 348.133 416.625
814 0 84.6102 14.5491 1231 159.717 346.729 417.29
815 0 83.3119 14.5717 1214 160.308 345.578 418.788
816 0 87.3988 15.4808 1353 158.769 344.669 416.369
817 0 87.4027 15.1025 1320 161.816 343.462 412.773
818 0 88.5551 13.9122 1232 165.619 342.975 410.774
819 0 89.3854 12.709 1136 167.841 341.724 412.902
820 0 90.384 10.7873 975 174.742 341.804 408.055
821 0 93.3726 13.6336 1273 165.613 340.874 409.17
822 0 95.3996 13.889 1325 161.625 339.897 411.964
823 0 98.2877 12.8907 1267 168.278 339.855 406.312
824 0 96.2526 12.8828 1240 165.299 340.652 409.783
825 0 98.3076 13.6103 1338 165.049 341.386 407.078
826 0 98.3812 11.9433 1175 169.325 342.222 403.905
827 0 99.2874 11.2099 1113 170.947 342.714 404.329
828 0 102.475 13.9742 1432 162.801 344.047 403.352
829 0 101.377 9.34134 947 177.235 345.935 402.212
830 0 104.293 11.9855 1250 166.306 347.042 402.942
831 0 103.252 12.3484 1275 165.903 348.906 403.49
832 1 11.0029 4.99868 55 118.745 347.036 451.618
833 0 7.00023 2.57134 18 120.944 348.833 452.167
834 0 8.00078 4.74954 38 116.947 350.5 453.342
835 0 9.00555 5.9963 54 115.241 350.481 454.981
836 0 11.0113 6.17546 68 112.691 351.824 454.794
837 0 9.00101 6.99922 63 115.333 351.603 456.984
838 1 111.472 12.2542 1366 160.234 355.516 397.012
839 0 117.61 12.4054 1459 162.223 355.136 401.216
840 0 119.812 15.6078 1870 153.93 354.316 404.46
841 0 107.364 13.7196 1473 161.199 354.106 405.88
842 0 106.549 13.6181 1451 162.28 353.648 402.591
843 0 108.512 13.0953 1421 163.466 351.988 403.212
844 0 110.272 13.8385 1526 161.167 350.803 404.337
845 0 106.326 12.2924 1307 165.777 349.425 402.674
846 0 111.343 14.1725 1578 159.366 347.837 403.847
847 0 110.342 13.6122 1502 158.977 346.244 407.14
848 0 119.341 13.4824 1609 155.361 344.642 409.723
849 0 122.391 11.3325 1387 161.657 343.449 407.4
850 0 124.512 12.5531 1563 159.39 342.534 403.271
