time division length width area intensity CMx CMy
0 0 55.3992 19.3685 1073 118.348 45.5666 448.003
1 0 59.2268 19.1974 1137 118.46 46.2858 446.539
2 0 58.759 13.683 804 122.425 48.1741 444.955
3 0 62.7167 23.4866 1473 113.08 47.6959 445.985
4 0 62.3593 19.7885 1234 114.013 47.5851 450.668
5 0 78.1026 23.3795 1826 109.892 49.4359 447.788
6 0 68.3147 21.0204 1436 115.24 47.3823 446.957
7 0 70.9172 22.4769 1594 116.54 45.7698 443.072
8 0 68.4903 19.4772 1334 117.911 44.0757 450.692
9 0 75.352 17.1064 1289 123.175 44.2956 443.369
10 0 72.6311 16.0675 1167 130.195 43.7978 439.644
11 0 79.7632 16.3609 1305 134.439 42.1571 440.773
12 0 81.7313 16.9947 1389 143.274 41.2577 438.893
13 0 84.7493 19.1978 1627 133.904 40.8009 435.474
14 1 40.5185 11.4762 465 149.583 40.3204 459.439
15 0 41.7337 11.0941 463 144.909 39.2138 457.521
16 0 45.1894 10.8654 491 143.9 37.8941 460.411
17 0 48.23 16.7945 810 138.66 35.9235 455.436
18 0 48.0764 12.3553 594 148.202 35.0808 456.012
19 0 50.2925 15.3701 773 142.468 33.9935 453.794
20 0 50.1256 12.9674 650 145.632 32.1523 454.166
21 0 53.0907 13.4863 716 145.898 32.0223 451.279
22 0 56.0763 13.6599 766 143.542 31.2193 449.905
23 0 58.1482 14.6866 854 142.708 30.8267 447.913
24 0 57.1119 14.6029 834 144.974 30.9772 443.526
25 0 64.3484 16.4262 1057 137.656 30.8221 443.948
26 0 66.4272 17.9595 1193 134.767 31.0696 443.108
27 0 66.3682 16.0619 1066 137.753 31.44 440.843
28 0 67.1312 15.7602 1058 133.504 31.5643 438.902
29 0 73.1617 16.197 1185 128.243 34.1823 437.986
30 0 79.5872 23.6219 1880 116.766 35.2489 440.413
31 0 79.4947 14.5544 1157 123.978 38.3924 440.091
32 0 79.2962 15.3853 1220 123.016 39.9852 436.465
33 0 88.5333 26.6114 2356 110.976 40.3935 437.913
34 0 91.1241 24.099 2196 112.847 42.8046 437.097
35 0 94.0955 24.4433 2300 110.928 43.8204 439.28
36 1 49.3392 10.0731 497 116.575 45.0221 454.551
37 0 51.391 14.3994 740 113.023 45.2216 453.991
38 0 68.9692 24.9242 1719 99.2629 46.3479 459.591
39 0 56.562 20.7383 1173 117.815 45.058 454.295
40 0 56.409 16.6286 938 126.545 44.7196 455.339
41 0 54.1897 11.5705 627 137.215 45.3254 455.059
42 0 58.3608 13.7592 803 137.278 44.2615 452.694
43 0 60.3298 15.2329 919 138.227 42.4081 453.529
44 0 61.3778 14.2886 877 143.722 41.3808 452.815
45 0 63.3411 13.3089 843 147.962 40.3155 452.6
46 0 65.1818 16.2315 1058 142.125 39.138 450.616
47 0 68.2393 15.1379 1033 147.742 37.819 450.028
48 0 70.3845 16.2962 1147 147.607 36.7637 447.048
49 0 74.1164 17.0812 1266 143.44 35.6951 449.941
50 0 77.3717 14.7341 1140 149.196 33.0105 447.097
51 0 77.4617 12.6256 978 156.255 32.0726 444.594
52 0 80.4475 14.7053 1183 151.746 30.8495 442.105
53 0 83.5556 15.9654 1334 148.418 29.7046 437.645
54 0 86.8754 14.5841 1267 149.673 29.0331 437.856
55 0 89.6429 17.3466 1555 144.857 28.9293 430.471
56 1 44.5894 13.1197 585 144.81 27.9658 452.995
57 0 44.8647 11.3898 511 141.421 27.9726 451.282
58 0 47.7426 15.0599 719 137.22 28.0264 449.826
59 0 50.2926 12.7056 639 137.343 28.3568 451.487
60 0 51.6089 13.7961 712 135.142 28.9031 446.765
61 0 52.5316 13.1159 689 138.383 28.5457 450.508
62 0 58.3662 13.3125 777 135.597 29.2934 450.332
63 0 57.3099 15.1108 866 134.484 30.7529 447.822
64 0 59.5789 13.1926 786 136.123 32.743 446.592
65 0 62.4052 12.4028 774 138.349 36.0465 446.793
66 0 64.7036 12.905 835 134.347 36.9234 447.917
67 0 65.4441 14.776 967 132.776 39.2461 443.542
68 0 68.34 15.1449 1035 134.873 39.9382 444.358
69 0 71.3509 14.8001 1056 129.896 41.4328 447.777
70 0 73.3661 12.4308 912 135.558 42.182 443.034
71 0 74.4015 10.4568 778 139.621 43.1555 443.665
72 0 80.4037 13.4944 1085 140.588 43.4802 442.429
73 0 82.4939 17.8195 1470 129.108 43.168 440.263
74 0 85.5216 13.6924 1171 135.617 43.5611 439.203
75 1 46.7783 10.988 514 134.794 43.0739 459.506
76 0 45.674 10.4655 478 138.462 42.4289 459
77 0 47.467 12.5772 597 137.797 41.5712 457.615
78 0 48.814 12.7218 621 144.155 41.1948 455.791
79 0 50.2356 12.7201 639 146.46 37.9421 459.928
80 0 50.2647 13.4289 675 142.039 36.64 459.982
81 0 51.2304 13.6247 698 146.424 35.0244 458.524
82 0 53.1845 15.7941 840 140.852 33.5917 456.41
83 0 56.2521 13.0306 733 143.589 32.899 457.314
84 0 57.0608 11.6192 663 147.267 31.6621 457.772
85 0 57.1716 13.6082 778 146.152 30.2301 456.123
86 0 60.158 14.1128 849 145.77 28.4664 454.908
87 0 63.2518 14.5925 923 142.06 27.3185 451.075
88 0 64.1871 12.9933 834 146.216 26.3393 450.194
89 0 68.139 15.1895 1035 143.032 25.6251 450.125
90 0 67.3935 10.5648 712 149.156 25.3329 449.708
91 0 70.2169 11.6496 818 144.747 25.4474 447.127
92 0 71.2786 13.2298 943 143.541 25.438 441.923
93 0 76.1808 12.9823 989 141.607 26 442.248
94 0 78.142 11.1976 875 144.103 26.2514 441.246
95 1 43.0968 12.1819 525 139.564 26.1962 452.51
96 0 51.9322 10.6292 552 133.991 27.6667 457.636
97 0 48.0522 7.20051 346 143.633 28.3035 457.344
98 0 47.0427 9.45949 445 140.294 30.8989 454.022
99 0 52.078 13.6718 712 132.206 33.6601 452.289
100 0 51.1654 13.1925 675 128.56 35.5022 451.025
101 0 52.933 8.50132 450 124.418 40.2511 448.569
102 0 55.2018 15.235 841 114.539 39.283 448.483
103 0 51.1862 11.1553 571 121.079 43.5727 450.462
104 0 58.2781 10.141 591 115.959 43.4992 460.359
105 0 59.3545 15.3653 912 113.973 44.4035 449.999
106 0 62.3056 10.5769 659 125.492 44.6859 453.354
107 0 66.3282 13.5538 899 116.039 44.8298 453.949
108 0 63.2727 13.8606 877 118.186 44.6511 453.951
109 0 67.4384 13.1676 888 123.117 44.6836 451.677
110 0 69.4458 15.1629 1053 126.903 42.8803 450.704
111 0 70.2188 14.5972 1025 140.273 42.5922 451.133
112 0 73.2507 14.1978 1040 142.011 41.349 451.712
113 0 73.1687 13.421 982 146.615 40.4063 452.326
114 0 78.1742 12.2675 959 149.553 38.9187 450.795
115 0 79.154 11.3071 895 153.461 37.9754 445.744
116 0 83.2978 15.5706 1297 143.164 36.1164 451.004
117 0 83.1867 12.9949 1081 151.66 34.5476 448.426
118 1 46.2024 11.4929 531 144.16 32.6422 466.701
119 0 43.1067 8.97772 387 157.168 31.708 461.202
120 0 44.066 6.58104 290 155.762 29.8345 464.434
121 0 50.1667 12.3189 618 147.782 28.343 457.995
122 0 53.2821 13.5505 722 140.23 27.0402 459.593
123 0 57.2299 15.0446 861 133.179 26.4611 456.41
124 0 55.1751 11.7263 647 142.594 26.7929 451.991
125 0 60.2358 14.4598 871 131.008 26.0528 452.032
126 0 60.3783 11.5439 697 139.89 27.6313 448.633
127 0 66.2123 17.3684 1150 122.125 26.8539 448.764
128 0 68.3404 20.4564 1398 114.851 26.6209 448.814
129 0 66.095 19.3509 1279 120.486 28.0665 445.149
130 0 68.1145 12.7286 867 127.528 29.9504 445.983
131 0 71.3787 12.3426 881 125.689 31.1566 444.026
132 0 75.1359 14.2941 1074 124.15 32.8752 441.067
133 0 74.3303 14.1934 1055 125.547 35.5365 440.596
134 0 74.3303 14.2338 1058 138.836 37.5406 440.491
135 0 79.1353 17.072 1351 124.654 38.1443 443.586
136 0 80.0891 13.8845 1112 133.076 39.9478 438.473
137 0 82.1882 12.7269 1046 137.165 40.1195 436.566
138 0 87.2564 19.437 1696 124.271 41.2677 434.443
139 0 87.2151 14.2865 1246 131.708 41.2865 440.063
140 0 91.341 17.9547 1640 130.095 40.4518 437.764
141 0 95.4765 14.8309 1416 135.02 40.1766 438.635
142 0 98.4086 17.5798 1730 131.436 40.4491 439.054
143 0 103.478 16.1967 1676 123.31 39.5101 441.074
144 0 103.367 15.9142 1645 127.766 38.5945 432.436
145 0 107.351 14.2989 1535 133.475 37.6743 432.498
146 1 58.0899 11.2068 651 131.127 36.8525 459.68
147 0 57.0824 8.70671 497 137.531 36.173 460.851
148 0 58.0237 8.27249 480 140.269 34.3333 461.406
149 0 61.0421 14.0067 855 134.553 30.8269 457.36
150 0 61.6003 10.6493 656 135.319 28.6875 451.608
151 0 64.3255 17.7224 1140 120.832 27.3386 450.539
152 0 66.1265 12.4005 820 132.907 25.689 454.843
153 0 79.3473 19.484 1546 112.699 23.5201 459.173
154 0 70.4477 12.7045 895 131.661 23.324 453.079
155 0 70.2742 10.829 761 132.601 22.2733 446.593
156 0 73.1746 12.5453 918 130.501 21.7887 444.98
157 0 78.3139 15.9997 1253 120.586 22.743 449.845
158 0 81.5161 12.5129 1020 124.944 21.6657 449.44
159 0 83.7075 16.8683 1412 123.652 22.4433 438.493
160 0 82.3392 11.6348 958 130.195 21.7171 437.683
161 0 85.561 12.8096 1096 123.341 21.9498 435.598
162 0 86.2798 15.1484 1307 120.142 23.29 433.591
163 0 89.3983 11.7116 1047 123.739 23.4699 435.83
164 0 93.4282 14.4817 1353 120.979 24.7162 431.132
165 0 98.5499 13.7088 1351 117.378 26.5196 430.757
166 0 100.327 21.4099 2148 112.772 28.4129 434.425
167 0 108.41 21.6678 2349 108.15 29.8621 432.271
168 0 104.49 12.4031 1296 128.274 31.3017 430.544
169 1 57.3705 11.0684 635 125.959 33.6819 450.353
170 0 59.2743 13.2772 787 119.299 33.7624 450.341
171 0 60.1766 10.8348 652 120.284 33.977 452.161
172 0 63.168 14.4219 911 113.422 34.3535 451.689
173 0 61.3 14.6493 898 113.589 36.2806 456.538
174 0 65.2134 11.6234 758 119.702 35.1135 452.617
175 0 65.3865 15.049 984 116.157 34.9776 451.458
176 0 67.2649 10.8526 730 122.184 34.2452 450.752
177 0 68.2575 13.5956 928 121.442 34.0841 453.613
178 0 71.3455 12.3484 881 127.432 33.1657 450.939
179 0 75.3195 11.5641 871 128.509 32.4363 453.804
180 0 77.4572 12.82 993 126.496 31.8973 453.371
181 0 80.1648 13.4099 1075 125.146 31.2642 452.164
182 0 82.4418 12.2996 1014 129.184 29.5335 452.639
183 0 84.4332 13.8453 1169 129.478 28.6322 447.375
184 1 173.992 14.4087 2507 135.766 27.6254 405
185 0 178.02 13.0435 2322 137.588 26.0728 401.996
186 0 185.794 18.133 3369 126.263 24.504 409.583
187 1 49.1078 10.6704 524 126.084 22.9504 465.66
188 0 53.1638 10.7592 572 129.787 22.8024 462.483
189 0 51.098 13.1708 673 119.776 21.7474 463.556
190 0 52.0701 11.0044 573 133.578 19.7365 457.864
191 0 53.2507 14.0656 749 129.17 20.4579 454.208
192 0 54.0828 13.7937 746 129.98 20.2413 454.424
193 0 59.3031 18.3127 1086 121.328 21.0184 451.189
194 0 57.2246 13.9276 797 127.582 21.2597 452.351
195 0 59.0592 15.0019 886 126.648 21.3172 450.123
196 0 65.1142 17.1545 1117 119.122 21.299 447.255
197 0 65.1537 16.3153 1063 123.618 22.6933 447.128
198 0 64.0502 17.4082 1115 124.762 23.7578 447.393
199 0 67.1039 14.8278 995 126.207 25.5106 447.66
200 0 68.1119 15.2396 1038 126.14 26.2987 447.349
201 0 70.2969 14.4957 1019 132.624 29.6752 443.238
202 0 70.1128 13.6494 957 132.04 31.9718 445.22
203 0 75.1516 16.2738 1223 126.049 33.1529 447.453
204 0 74.291 11.4953 854 137.128 33.0492 444.78
205 0 78.1508 15.0734 1178 133.138 33.3217 441.891
206 0 81.2742 16.8934 1373 127.775 36.8958 447.513
207 0 83.2973 15.9309 1327 130.568 37.2705 447.136
208 0 85.5307 14.3925 1231 134.624 36.9805 443.639
209 0 88.2641 15.227 1344 134.493 36.7158 443.839
210 0 88.4438 12.7539 1128 140.527 36.8582 446.905
211 1 48.2417 9.63896 465 142.402 36.0065 464.66
212 0 50.2403 10.1512 510 143.306 35.4549 464.61
213 0 53.381 9.92862 530 144.302 32.7396 463.168
214 0 56.171 15.257 857 132.45 32.7001 464.706
215 0 56.1684 12.3735 695 132.183 30.895 459.823
216 0 57.142 13.3702 764 135.83 28.3455 461.907
217 0 60.3068 14.1609 854 133.511 26.5293 461.848
218 0 61.1119 12.9271 790 136.027 25.2405 459.51
219 0 62.2015 13.7296 854 137.459 23.6885 457.504
220 0 63.1448 12.9068 815 138.491 23.2834 456.058
221 0 68.1004 15.8296 1078 131.004 22.3479 453.382
222 0 72.2938 15.9903 1156 130.757 21.9965 452.856
223 0 72.519 15.196 1102 139.068 22.0971 449.363
224 0 73.2558 15.1797 1112 139.71 21.8444 449.408
225 0 78.3675 16.3461 1281 134.953 21.2951 444.689
226 1 40.028 12.0166 481 137.291 19.896 463.22
227 0 44.0817 14.9949 661 132.561 20.4766 458.461
228 0 46.6438 13.8068 644 126.63 19.5901 464.255
229 0 46.2526 15.6316 723 129.205 21.7635 460.516
230 0 48.3934 15.3533 743 123.141 21.1198 463.219
231 0 47.1078 14.1802 668 132.052 23.7784 455.897
232 0 49.3279 14.5151 716 130.254 23.838 457.165
233 0 50.0716 14.1597 709 131.994 25.6629 457.989
234 0 53.1524 17.4028 925 121.451 27.373 458.272
235 0 53.216 15.4653 823 129.462 28.7752 457.502
236 0 55.1968 13.316 735 129.776 31.6694 457.001
237 0 57.2046 20.383 1166 118.513 32.1732 457.505
238 0 57.3511 14.3676 824 130.975 33.2852 456.795
239 0 59.311 15.8149 938 128.464 33.822 456.541
240 0 60.3445 14.4006 869 133.929 35.0783 458.661
241 0 62.5482 14.1171 883 137.207 33.9105 456.071
242 0 62.2511 14.1042 878 143.436 33.6936 458.911
243 0 64.2593 11.8271 760 143.913 33.1658 461.018
244 0 67.4346 13.1831 889 144.76 32.7998 455.846
245 0 69.2595 14.2074 984 146.235 33.0447 456.033
246 0 73.3736 13.22 970 147.614 31.1412 455.723
247 0 74.1664 13.8203 1025 148.05 31.001 453.7
248 0 76.2235 14.1557 1079 149.563 29.5968 449.467
249 1 41.0433 10.0869 414 151.14 26.9831 470.671
250 0 42.0159 10.2104 429 148.131 26.2751 471.772
251 0 42.0197 10.8045 454 148.903 24.6608 468.912
252 0 44.1629 13.1332 580 142.319 24.8448 471.602
253 0 49.5563 14.2262 705 139.126 25.1121 466.835
254 0 49.2167 13.8774 683 142.953 22.9107 464.691
255 0 49.7704 14.5669 725 141.832 24.0345 458.779
256 0 48.0493 13.1323 631 145.567 19.2726 461.861
257 0 53.0417 14.3849 763 145.615 20.6461 461.574
258 0 53.1993 13.7784 733 144.52 19.2674 458.78
259 0 56.0464 16.5934 930 139.832 19.5968 459.082
260 0 59.6319 17.0211 1015 137.849 19.4985 460.081
261 0 58.1726 13.8553 806 144.707 20.0732 456.819
262 0 60.239 16.9823 1023 137.243 20.1916 453.808
263 0 61.1053 15.7924 965 144.611 21.0093 452.304
264 0 63.1602 18.651 1178 136.169 22.3795 451.711
265 0 66.1228 15.9249 1053 140.552 23.2412 450.672
266 0 66.2844 14.6188 969 144.649 25.7028 448.753
267 0 71.6164 16.2393 1163 137.175 28.7782 449.386
268 0 76.7507 17.3419 1331 131.932 30.6011 451.258
269 0 73.4805 14.412 1059 141.965 32.6402 447.083
270 0 74.3089 15.9604 1186 145.264 33.2546 445.4
271 0 75.3631 12.8843 971 153.14 34.4686 444.779
272 0 79.1051 14.8789 1177 144.161 34.2523 449.719
273 0 80.1372 15.3986 1234 145.296 33.6361 444.738
274 0 84.2122 13.7747 1160 153.047 34.8078 446.867
275 1 48.0791 12.7082 611 143.065 34.8936 465.255
276 0 47.0166 13.1656 619 146.743 33.5784 464.969
277 0 48.023 11.3071 543 152.891 32.5672 465.814
278 0 50.0485 13.7067 686 150.624 30.5525 464.714
279 0 52.0446 13.7382 715 148.344 30.4881 467.175
280 0 52.0853 12.5371 653 151.496 28.3951 466.064
281 0 54.1149 15.4856 838 145.993 27.7554 465.916
282 0 57.0768 15.12 863 146.713 27.2711 465.136
283 0 57.078 17.0819 975 143.113 26.0923 463.043
284 0 58.1005 14.2168 826 149.674 24.6041 459.998
285 0 60.1058 14.1085 848 152.633 23.2689 461.173
286 0 62.0624 14.4532 897 153.342 21.3322 459.074
287 0 64.041 13.101 839 155.141 20.4148 458.237
288 0 64.1005 15.3977 987 153.877 20.9747 455.29
289 0 69.2447 14.4271 999 151.016 19.038 453.493
290 0 72.1658 16.0187 1156 148.728 19.5138 451.463
291 0 74.2479 18.1015 1344 141.888 19.5491 449.533
292 0 77.0773 17.2554 1330 143.774 18.9165 447.292
293 0 76.182 16.093 1226 149.044 19.6028 445.35
294 1 41.1842 14.1316 582 142.538 18.0584 462.864
295 0 43.0701 9.21753 397 150.401 18.5592 464.33
296 0 46.141 12.5051 577 142.142 19.7799 462.544
297 0 47.088 11.5741 545 144.666 20.7009 460.93
298 0 50.1588 12.8193 643 141.866 25.5194 460.596
299 0 50.0592 11.9858 600 141.283 25.8367 457.618
300 0 53.1259 13.7786 732 136.881 26.6489 459.669
301 0 52.2041 15.2478 796 141.964 25.9309 459.43
302 0 54.1525 13.2404 717 148.049 27.8075 456.862
303 0 54.0575 12.5422 678 151.711 29.1342 457.653
304 0 58.0741 15.0325 873 143.483 30.803 457.995
305 0 57.0997 12.5745 718 150.99 31.1393 457.926
306 0 60.0852 14.6958 883 147.719 31.8233 458.435
307 0 63.0737 15.2044 959 146.557 32.6257 459.214
308 0 62.1827 13.0905 814 153.495 32.1216 459.156
309 0 67.1199 14.705 987 149.063 32.2979 456.918
310 0 68.0662 15.529 1057 147.014 31.6168 458.076
311 0 69.352 13.7559 954 152.802 30.9015 458.561
312 0 73.2816 16.3206 1196 149.579 30.0176 452.779
313 0 74.1544 15.225 1129 152.386 29.1231 454.089
314 0 79.5154 15.5819 1239 149.098 27.8991 455.254
315 1 40.1721 10.0318 403 151.988 28.4268 473.548
316 0 43.0447 12.5451 540 148.231 29.0741 470.983
317 0 42.1211 11.0871 467 150.499 27.6724 470.63
318 0 43.094 11.5097 496 147.286 26.0181 471.135
319 0 47.1197 13.1155 618 138.994 24.7573 469.78
320 0 47.1181 12.4793 588 142.425 23.2619 468.91
321 0 50.1057 13.8108 692 138.851 22.8208 466.805
322 0 50.1317 14.0031 702 142.699 20.9473 461.896
323 0 53.128 16.1497 858 133.119 19.8473 459.492
324 0 54.0478 14.9497 808 135.785 19.8738 460.158
325 0 54.1846 10.8149 586 141.59 19.5444 460.044
326 0 59.2398 13.7745 816 132.037 21.2782 458.951
327 0 60.0534 14.3206 860 137.098 18.443 455.323
328 0 62.1001 16.9887 1055 132.885 19.855 454.25
329 0 65.1332 21.5865 1406 122.326 19.8905 450.619
330 0 68.3588 17.2033 1176 128.622 20.8997 449.57
331 0 69.1082 13.8623 958 131.568 21.9478 448.269
332 0 71.0862 13.6735 972 136.502 23.7099 447.051
333 0 73.0776 14.122 1032 137.272 23.4874 445.638
334 0 76.0565 16.33 1242 133.436 25.5717 444.788
335 0 80.0741 16.8844 1352 133.375 27.4127 443.9
336 0 81.0607 16.1854 1312 136.159 29.4405 444.699
337 1 45.0904 10.8227 488 141.689 30.1537 462.561
338 0 45.0229 11.1943 504 141.631 31.1607 463.575
339 0 45.0443 10.634 479 145.322 31.3006 463.271
340 0 47.0292 11.6523 548 143.274 31.396 462.423
341 0 50.1036 13.8513 694 138.925 31.4481 461.431
342 0 51.348 15.9695 820 135.682 33.2354 461.307
343 0 54.6329 13.307 727 139.051 31.6314 461.648
344 0 54.1268 11.3807 616 143.985 30.6591 461.942
345 0 54.1051 12.1061 655 141.881 29.2702 465.191
346 0 56.0848 12.802 718 142.097 28.163 462.483
347 0 57.184 13.3954 766 142.136 27.3068 461.495
348 0 60.1912 13.0916 788 142.919 26.5622 461.848
349 0 62.1315 14.7429 916 135.645 26.167 458.821
350 0 62.1636 14.0436 873 136.995 24.1924 459.253
351 0 66.1056 15.0366 994 133.933 22.9708 459.145
352 0 68.1088 13.1848 898 138.441 21.0657 457.953
353 0 71.1076 14.682 1044 136.514 21.4885 455.539
354 0 73.1743 15.8389 1159 135.704 19.9232 455.815
355 0 78.1997 14.6036 1142 137.079 20.366 452.311
356 0 80.2114 17.5287 1406 132.233 19.6764 449.735
357 1 46.0396 12.0983 557 137.553 18.5799 467.054
358 0 44.0656 12.1637 536 141.858 18.25 465.056
359 0 44.1707 10.4368 461 140.846 19.9805 466.874
360 0 46.049 16.2653 749 130.79 19.2457 464.005
361 0 50.4218 18.1073 913 127.861 20.1512 464.571
362 0 49.2254 17.2066 847 123.632 19.7166 465.516
363 0 51.4858 17.8302 918 125.974 21.7386 458.52
364 0 54.48 17.6211 960 119.904 20.0677 461.975
365 0 55.0939 17.3522 956 122.882 23.7772 460.01
366 0 55.1563 14.4861 799 130.596 23.7885 457.375
367 0 58.0672 14.6382 850 131.689 27.1376 458.616
368 0 59.1902 13.5326 801 134.492 28.0724 460.397
369 0 65.7147 22.1107 1453 117.481 29.8176 457.466
370 0 62.1958 15.4512 961 131.793 30.1561 454.957
371 0 67.1839 20.2132 1358 122.803 31.7386 455.035
372 0 69.135 18.4856 1278 125.463 31.2942 455.044
373 0 70.1642 15.8058 1109 133.598 32.5528 458.277
374 0 72.1561 18.0304 1301 129.867 32.5465 454.392
375 0 73.1417 16.0784 1176 135.209 30.9065 454.296
376 0 75.1439 15.9561 1199 136.939 30.5571 455.405
377 0 77.4885 15.783 1223 138.33 29.9599 453.463
378 0 82.2588 16.3265 1343 139.507 29.4773 450.115
379 1 45.1006 14.2348 642 139.372 27.7679 471.945
380 0 43.036 12.6871 546 144.885 26.3462 471.357
381 0 43.0392 12.1982 525 148.533 25.7867 470.947
382 0 46.0612 12.8742 593 144.442 24.9005 471.486
383 0 47.0698 11.5148 542 143.555 23.6292 469.423
384 0 50.0621 15.4808 775 140.346 21.9213 469.543
385 0 49.2589 13.1347 647 143.383 21.6136 468.329
386 0 49.0683 13.7156 673 141.556 20.8113 466.456
387 0 53.1045 14.0101 744 144.164 23.0699 465.522
388 0 51.1307 13.397 685 141.928 24.2861 466.203
389 0 55.0514 13.8053 760 139.691 23.6329 461.663
390 0 56.0711 16.8536 945 139.614 23.618 459.553
391 0 58.1983 15.808 920 137.3 22.5946 460.999
392 0 61.1514 17.6284 1078 136.267 21.9935 456.158
393 0 63.2243 18.4106 1164 133.718 22.1942 455.364
394 0 66.0716 18.1621 1200 131.973 22.4225 452.344
395 0 67.2106 22.0204 1480 122.274 23.7662 458.136
396 0 68.3793 14.5804 997 136.407 23.669 449.782
397 0 70.1347 15.2421 1069 134.098 25.3012 450.09
398 0 74.279 15.7784 1172 129.122 26.1476 450.472
399 0 79.1751 18.7938 1488 121.507 26.0706 450.117
400 0 83.8892 16.7364 1404 124.849 27.9516 450.733
401 0 80.1341 15.2619 1223 133.37 29.8307 443.158
402 0 83.2067 13.1239 1092 137.016 31.5888 444.061
403 0 86.1979 16.4389 1417 131.598 32.7826 439.192
404 1 51.0423 13.2243 675 135.539 34.4948 465.12
405 0 46.1424 8.82052 407 146.214 34.5307 465.388
406 0 49.1118 11.8302 581 140.193 35.475 463.916
407 0 50.0536 11.0082 551 142.152 35.9474 465.779
408 0 53.0324 11.823 627 142.447 35.2791 465.404
409 0 52.2886 11.3792 595 147.208 34.7798 462.412
410 0 56.242 15.3444 863 139.644 32.9351 462.343
411 0 59.1838 17.0655 1010 133.491 32.8446 463.119
412 0 58.1475 13.053 759 142.049 32.0791 463.746
413 0 63.2584 16.5353 1046 133.298 30.8662 463.459
414 0 62.1839 13.7656 856 140.697 29.8446 463.646
415 0 66.0907 15.161 1002 137.584 29.5549 463.154
416 0 68.2165 14.1901 968 142.541 28.0744 456.008
417 0 67.1374 12.7202 854 146.87 26.6183 458.69
418 0 71.1506 12.9584 922 145.22 25.5521 455.731
419 0 75.1459 14.3987 1082 140.708 24.1811 455.431
420 0 76.1082 14.9261 1136 138.046 24.4393 455.164
421 0 81.1161 15.8908 1289 134.211 23.595 451.31
422 0 84.1197 16.4171 1381 128.726 23.0239 454.487
423 0 84.2592 14.9776 1262 141.728 22.9913 446.362
424 1 45.0651 12.3821 558 141.149 23.414 466.425
425 0 47.1054 10.4659 493 139.775 23.0406 465.124
426 0 50.0316 13.2916 665 135.538 22.4722 462.286
427 0 55.1684 13.7579 759 133.51 22.4743 459.609
428 0 55.2133 15.2137 840 130.72 22.8726 456.598
429 0 57.1674 18.1747 1039 127.622 24.1896 453.955
430 0 60.52 17.9775 1088 123.686 25.5533 456.547
431 0 57.1208 12.1672 695 139.435 24.7885 453.973
432 0 60.2228 14.6456 882 126.536 27.9762 457.271
433 0 61.2207 13.6555 836 132.715 28.9007 453.768
434 0 68.2646 15.2055 1038 124.977 30.605 455.967
435 0 64.1851 13.6948 879 136.457 32.9488 454.718
436 0 67.1303 15.1794 1019 127.99 34.1433 454.421
437 0 69.1425 15.0414 1040 129.549 34.701 454.217
438 0 72.1771 14.409 1040 130.485 34.9529 451.776
439 0 77.1068 15.6407 1206 131.958 35.6675 453.211
440 0 79.1771 16.1031 1275 130.122 36.1953 455.214
441 0 83.1424 13.4949 1122 136.511 36.1809 454.504
442 0 85.2586 17.0188 1451 130.779 35.4542 449.294
443 0 85.112 14.2166 1210 139.208 34.7636 448.15
444 1 47.0377 11.055 520 141.238 35.1173 470.45
445 0 50.0868 13.4367 673 139.591 34.2452 467.585
446 0 51.1385 13.1995 675 138.514 32.9289 469.578
447 0 51.1109 12.3457 631 141.439 32.3471 466.933
448 0 56.0766 13.0179 730 143.337 30.737 465.089
449 0 55.1218 13.1527 725 137.034 26.269 461.695
450 0 56.2303 12.5199 704 131.935 25.892 462.634
451 0 57.1971 12.7104 727 131.893 24.4017 460.898
452 0 60.0962 12.0307 723 132.476 22.971 460.52
453 0 63.1229 16.2857 1028 123.768 22.2782 459.711
454 0 63.1008 14.4848 914 125.804 21.7188 458.113
455 0 66.2212 13.4398 890 127.819 20.909 456.315
456 0 69.2574 15.1464 1049 123.57 21.674 456.901
457 0 69.2207 16.079 1113 125.677 21.3486 450.325
458 0 72.2794 14.8728 1075 125.332 19.9553 450.247
459 0 76.4384 16.196 1238 120.185 20.5162 449.206
460 0 79.2525 15.5831 1235 121.878 20.7919 443.547
461 0 81.2896 16.7303 1360 117.615 21.0316 442.763
462 0 83.1587 14.8391 1234 121.874 21.7293 440.462
463 0 86.5137 15.8125 1368 115.906 21.4225 442.165
464 0 89.8607 13.7769 1238 124.334 22.378 437.119
465 1 48.1393 14.3334 690 120.403 21.4522 459.694
466 0 52.0549 14.8497 773 121.53 24.8021 458.719
467 0 54.1728 15.7828 855 120.853 25.3848 456.144
468 0 55.2535 17.6821 977 115.124 27.9754 462.812
469 0 55.1263 12.9521 714 128.326 29.7171 456.081
470 0 58.2101 17.8491 1039 121.097 31.8537 455.882
471 0 60.1337 17.1285 1030 122.447 31.7641 456.251
472 0 59.1341 15.8454 937 124.863 32.4824 458.386
473 0 61.1387 17.5666 1074 127.146 32.3352 459.183
474 0 62.1703 14.4281 897 133.964 31.4794 458.188
475 0 63.1484 13.4604 850 137.32 31.6376 456.385
476 0 65.05 12.6057 820 140.865 31.5768 459.194
477 0 69.1857 16.3473 1131 133.031 30.4668 458.441
478 0 70.0711 16.2264 1137 134.362 29.7414 455.953
479 0 72.1025 14.41 1039 137.961 29.0577 458.26
480 0 72.1431 13.3623 964 142.676 28.1836 455.96
481 0 77.1748 15.6916 1211 136.794 27.213 456.41
482 1 42.1048 10.1414 427 136.433 24.9204 476.145
483 0 43.0449 9.52494 410 142.739 23.7537 473.524
484 0 45.1033 13.1698 594 136.274 21.9259 471.981
485 0 43.1383 11.5443 498 140.118 21.8153 469.731
486 0 48.0273 14.2835 686 132.478 21.2434 468.652
487 0 48.0828 13.4352 646 135.033 20.7214 466.885
488 0 50.1863 13.3502 670 134.234 20.4806 463.904
489 0 53.0736 16.1286 856 126.82 23.6974 462.654
490 0 51.1959 14.9817 767 128.819 23.1799 461.227
491 0 54.1792 14.5259 787 126.111 21.2948 463.165
492 0 56.1312 13.3437 749 128.78 19.8358 462.138
493 0 58.1251 14.4516 840 128.54 21.1571 458.633
494 0 60.3362 15.7617 951 126.512 20.6814 455.183
495 0 63.2323 21.0335 1330 118.095 21.5496 456.117
496 0 63.1631 15.0404 950 124.222 22.5137 456.673
497 0 66.1935 15.9532 1056 120.381 23.4413 454.325
498 0 67.4328 13.8212 932 123.673 23.4979 451.438
499 0 68.3135 14.9751 1023 123.56 24.9795 452.763
500 0 74.2686 14.2591 1059 126.252 27.1426 450.246
501 0 71.1915 14.7208 1048 128.432 28.1574 450.718
502 0 76.306 16.1193 1230 127.133 30.1463 446.221
503 0 81.2453 16.9979 1381 123.611 32.1622 446.66
504 0 84.2027 16.6859 1405 124.132 32.721 450.551
505 0 85.2473 15.9536 1360 127.497 33.1765 449.726
506 0 88.1427 16.3371 1440 129.331 33.2632 446.064
507 1 45.1027 12.2609 553 136.955 31.6962 466.515
508 0 49.1304 10.2584 504 134.47 32.0853 464.958
509 0 54.0219 14.1424 764 131.309 32.5759 464.831
510 0 53.0701 14.3772 763 132.123 33.3106 464.253
511 0 53.2546 13.0505 695 138.75 31.2576 465.124
512 0 56.4704 14.4678 817 141.093 29.3721 465.738
513 0 60.3932 16.1773 977 137.812 28.8639 465.105
514 0 60.1509 15.8933 956 139.421 28.0471 464.686
515 0 63.1415 14.2062 897 144.766 26.9554 463.822
516 0 63.1817 15.7007 992 142.42 25.2873 462.193
517 0 66.2105 16.6137 1100 141.399 23.96 458.663
518 0 68.1601 14.0551 958 145.147 22.8862 461.4
519 0 70.2745 14.7991 1040 143.311 21.8865 458.258
520 0 73.3233 15.7522 1155 146.068 23.1481 454.716
521 0 76.3079 16.4203 1253 138.385 19.9497 451.753
522 0 80.3503 17.0628 1371 136.62 20.3756 454.327
523 0 84.1835 21.6194 1820 134.29 20.583 446.702
524 0 85.3297 21.247 1813 132.485 20.3723 443.748
525 0 89.3812 18.1694 1624 135.965 20.0856 444.706
526 0 90.5723 19.8626 1799 135.397 20.6515 439.857
527 1 49.2033 13.1292 646 143.745 20.5728 461.402
528 0 51.2772 13.4368 689 142.964 21.4238 459.023
529 0 54.3287 13.3079 723 138.528 22.4896 461.131
530 0 53.467 13.1857 705 144.767 24.2199 459.977
531 0 54.3312 14.7429 801 133.632 25.3508 459.165
532 0 55.351 14.9591 828 127.356 25.6691 454.216
533 0 57.4368 13.5627 779 131.836 28.3273 454.221
534 0 61.1304 15.8677 970 129.46 30.3175 456.761
535 0 64.2554 15.0493 967 132.743 32.0228 455.284
536 0 64.2782 13.0526 839 137.207 33.534 456.574
537 0 66.1548 13.8161 914 137.232 35.1685 454.304
538 0 68.2342 14.6847 1002 136.138 34.8882 456.579
539 0 71.3249 16.3197 1164 139.484 35.3127 452.777
540 0 72.1877 15.432 1114 140.678 35.9892 450.418
541 0 75.468 16.1393 1218 141.312 34.6273 451.552
542 0 80.2857 19.2936 1549 136.966 33.8941 450.692
543 0 80.1578 18.3263 1469 141.982 33.9891 450.26
544 0 83.2573 16.1547 1345 146.31 33.0989 449.251
545 0 87.1114 15.176 1322 149.907 31.8124 449.635
546 0 89.3718 18.3503 1640 143.087 31.189 446.411
547 0 90.2937 14.5304 1312 151.263 29.7668 449.402
548 0 94.18 16.2243 1528 147.48 28.5713 446.623
549 0 97.2108 14.6177 1421 151.557 27.114 439.748
550 0 100.21 16.3058 1634 146.78 26.0361 440.753
551 0 101.239 16.2091 1641 148.96 23.1712 441.032
552 1 59.0728 10.8172 639 146.182 21.8091 464.933
553 0 59.3043 15.3109 908 140.074 22.2621 462.036
554 0 60.2467 11.9011 717 146.59 20.1367 460.881
555 0 63.2783 15.8032 1000 141.987 21.119 458.181
556 0 61.1939 12.9261 791 145.661 20.4387 449.65
557 0 65.2912 13.8916 907 144.757 19.1003 453.567
558 0 67.4278 12.8285 865 139.939 23.0231 455.806
559 0 71.3932 17.9849 1284 128.584 21.8801 451.603
560 0 74.2792 15.8591 1178 134.223 21.7784 449.832
561 0 75.5149 15.5201 1172 134.177 22.459 446.451
562 0 76.3887 13.6669 1044 138.105 23.7586 447.362
563 0 82.2444 16.5361 1360 128.912 23.9037 443.832
564 0 84.2851 14.2137 1198 134.508 24.7671 439.977
565 0 85.2018 12.8753 1097 141.454 26.2434 443.363
566 0 89.4139 14.774 1321 137.59 27.7229 438.221
567 0 93.177 15.3793 1433 136.402 29.5639 440.299
568 0 94.3699 14.6763 1385 140.323 30.8838 435.972
569 0 98.2157 16.0056 1572 137.02 32.4459 435.204
570 0 102.457 14.9818 1535 141.189 33.4847 435.874
571 0 106.336 14.9338 1588 144.259 33.9364 438.255
572 1 56.5511 12.3959 701 149.596 35.0114 457.837
573 0 57.6934 11.5438 666 149.778 35.0285 456.962
574 0 60.4524 11.9102 720 148.1 34.5444 457.81
575 0 62.5347 12.3611 773 150.238 34.0298 455.041
576 0 64.1814 13.3684 858 148.8 34.0117 455.383
577 0 66.2063 13.3371 883 148.849 31.4598 459.416
578 0 68.4609 12.1968 835 152.177 30.9006 464.795
579 0 69.2361 15.3966 1066 145.902 29.9916 462.988
580 0 71.4319 14.3493 1025 148.74 29.5122 459.857
581 0 74.6256 15.1557 1131 145.737 28.2042 461.903
582 0 76.4941 13.805 1056 151.307 26.6714 457.244
583 0 79.649 14.0742 1121 150.192 25.2061 457.105
584 0 78.4366 14.0751 1104 153.322 24.087 454.643
585 0 84.6785 15.0215 1272 151.03 23 453.869
586 0 84.5561 14.2036 1201 154.653 21.9084 448.791
587 0 89.9955 15.7675 1419 151.598 22.5638 449.836
588 0 94.0078 15.7115 1477 150.175 21.2783 449.154
589 0 92.4001 14.0151 1295 148.942 21.5969 447.735
590 0 96.3005 15.5866 1501 143.543 21.8748 445.077
591 0 102.528 14.9422 1532 142.612 19.9654 444.593
592 0 102.852 14.166 1457 147.517 22.0837 436.967
593 0 104.632 15.3394 1605 144.174 20.1371 438.315
594 1 54.5512 9.23902 504 142.954 21.4821 466.556
595 0 57.6037 10.1209 583 145.317 20.9348 459.221
596 0 56.3649 10.5207 593 145.693 22.2968 458.477
597 0 61.8168 13.4268 830 140.742 22.7952 459.836
598 0 62.7194 13.6003 853 140.94 23.6694 454.628
599 0 66.5957 11.4272 761 142.231 24.2405 458.46
600 0 68.2484 12.601 860 140.965 27.4267 460.919
601 0 70.3525 13.0059 915 141.497 28.1301 457.483
602 0 72.3626 15.3671 1112 137.266 27.9811 454.718
603 0 73.4026 13.569 996 143.808 28.4026 454.669
604 0 78.291 14.791 1158 139.159 29.0276 456.196
605 0 79.2957 13.8974 1102 141.505 28.774 455.216
606 0 82.4716 15.2174 1255 139.528 28.8016 451.896
607 0 87.3097 13.8473 1209 141.935 28.7825 450.931
608 0 88.2345 14.0648 1241 140.209 28.4722 452.263
609 0 91.2071 15.547 1418 138.593 27.8258 450.26
610 1 48.1171 10.8278 521 137.029 29.499 477.585
611 0 49.0933 13.2808 652 136.971 28.7914 472.825
612 0 49.0912 9.55366 469 145.375 27.5288 469.864
613 0 56.5204 11.3587 642 138.002 25.5841 472.35
614 0 58.3871 11.8862 694 140.614 24.3689 467.251
615 0 58.4874 13.7637 805 139.03 23.0758 464.236
616 0 60.256 17.0107 1025 136.587 21.1024 465.353
617 0 60.1112 12.6765 762 145.752 19.4265 468.423
618 0 65.1499 17.3446 1130 138.488 18.8363 462.95
619 0 67.1196 16.7164 1122 137.689 16.8948 461.513
620 0 71.1034 17.6644 1256 137.258 17.1242 459.811
621 0 73.3647 19.4508 1427 131.66 16.4604 458.392
622 0 75.4109 18.313 1381 132.534 16.0319 456.637
623 0 76.2936 17.7603 1355 136.235 15.6694 451.007
624 0 80.246 19.4776 1563 131.533 15.5662 447.717
625 0 81.5759 19.6014 1599 131.449 15.8512 447.467
626 0 86.7446 18.272 1585 132.222 16.3022 447.836
627 0 86.5171 16.3089 1411 136.727 16.7449 444.033
628 0 86.3136 15.9071 1373 139.23 17.7844 441.232
629 0 90.3989 16.2723 1471 137.725 18.6044 439.919
630 1 50.0968 14.2923 716 134.58 19.0754 459.996
631 0 52.1858 11.8615 619 131.672 22.4313 460.281
632 0 55.2676 12.7018 702 129.276 22.2336 459.877
633 0 54.7305 13.4112 734 134.916 27.4264 453.702
634 0 58.1717 11.1738 650 137.486 26.88 456.06
635 0 58.4708 12.1257 709 139.559 29.5853 456.55
636 0 62.401 14.3427 895 134.77 30.3408 455.963
637 0 63.2192 14.426 912 137.49 29.7127 459.205
638 0 66.1689 13.798 913 138.392 28.7229 460.199
639 0 66.0914 13.4965 892 144.206 28.741 453.824
640 0 69.1985 13.2084 914 143.489 29.7123 457.327
641 0 71.0878 13.4763 958 141.766 28.0094 459.398
642 0 73.0756 10.8381 792 148.658 27.7399 459.508
643 0 77.15 14.569 1124 141.743 27.6735 455.314
644 0 78.1854 14.504 1134 141.563 26.6922 457.377
645 0 83.2275 12.9404 1077 143.188 25.8737 455.088
646 1 46.1732 8.51144 393 146.053 25.3155 472.562
647 0 47.092 9.87429 465 141.234 24.4968 474.723
648 0 49.0987 11.6093 570 142.072 22.9421 469.07
649 0 48.0599 8.78071 422 149.109 21.5545 468.72
650 0 51.1521 10.7522 550 144.178 20.2709 468.202
651 0 52.1602 13.2668 692 142.033 20.2254 466.405
652 0 54.3224 13.2358 719 139.127 18.733 464.024
653 0 55.0958 13.4856 743 138.93 17.7806 465.436
654 0 55.3566 13.5305 749 138.23 18.3071 463.199
655 0 56.099 13.4762 756 141.618 17.4497 461.952
656 0 58.3196 15.4151 899 139.207 17.5584 458.068
657 1 121.154 19.5371 2367 133.711 18.1931 429.791
658 0 120.787 14.6705 1772 142.28 18.3081 428.798
659 1 65.1221 16.1082 1049 132.002 18.0467 456.935
660 0 67.1756 16.6429 1118 131.267 18.9436 452.814
661 0 67.2166 14.3714 966 138.147 19.0052 449.762
662 0 72.2659 14.8756 1075 132.864 20.5451 450.178
663 0 77.5457 18.2086 1412 124.611 22.8024 451.484
664 0 76.2893 14.9431 1140 131.578 22.493 447.541
665 1 43.0658 10.4491 450 133.849 24.3422 463.676
666 0 45.0558 11.0308 497 133.028 26.9175 465.376
667 0 43.1706 12.717 549 133.128 29.898 464.889
668 0 45.3111 9.09269 412 145.039 33.9951 463.1
669 0 48.2352 13.0403 629 133.571 32.7456 463.41
670 0 49.0878 13.1601 646 136.447 31.5929 462.58
671 0 49.1983 14.3908 708 135.121 31.589 463.096
672 0 50.161 13.357 670 138.642 31.2701 463.533
673 0 53.273 14.4163 768 138.44 30.8646 465.095
674 0 52.1709 13.2833 693 143.902 30.8716 464.951
675 0 54.1949 13.433 728 142.953 30.9396 465.415
676 0 57.2817 15.4849 887 137.184 29.9414 466.313
677 0 57.2417 12.9801 743 144.937 28.8977 464.681
678 0 61.1825 14.1707 867 139.589 27.8316 466.188
679 0 63.3289 13.3115 843 142.945 26.325 463.539
680 0 63.3954 14.0389 890 141.319 25.3169 463.766
681 0 65.1876 14.5273 947 141.147 22.9863 458.499
682 0 69.1451 14.7805 1022 137.463 21.1174 459.983
683 0 71.1477 15.9106 1132 135.94 20.7615 455.452
684 0 74.1433 13.2851 985 139.287 20.5624 460.104
685 1 40.1109 12.4405 499 135.397 19.7495 472.607
686 0 43.0575 12.2162 526 136.835 18.3536 469.983
687 0 42.0854 14.4468 608 132.893 19.7336 469.789
688 0 44.0478 13.8259 609 132.228 17.4286 467.448
689 0 43.1581 12.0024 518 137.653 17.89 466.467
690 0 47.07 15.2114 716 133.571 17.4218 462.623
691 0 47.0386 15.4979 729 132.807 17.7476 459.643
692 0 49.3006 15.9025 784 130.038 18.8533 461.758
693 0 52.0511 15.0813 785 132.899 17.1911 458.438
694 0 54.1814 15.1343 820 131.432 18.911 458.271
695 0 57.0758 15.6283 892 125.9 19.5919 457.656
696 0 55.1091 15.4965 854 126.674 21.3923 459.9
697 0 56.0752 14.7659 828 128.047 21.1486 454.111
698 0 56.135 15.1243 849 132.416 23.2603 453.638
699 0 60.1217 16.9323 1018 125.42 24.9273 455.58
700 0 57.053 11.8662 677 135.275 27.2038 453.651
701 0 60.4645 15.0998 913 129.019 28.437 452.096
702 0 62.2704 13.8429 862 132.309 29.5278 454.412
703 0 61.2702 13.7587 843 142.178 30.5457 454.757
704 0 67.1847 13.7531 924 132.864 29.9848 454.274
705 0 69.1572 13.3464 923 136.941 30.7595 454.444
706 0 72.1963 12.5353 905 138.814 30.4398 456.04
707 0 72.2763 14.6244 1057 133.671 30.2422 456.142
708 1 39.06 10.1639 397 138.033 29.6574 471.39
709 0 42.0375 10.1338 426 142.585 28.6009 470.477
710 0 41.0561 10.9119 448 135.795 26.8862 473.304
711 0 42.0697 10.649 448 143.656 25.6987 468.194
712 0 44.0403 12.5567 553 138.485 25.4213 469.807
713 0 45.0551 15.0704 679 131.417 24.4875 469.835
714 0 44.0735 11.8666 523 141.002 22.4302 467.977
715 0 44.1542 14.5626 643 136.585 22.1788 466.827
716 0 47.3335 12.1478 575 138.769 21.7513 466.513
717 0 48.1542 12.7092 612 137.291 19.2582 466.292
718 0 52.0998 14.0883 734 131.616 18.8665 466.386
719 0 51.1054 15.8887 812 129.009 18.7266 462.319
720 0 54.1485 17.5074 948 124.827 18.2658 462.415
721 0 54.0773 15.6813 848 135.394 17.6533 459.522
722 0 55.2072 16.3203 901 131.68 17.7902 459.127
723 0 57.1013 16.5495 945 131.72 17.218 458.098
724 0 58.1993 18.4538 1074 126.032 18.689 455.886
725 0 63.1256 17.9008 1130 123.812 18.5398 455.993
726 0 63.2306 17.365 1098 128.24 18.5 454.131
727 0 64.268 14.175 911 129.538 19.5653 453.322
728 0 65.3312 14.9852 979 134.616 21.1532 450.266
729 0 68.1479 16.112 1098 125.542 22.5137 453.066
730 1 40.0252 12.1174 485 131.06 23.0495 464.975
731 0 41.0618 8.5968 353 136.127 25.2181 464.569
732 0 41.0596 12.421 510 132.843 27.4784 465.935
733 0 40.0743 10.6053 425 136.6 28.3318 466.141
734 0 43.0935 15.1531 653 131.466 29.0796 466.417
735 0 45.0379 15.498 698 129.609 31.5057 466.967
736 0 45.1958 13.0101 588 134.192 32.0221 463.92
737 0 49.0804 14.2623 700 133.54 30.9757 465.729
738 0 49.0483 11.927 585 139.197 31.6496 467.496
739 0 51.1243 14.1224 722 137.857 30.1371 466.317
740 0 53.0663 15.8858 843 136.474 29.7829 467.343
741 0 54.164 12.2037 661 142.236 28.5189 469.581
742 0 57.0755 16.4344 938 134.07 27.0959 469.559
743 0 58.0706 12.3815 719 142.631 25.8442 469.698
744 0 61.0735 17.7164 1082 133.258 24.5628 464.377
745 0 64.0907 19.9873 1281 126.207 23.2514 466.059
746 0 66.1391 14.8324 981 137.304 21.1081 464.864
747 0 66.1227 17.9212 1185 136.185 21.9654 461.133
748 0 70.1758 17.7269 1244 132.531 19.5265 461.996
749 0 72.3471 15.633 1131 139.61 18.9248 461.562
750 0 75.2651 22.2281 1673 129.302 18.2738 457.821
751 1 38.2083 11.3588 434 146.641 17.2742 474.691
752 0 43.6143 12.4042 541 131.693 17.8004 473.516
753 0 43.3236 12.372 536 132.892 18.3769 472.386
754 0 42.1678 15.2249 642 129.134 18.9455 471.056
755 0 45.2132 15.1726 686 127.273 18.93 469.547
756 0 47.1251 11.7135 552 128.239 17.4438 469.118
757 0 47.1706 16.5993 783 123.361 19.6258 466.425
758 0 47.3319 16.0779 761 123.363 18.5795 467.369
759 0 49.3933 16.5407 817 124.397 20.7124 463.781
760 0 49.3933 16.3585 808 139.125 20.724 463.804
761 0 51.4181 13.7695 708 135.061 22.9619 463.811
762 0 50.5478 13.9076 703 131.26 22.1152 461.718
763 0 53.1699 15.3094 814 129.721 23.9165 460.367
764 0 56.3295 15.9419 898 126.084 25.0356 458.916
765 0 56.3534 14.0719 793 134.204 24.9306 460.243
766 0 60.3114 15.022 906 132.869 25.6236 458.046
767 0 62.1356 14.8868 925 134.731 27.0357 459.59
768 0 62.1326 16.1429 1003 133.052 28.7139 459.301
769 0 64.239 14.2126 913 138.22 28.4578 458.641
770 0 66.1752 14.8243 981 136.163 28.6993 459.025
771 0 70.1189 14.4041 1010 135.637 28.7842 460.628
772 0 70.0859 13.4264 941 138.631 28.7365 460.084
773 0 74.1351 12.9493 960 138.324 28.4667 459.18
774 1 37.1467 11.4142 424 136.686 28.0873 476.585
775 0 40.0816 9.3559 375 138.429 26.1467 477.328
776 0 43.2263 9.90138 428 137.456 24.965 477.061
777 0 44.1093 11.6529 514 135.484 23.4494 475.307
778 0 43.1005 9.21104 397 142.179 23.7103 473.401
779 0 49.1954 12.8264 631 133.285 20.8225 474.753
780 0 48.2085 15.6819 756 137.467 22.4907 470.636
781 0 53.1152 16.6807 886 133.085 20.254 472.365
782 0 52.2021 15.325 800 134.751 19.7112 470.816
783 0 51.2144 15.4644 792 133.789 19.6944 473.135
784 0 57.2766 18.4019 1054 127.228 18.0209 469.249
785 0 57.3066 19.0205 1090 130.128 19.6872 466.237
786 0 56.138 18.2051 1022 126.192 17.4804 466.451
787 0 59.242 17.9602 1064 128.051 17.9464 461.353
788 0 61.1657 19.3736 1185 126.564 17.9148 459.613
789 0 64.403 18.9432 1220 123.803 17.0508 457.609
790 0 65.1667 22.0665 1438 121.457 17.532 454.981
791 0 67.1267 15.6421 1050 128.489 18.1371 454.679
792 0 69.288 17.0159 1179 124.328 19.1841 453.625
793 0 74.2595 16.3346 1213 123.883 20.3223 452.514
794 0 74.3196 15.5275 1154 128.936 20.5442 448.009
795 0 78.416 19.7154 1546 122.847 21.3732 448.684
796 0 79.3176 16.8437 1336 128.104 22.4461 446.225
797 0 86.3963 19.098 1650 122.987 23.7364 443.788
798 0 88.3631 17.6997 1564 124.912 24.8676 442.775
799 0 87.3245 14.2457 1244 134.912 25.3818 440.519
800 0 90.47 14.7894 1338 132.655 26.7257 443.64
801 0 94.3418 17.2988 1632 128.73 27.902 439.873
802 0 97.632 16.8285 1643 130.527 29.6141 438.935
803 1 50.3458 12.3943 624 136.681 29.8221 462.345
804 0 53.2926 12.3657 659 139.851 28.8725 464.602
805 0 54.232 15.2124 825 136.604 29.3661 463.479
806 0 56.3197 12.9617 730 138.507 29.5301 459.955
807 0 59.2874 14.0671 834 136.923 29.4281 460.429
808 0 60.1251 14.4532 869 137.16 27.8711 461.843
809 0 62.174 14.7328 916 136.2 27.4432 463.79
810 0 66.1793 16.3798 1084 132.125 26.4696 460.059
811 0 67.0829 14.7877 992 134.863 25.9869 464.108
812 0 68.0476 13.6081 926 138.558 25.9968 465.176
813 0 72.1471 15.5238 1120 136.388 23.7312 458.745
814 0 76.274 15.1297 1154 135.848 22.8146 457.583
815 0 77.1775 15.0303 1160 137.26 21.9888 456.146
816 0 79.1917 15.7213 1245 134.439 22.7446 452.292
817 0 87.5568 23.4019 2049 115.114 20.6647 460.306
818 1 44.0619 12.0285 530 138.798 20.3434 470.038
819 0 44.045 10.8752 479 138.555 19.3215 471.152
820 0 43.0443 11.0816 477 140.642 19.566 468.281
821 0 48.3063 14.6358 707 131.149 18.867 467.28
822 0 48.3077 12.5653 607 136.145 19.5799 465.236
823 0 50.06 13.6237 682 133.273 18.4648 463.194
824 0 51.0931 16.7929 858 128.632 19.8345 461.037
825 0 54.0749 14.4799 783 129.805 21.5862 460.838
826 0 56.0987 16.881 947 126.76 20.622 457.019
827 0 56.1007 15.8465 889 128.301 22.1755 458.508
828 0 58.151 14.7031 855 128.018 23.4105 457.611
829 0 62.204 15.4492 961 126.361 23.5994 456.583
830 0 63.1291 15.0485 950 131.715 25.7968 452.94
831 0 68.2505 15.6482 1068 125.258 26.8839 453.853
832 0 67.3079 13.7428 925 133.512 28.6411 452.385
833 0 73.3572 18.035 1323 123.522 30.9463 453.241
834 0 74.1875 15.3934 1142 128.461 32.2023 453.582
835 0 75.3026 14.7007 1107 131.397 32.5438 453.358
836 0 79.2754 17.3194 1373 128.647 34.5178 450.32
837 0 81.3851 16.2438 1322 132.355 33.702 451.691
838 0 83.2995 15.7024 1308 133.856 33.7003 448.634
839 0 88.3251 16.9827 1500 130.917 32.9927 453.442
840 0 89.2742 15.4692 1381 137.699 32.8863 450.78
841 0 94.2469 20.4145 1924 126.637 31.9007 452.711
842 0 94.2919 17.7958 1678 135.244 31.0221 447.689
843 1 50.247 11.5231 579 144.848 29.6667 470.801
844 0 51.4503 12.8085 659 141.219 30.1669 468.47
845 0 53.1681 10.0436 534 142.828 27.2285 468.539
846 0 57.2161 10.9759 628 143.473 26.2166 470.653
847 0 59.0817 16.2487 960 132.618 23.4302 465.684
848 0 58.0833 13.67 794 135.957 23.9018 465.89
849 0 61.2184 12.0389 737 138.328 23.9376 464.438
850 0 65.0943 14.1487 921 132.232 23.2324 464.275
851 0 68.0835 17.0967 1164 126.664 22.4931 462.54
852 0 68.0873 16.4348 1119 127.958 21.7283 462.187
853 0 72.2424 16.3616 1182 126.382 21.478 457.614
854 0 71.0951 12.7998 910 132.202 20.4231 455.554
855 0 74.2375 16.5146 1226 128.576 20.4576 450.715
856 0 76.2211 13.9856 1066 132.098 20.1126 447.795
857 0 82.3147 17.2752 1422 127.461 20.9543 450.534
858 0 83.1928 14.5445 1210 131.13 20.457 448.995
859 0 85.1437 15.421 1313 132.465 21.4494 446.594
860 1 43.0474 16.656 717 126.28 22.9247 467.315
861 0 47.0444 14.752 694 126.687 22.4841 464.952
862 0 44.0473 10.7385 473 140.317 25.9302 466.226
863 0 49.1106 12.5024 614 131.811 24.513 465.534
864 0 52.0168 15.0528 783 129.724 25.5683 463.223
865 0 52.1562 13.9581 728 133.026 26.2788 461.896
866 0 56.2782 16.1875 911 132.577 25.9791 464.807
867 0 57.2702 15.6451 896 136.67 28.1239 464.055
868 0 58.1645 17.6052 1024 130.112 28.291 464.588
869 0 61.163 18.5243 1133 130.626 29.0282 460.634
870 0 62.1581 14.9779 931 137.128 29.377 464.509
871 0 64.0539 15.1903 973 138.73 30.2477 462.732
872 0 66.0758 17.4648 1154 135.882 29.8319 460.864
873 0 70.1027 15.6342 1096 136.495 29.9772 462.414
874 0 72.0954 17.2272 1242 134.436 30.1401 461.122
875 0 74.1589 17.503 1298 134.963 29.5609 459.545
876 0 78.1801 16.0015 1251 137.629 27.9153 460.309
877 0 80.1524 15.0963 1210 140.493 26.1636 460.071
878 1 43.1091 11.5289 497 141.33 23.2414 477.926
879 0 47.115 13.6262 642 142.777 22.609 473.569
880 0 49.2136 12.2324 602 142.204 22.0116 475.311
881 0 48.0463 14.1322 679 144.602 20.2401 469.11
882 0 48.1644 13.62 656 148.773 20.4665 466.744
883 0 53.4316 19.1273 1022 132.994 19.2045 467.406
884 0 52.1714 18.2859 954 138.513 20.8784 464.968
885 0 54.2579 16.2741 883 137.984 20.3658 464.632
886 0 55.3081 16.9776 939 136.537 19.3525 462.925
887 0 58.449 17.4511 1020 138.235 19.0833 460.897
888 0 63.5393 17.2334 1095 134.609 17.9096 459.417
889 0 64.2344 18.6816 1200 130.954 16.3733 460.998
890 0 64.3137 18.0055 1158 138.001 15.9629 455.791
891 0 66.1517 18.1704 1202 137.512 17.2571 456.514
892 0 69.1675 20.3998 1411 132.455 17.8838 451.411
893 0 71.1245 16.6047 1181 135.716 19.0119 453.053
894 0 72.2436 16.5828 1198 138.6 19.8631 449.648
895 0 75.2056 16.887 1270 134.451 20.9858 450.13
896 0 80.4001 18.5199 1489 128.654 23.0376 447.543
897 0 81.3889 16.2922 1326 132.91 24.3529 447.523
898 0 84.3992 15.4622 1305 138.464 25.3655 449.575
899 0 87.3999 15.6636 1369 138.162 26.6764 445.234
900 1 47.2802 11.4213 540 145.652 28.4093 465.054
901 0 50.2603 11.4206 574 147.833 29.0174 467.084
902 0 51.2063 11.19 573 153.927 29.925 466.185
903 0 52.1655 13.553 707 150.836 30.5644 465.791
904 0 54.3387 11.8884 646 152.83 32.1997 465.364
905 0 58.2292 14.546 847 143.772 31.4439 462.322
906 0 55.0998 11.8694 654 149.713 30.8043 463.318
907 0 58.0782 14.5666 846 142.002 30.6454 465.408
908 0 60.0891 13.247 796 147.636 30.0138 463.866
909 0 63.0508 17.5731 1108 138.759 29.7671 462.8
910 0 64.1227 13.942 894 147.327 28.5951 461.309
911 0 64.1033 14.149 907 147.899 27.7178 459.166
912 0 71.0839 15.6998 1116 141.444 26.5332 461.142
913 0 72.2426 15.5449 1123 142.506 25.2004 458.318
914 0 72.1414 15.9132 1148 142.389 23.3171 458.456
915 0 77.376 14.7203 1139 144.02 23.0536 454.807
916 0 79.2633 14.6222 1159 142.618 21.8395 453.829
917 0 88.1889 21.0457 1856 128.101 21.3055 454.171
918 0 85.5446 16.1904 1385 136.857 21.3986 447.965
919 0 88.5802 17.6563 1564 135.068 21.4866 445.489
920 0 91.6077 15.8065 1448 141.081 20.3715 442.601
921 0 93.4673 18.584 1737 137.023 20.8434 438.576
922 0 96.4856 17.3083 1670 138.617 20.4707 434.072
923 0 99.3925 19.0457 1893 138.179 19.8531 435.437
924 0 102.475 17.6628 1810 140.233 20.5762 430.483
925 0 105.475 17.0183 1795 137.158 19.9604 431.153
926 1 56.9815 13.9519 795 135.268 21.2289 451.84
927 0 59.4962 13.463 801 130.728 21.6342 452.624
928 0 62.5453 17.0277 1065 127.554 23.046 448.547
929 0 64.3469 15.4631 995 127.877 23.9729 445.578
930 0 67.4276 14.4303 973 131.173 25.777 447.134
931 0 68.6882 14.544 999 129.539 27.6837 445.847
932 0 75.6265 17.0443 1289 125.057 28.8759 447.613
933 0 76.5107 15.305 1171 129.652 30.6687 446.83
934 0 79.8838 16.9496 1354 125.432 31.8597 448.761
935 0 81.6266 16.0364 1309 130.475 32.4721 442.833
936 0 84.6644 18.4493 1562 127.684 32.3937 446.556
937 0 84.3493 14.5585 1228 143.274 33.4226 438.635
938 0 91.7521 15.8144 1451 138.933 33.725 440.429
939 0 93.5117 15.2494 1426 140.212 33.0217 442.976
940 0 95.4072 16.592 1583 139.231 32.3822 442.861
941 0 100.367 18.4523 1852 134.795 31.8143 442.902
942 0 100.635 12.1727 1225 148.429 30.9927 439.829
943 1 57.2296 10.1521 581 144.735 29.3305 460.566
944 0 59.2191 11.0606 655 139.852 27.8855 461.464
945 0 59.1985 10.0509 595 146.676 27.9092 456.61
946 0 61.1676 11.8363 724 138.307 25.6036 458.78
947 0 65.0979 12.3967 807 134.224 25.1115 456.04
948 0 67.2607 15.2541 1026 128.819 25.0283 452.427
949 0 68.2302 11.725 800 134.518 23.2612 453.754
950 0 71.3301 13.066 932 129.63 22.9946 454.91
951 0 75.186 12.1432 913 131.628 21.0854 449.451
952 0 76.3504 12.495 954 131.476 21.37 448.27
953 0 81.172 16.4219 1333 120.641 23.85 445.042
954 0 81.2216 12.8045 1040 127.187 20.075 447.728
955 0 87.5037 19.5192 1708 120.08 20.2207 446.926
956 0 87.3943 15.8592 1386 127.406 20.3225 444.604
957 0 88.2663 13.8785 1225 130.926 20.5804 440.755
958 0 93.4131 17.1496 1602 124.189 21.6024 439.076
959 0 96.275 15.7881 1520 124.653 22.5862 437.286
960 0 98.378 13.7531 1353 126.23 22.901 431.928
961 0 101.519 11.7121 1189 123.705 23.5139 432.718
962 0 106.158 11.3887 1209 123.935 25.794 430.386
963 1 58.125 10.9591 637 118.262 27.9922 456.443
964 0 60.1061 11.1137 668 120.001 28.8802 454.234
965 0 61.1489 11.6274 711 121.776 30.6723 453.959
966 0 65.3565 9.94545 650 125.888 31.8846 453.574
967 0 69.5752 12.0733 840 118.239 33.2345 454.688
968 0 68.4677 10.8664 744 129.628 33.8642 453.005
969 0 70.3148 14.5489 1023 121.9 34.1574 453.145
970 0 71.4272 12.1662 869 127.147 34.336 450.35
971 0 75.2855 12.871 969 126.043 34.6078 452.144
972 0 77.2143 13.6244 1052 124.162 34.2529 452.027
973 0 82.4597 14.5768 1202 122.171 33.0749 449.621
974 0 84.1888 10.7021 901 131.469 32.3851 444.445
975 0 85.2636 11.3296 966 130.666 32.2122 452.205
976 0 91.4916 11.4874 1051 132.494 30.2379 446.124
977 0 93.326 12.4081 1158 131.433 28.4188 447.47
978 0 98.4038 14.3287 1410 127.22 27.1 444.727
979 0 98.577 11.382 1122 134.808 26.5963 442.858
980 0 103.415 12.2806 1270 133.484 24.4409 440.309
981 0 106.461 10.417 1109 136.014 23.0775 443.012
982 0 111.603 13.2255 1476 131.36 21.7642 426.003
983 1 57.1517 9.79849 560 130.1 22.9929 461.055
984 0 60.1883 11.2813 679 126.096 22.0707 459.249
985 0 64.4864 14.4682 933 120.367 20.9796 455.981
986 0 66.6898 15.6246 1042 117.176 20.0701 452.154
987 0 66.1645 13.8745 918 120.537 17.7582 451.915
988 0 71.5496 15.7653 1128 117.272 21.2775 451.457
989 0 70.7715 13.7909 976 120.301 19.9047 448.182
990 0 73.4421 13.2077 970 122.049 20.6381 446.732
991 0 77.4395 15.1731 1175 116.763 20.6111 447.904
992 0 78.667 12.7627 1004 123.731 21.1345 444.592
993 0 84.7291 19.0608 1615 112.539 20.7498 441.134
994 0 85.7263 16.3777 1404 118.417 22.4088 439.859
995 0 85.8839 12.7614 1096 119.913 23.8276 435.975
996 0 93.997 16.7027 1570 112.502 23.8089 436.936
997 0 92.8042 12.5964 1169 119.326 25.1908 436.784
998 0 96.8905 18.877 1829 111.504 26.9934 433.492
999 0 98.9459 12.4411 1231 123.847 28.58 435.34
1000 0 103.653 13.7863 1429 122.557 30.2162 431.556
1001 0 106.621 16.2913 1737 117.978 31.0564 433.02
1002 1 55.4149 14.0035 776 120.448 32.0928 455.5
1003 0 56.2366 12.6964 714 124.531 33.3641 458.349
1004 0 60.5129 14.6085 884 129.031 33.655 458.883
1005 0 62.33 13.974 871 124.355 33.5924 461.561
1006 0 62.2678 13.988 871 135.448 33.2342 457.792
1007 0 66.4202 13.9265 925 133.943 33.1254 461.578
1008 0 72.4495 14.4376 1046 130.511 33.1291 463.367
1009 0 67.5452 12.7174 859 139.519 32.0268 459.374
1010 0 71.806 12.8959 926 137.671 30.8045 460.078
1011 0 75.5095 15.7596 1190 132.76 29.495 457.932
1012 0 74.5278 12.9348 964 140.717 28.4035 455.28
1013 0 78.7401 16.2941 1283 133.655 27.1348 454.765
1014 0 81.7087 15.3839 1257 134.416 24.9554 452.493
1015 0 83.437 13.9027 1160 133.068 22.8431 448.482
1016 1 47.389 9.13715 433 131.522 22.9007 472.958
1017 0 48.2424 10.5302 508 129.236 21.6358 471.498
1018 0 47.379 12.305 583 131.468 21.6878 469.587
1019 0 49.4713 10.875 538 133.862 21.5558 467.985
1020 0 54.1034 14.5277 786 129.863 20.9631 460.221
1021 0 54.2616 13.4349 729 131.819 21.0343 464.733
1022 0 58.5249 16.7621 981 124.537 21.4689 465.296
1023 0 56.5888 13.7836 780 130.372 21.5115 461.4
1024 0 59.2143 14.0507 832 129.017 21.381 461.002
1025 0 62.194 19.8894 1237 117.42 22.3864 457.34
1026 0 64.5388 16.7806 1083 124.339 22.3213 456.357
1027 0 66.6776 17.0522 1137 123.543 22.8734 458.675
1028 0 68.7289 16.0486 1103 125.935 23.243 456.15
1029 0 69.7005 15.0645 1050 127.347 24.4162 454.992
1030 0 72.4525 18.136 1314 119.632 23.774 455.091
1031 0 77.4292 13.0183 1008 128.939 25.7986 452.685
1032 0 76.4867 13.1657 1007 132.275 27.3386 451.33
1033 0 78.5654 12.2828 965 135.096 29.4394 450.563
1034 0 82.2391 15.5644 1280 125.507 29.175 452.36
1035 0 83.1447 13.1578 1094 132.33 30.1673 450.674
1036 0 87.2519 14.9338 1303 128.781 30.3814 448.246
1037 1 44.1484 9.71722 429 130.821 30.6643 476.159
1038 0 45.0776 10.1824 459 135.301 31.0327 473.658
1039 0 49.2306 12.2485 603 131.295 30.6716 472.481
1040 0 50.404 13.7886 695 129.459 29.4806 471.853
1041 0 52.4668 13.094 687 132.156 28.9403 469.875
1042 0 53.6161 16.2078 869 129.33 28.2555 467.399
1043 0 54.1475 14.0911 763 134.873 28.5793 470.474
1044 0 56.092 13.9236 781 134.626 27.9808 472.741
1045 0 58.4018 14.2632 833 133.401 25.2305 469.216
1046 0 55.3434 12.6302 699 139.967 23.1016 464.617
1047 0 60.3067 14.1278 852 138.755 23.1948 465.682
1048 0 62.4852 15.9558 997 134.251 21.7111 465.642
1049 0 63.2867 15.9117 1007 135.568 21.2969 462.382
1050 0 66.3841 16.3292 1084 133.762 19.4493 462.332
1051 0 67.2827 18.0433 1214 132.845 19.7125 459.388
1052 0 69.7545 15.3539 1071 136.889 19.4631 457.146
1053 0 71.532 15.6294 1118 136.637 20.0143 453.199
1054 0 75.4612 16.366 1235 134.537 19.6081 453.998
1055 0 75.6089 20.0373 1515 126.176 20 451.172
1056 0 77.8652 18.5705 1446 128.852 19.4315 449.955
1057 0 78.7003 17.0901 1345 133.262 20.3301 445.896
1058 0 82.9043 25.8853 2146 116.548 19.6007 447.918
1059 0 85.2428 20.3302 1733 128.495 20.3099 439.109
1060 0 89.2437 18.724 1671 131.543 20.1801 441.45
1061 0 90.5211 18.4046 1666 133.606 21.4784 438.607
1062 0 91.8235 19.091 1753 134.379 21.9857 435.595
1063 0 94.1363 14.8508 1398 142.045 23.5079 435.103
1064 0 98.952 17.2104 1703 127.981 24.1897 435.251
1065 0 100.641 17.8755 1799 128.295 24.5331 432.524
1066 0 103.755 14.5342 1508 136.44 26.2301 431.831
1067 0 108.693 18.3636 1996 130.771 27.491 431.14
1068 1 59.5214 11.5757 689 136.904 28.6778 456.09
1069 0 65.2578 15.9828 1043 127.511 30.4056 455.35
1070 0 64.3151 11.0239 709 140.67 30.3921 458.931
1071 0 67.2152 14.2825 960 136.031 31.8771 451.184
1072 0 69.2227 13.6371 944 135.581 31.8761 455.413
1073 0 75.2747 16.5926 1249 128.594 32.2346 454.335
1074 0 75.3418 12.211 920 138.804 31.9098 452.287
1075 0 77.1998 14.6373 1130 133.487 31.3018 450.085
1076 0 80.1928 14.1783 1137 134.949 31.0158 450.635
1077 0 83.2965 13.8061 1150 134.57 30.1322 454.496
1078 0 86.1158 14.1321 1217 135.172 30.4741 448.511
1079 0 90.1438 15.0094 1353 133.506 29.8522 448.514
1080 0 93.2607 14.4327 1346 134.999 28.529 446.856
1081 0 95.1724 16.3283 1554 131.326 26.816 446.847
1082 1 53.211 12.7229 677 134.824 24.4904 465.913
1083 0 50.0371 9.433 472 139.669 23.0996 469.206
1084 0 53.3304 9.16925 489 140.906 22.0961 465.174
1085 0 54.4073 10.936 595 139.158 21.316 461.306
1086 0 60.4753 17.164 1038 120.756 20.1522 460.912
1087 0 62.328 15.611 973 125.954 20.6053 457.561
1088 0 65.0715 16.1668 1052 126.356 19.4943 458.088
1089 0 63.1978 14.9214 943 132.115 19.3319 452.721
1090 0 66.2864 13.849 918 133.833 19.5207 450.199
1091 0 70.5417 18.2162 1285 123.293 19.123 447.821
1092 0 71.2565 15.9284 1135 128.508 21.1286 448.859
1093 0 70.3044 12.5739 884 137.104 20.4853 448.448
1094 0 75.2267 14.6624 1103 131.015 21.8631 445.8
1095 0 77.1266 14.8198 1143 130.637 21.6422 445.399
1096 0 82.4294 16.5718 1366 131.176 24.448 442.509
1097 0 80.3903 13.9818 1124 133.783 23.8826 442.096
1098 0 87.3065 16.1042 1406 122.388 26.4794 446.531
1099 0 92.6351 16.1062 1492 122.136 28.0871 443.168
1100 0 94.2671 15.891 1498 127.019 29.6689 440.577
1101 1 49.3372 10.5397 520 135.644 31.1269 462.194
1102 0 51.1312 13.8859 710 131.662 32.3493 460.269
1103 0 53.2144 14.3946 766 132.742 33.4648 461.46
1104 0 56.3614 12.0827 681 136.866 33.0558 462.471
1105 0 56.4368 14.3701 811 134.344 33.9445 460.94
1106 0 56.4537 16.1725 913 135.134 34.8116 460.278
1107 0 59.2717 15.0325 891 136.119 33.8687 463.311
1108 0 59.19 12.6373 748 144.811 33.3115 461.745
1109 0 62.3006 12.1187 755 143.898 32.3033 465.948
1110 0 63.2644 17.5928 1113 132.818 31.8239 465.287
1111 0 66.3547 16.8639 1119 135.487 30.6086 463.765
1112 0 66.2699 12.3736 820 146.734 29.222 462.824
1113 0 70.4868 16.386 1155 137.487 27.561 462.842
1114 0 74.3977 14.6644 1091 142.17 25.7204 461.723
1115 0 76.3084 17.1803 1311 135.728 24.0351 461.108
1116 0 77.2882 14.7759 1142 142.922 22.3757 459.71
1117 0 78.5048 15.4513 1213 141.219 21.5754 455.536
1118 0 81.3746 16.3688 1332 138.836 20.5751 455.346
1119 0 84.5821 19.2949 1632 136.446 21.1593 453.906
1120 0 85.6694 16.7271 1433 142.445 19.7739 449.998
1121 0 87.767 17.9452 1575 140.806 19.494 449.781
1122 0 91.9949 19.3054 1776 137.666 19.9065 445.952
1123 0 91.7337 18.9134 1735 139.938 19.6553 445.005
1124 0 94.9168 16.9306 1607 142.166 19.1649 438.732
1125 0 100.939 21.7755 2198 130.019 19.5746 440.577
1126 0 100.93 19.7464 1993 136.572 19.7973 434.52
1127 0 103.549 22.5981 2340 126.977 19.9325 436.401
1128 1 59.527 13.5737 808 142.905 19.9245 453.759
1129 0 62.7266 12.3871 777 141.822 20.7246 453.561
1130 0 64.3051 13.8869 893 141.981 21.5845 449.632
1131 0 66.6397 14.0007 933 141.639 22.9732 447.992
1132 0 69.3842 14.2251 987 141.424 23.9271 445.632
1133 0 70.1181 13.0637 916 139.227 24.6299 449.068
1134 0 71.3059 12.1869 869 141.688 26.6881 445.243
1135 0 76.4666 15.6931 1200 135.095 27.8975 450.288
1136 0 77.5035 14.5284 1126 140.711 28.9964 445.989
1137 0 80.3565 15.9415 1281 137.715 29.3177 448.482
1138 0 83.2868 14.9243 1243 141.368 28.6685 451.389
1139 0 86.0994 14.3671 1237 143.736 28.308 448.42
1140 0 90.3971 13.9274 1259 143.473 27.9015 450.599
1141 0 92.3447 13.7961 1274 143.267 28.4301 447.21
1142 0 97.5699 14.5229 1417 141.92 27.7064 447.998
1143 0 99.5755 15.8473 1578 140.894 26.2085 441.942
1144 0 104.66 14.9244 1562 140.743 25.2343 445.136
1145 0 110.447 16.732 1848 136.417 23.8674 438.898
1146 0 114.487 15.766 1805 138.231 22.1972 436.356
1147 1 65.2728 12.3482 806 137.047 22.5471 462.658
1148 0 64.1473 11.2398 721 140.068 20.0902 462.595
1149 0 71.2413 12.97 924 136.689 18.3788 461.197
1150 0 72.2303 16.5581 1196 133.023 19.1923 455.747
1151 0 73.3608 14.2856 1048 135.781 18.2147 455.028
1152 0 78.3917 18.331 1437 128.148 19.3292 453.775
1153 0 77.2928 14.5939 1128 131.321 18.6738 451.603
1154 0 79.4201 19.9949 1588 125.194 18.8275 451.126
1155 0 81.1895 17.9333 1456 129.422 18.9451 450.185
1156 0 86.2244 17.4777 1507 132.167 19.4678 447.217
1157 0 89.2519 18.2405 1628 129.857 18.8047 444.545
1158 0 92.4897 17.6128 1629 129.923 19.2277 444.896
1159 0 95.3142 19.3151 1841 127.169 19.8191 439.015
1160 0 94.2673 12.9419 1220 136.575 20.0721 438.88
1161 0 99.4516 16.3798 1629 130.833 21.5617 438.419
1162 0 103.559 16.4255 1701 127.593 22.1041 434.051
1163 0 108.215 14.5451 1574 126.431 23.1093 433.034
1164 0 110.4 14.9819 1654 126.066 25.1977 429.871
1165 0 113.617 13.2374 1504 131.412 26.1489 429.607
1166 1 60.2261 14.7278 887 125.586 28.7012 458.724
1167 0 65.1827 14.5591 949 125.417 29.5785 455.05
1168 0 67.2718 15.9354 1072 124.466 29.8675 449.832
1169 0 69.1237 12.5427 867 131.371 31.1799 449.967
1170 0 72.3274 16.0797 1163 128.314 33.4729 453.103
1171 0 73.1468 14.6418 1071 132.316 33.775 451.484
1172 0 76.2387 13.4446 1025 134.546 34.0673 452.431
1173 0 80.1355 14.9996 1202 130.409 33.1697 452.863
1174 0 84.1929 18.1844 1531 125.559 33.0941 451.984
1175 0 84.1656 15.6834 1320 132.277 32.8644 450.063
1176 0 88.2727 16.381 1446 129.093 31.6639 445.855
1177 0 92.2917 16.7621 1547 129.168 30.9399 445.88
1178 0 92.0954 13.486 1242 137.437 29.9525 444.465
1179 0 96.2918 16.0554 1546 132.816 29.4437 445.871
1180 0 100.187 14.8222 1485 136.212 27.9912 444.979
1181 0 102.193 17.2126 1759 132.993 26.1325 438.505
1182 0 107.137 17.2955 1853 131.548 24.952 441.115
1183 0 111.206 15.8355 1761 133.756 22.9097 440.182
1184 0 113.286 15.7918 1789 137.82 23.1526 436.709
1185 1 56.0507 12.1497 681 132.515 22.0984 463.742
1186 0 59.0705 14.6943 868 128.028 21.1129 463.919
1187 0 61.3017 16.0354 983 124.986 20.6511 461.167
1188 0 62.19 12.6226 785 131.182 21.5643 452.843
1189 0 63.3351 15.6627 992 125.157 20.3145 452.186
1190 0 67.2002 17.3214 1164 122.686 20.5223 451.377
1191 0 66.2248 15.5229 1028 124.606 20.1167 450.195
1192 0 72.2976 16.6672 1205 122.5 20.7552 450.33
1193 0 72.2031 17.1045 1235 122.641 19.6907 446.865
1194 0 76.2094 18.6066 1418 118.694 22.1164 444.726
1195 0 77.575 16.1263 1251 121.087 22.8137 443.889
1196 0 81.2846 15.1935 1235 124.196 24.5935 444.929
1197 0 85.4269 18.9519 1619 112.515 24.5411 444.263
1198 0 86.1143 14.6433 1261 118.926 27.862 443.397
1199 0 88.2982 15.8214 1397 118.292 29.083 445.232
1200 0 89.2691 13.0504 1165 126.283 30.2403 444.17
1201 0 91.1545 13.8117 1259 127.255 32.1454 440.944
1202 0 98.1327 19.9016 1953 115.518 32.6871 445.772
1203 0 97.3426 13.4576 1310 132.585 33.4344 437.11
1204 1 55.2014 10.9418 604 133.296 33.4768 461.717
1205 0 54.1859 10.058 545 137.363 33.5817 462.611
1206 0 59.2542 12.2861 728 134.176 33.5742 460.902
1207 0 60.0803 13.9314 837 130.955 31.7575 464.162
1208 0 62.0746 12.6783 787 134.152 32.277 459.272
1209 0 67.2381 18.085 1216 127.996 31.44 460.836
1210 0 69.2338 16.5671 1147 130.84 31.1508 460.036
1211 0 71.235 16.5649 1180 131.808 29.7602 461.416
1212 0 72.5554 17.0628 1238 132.768 28.7157 458.256
1213 0 77.2103 15.7363 1215 133.931 27.1416 459.558
1214 0 78.2981 15.3899 1205 135.86 26.2448 457.697
1215 0 81.3725 14.9559 1217 138.05 24.2629 454.559
1216 0 83.4338 15.9048 1327 136.005 23.3896 452.952
1217 0 84.3474 15.4836 1306 138.262 22.6141 448.345
1218 0 87.3126 16.7215 1460 135.966 22.4521 446.297
1219 0 92.4774 18.0152 1666 134.433 21.539 445.765
1220 1 45.2208 13.5999 615 140.933 21.7545 465.694
1221 0 48.085 12.166 585 143.928 19.8359 460.986
1222 0 46.1951 10.4124 481 141.705 20.0395 462.79
1223 0 48.2073 12.7989 617 139.475 20.0956 461.209
1224 0 53.3389 18.7106 998 123.892 19.7425 458.193
1225 0 54.3593 16.6485 905 128.394 20.168 457.116
1226 0 54.0758 17.6419 954 127.334 20.2558 453.393
1227 0 59.4375 17.3964 1034 123.181 22.0464 457.792
1228 0 59.0605 16.7625 990 129.721 22.0687 454.773
1229 0 65.1978 21.5345 1404 117.927 24.0093 455.164
1230 0 62.1498 15.8327 984 128.256 23.8201 456.438
1231 0 65.286 16.175 1056 130.625 26.232 454.665
1232 0 71.383 19.3183 1379 120.884 26.4438 453.72
1233 0 70.3114 18.4465 1297 126.698 27.7564 449.361
1234 0 70.1611 16.12 1131 135.236 29.9408 453.542
1235 0 73.076 12.8496 939 143.23 31.1874 454.502
1236 0 77.1472 17.7323 1368 138.679 33.2595 450.844
1237 0 76.2698 17.4512 1331 141.427 34.0428 447.355
1238 0 81.1173 16.359 1327 142.099 33.4597 452.017
1239 0 84.1993 16.3184 1374 143.106 33.6994 450.622
1240 0 87.0835 17.3856 1514 141.742 33.3838 449.094
1241 0 90.4591 17.2785 1563 142.259 33.0051 449.446
1242 0 95.3368 17.842 1701 139.511 32.3427 450.493
1243 1 48.1061 15.2579 734 144.448 31.3202 473.154
1244 0 48.0566 16.1892 778 141.596 30.7969 473.221
1245 0 53.0806 17.7654 943 139.011 29.0912 470.144
1246 0 54.115 15.5595 842 144.357 27.7387 469.78
1247 0 57.1812 17.4883 1000 140.553 26.789 468.676
1248 0 58.0623 17.0851 992 142.061 25.4214 466.068
1249 0 63.5466 18.4432 1172 137.421 24.2031 466.398
1250 0 61.1588 17.9696 1099 139.439 24.04 467.338
1251 0 63.1441 15.9476 1007 146.417 22.288 463.111
1252 0 67.0556 19.1483 1284 140.232 21.5491 460.584
1253 0 69.2248 22.1164 1531 137.15 22.1424 459.039
1254 0 71.3762 20.3709 1454 140.116 21.2902 458.79
1255 0 75.255 20.5966 1550 140.639 21.8239 457.482
1256 0 75.4725 19.9278 1504 141.22 20.7134 454.682
1257 1 39.3087 19.1815 754 142.943 20.5252 472.569
1258 0 35.639 16.8635 601 151.428 20.5291 471.083
1259 0 41.7239 17.8075 743 145.499 20.6339 468.447
1260 0 43.7851 18.9562 830 141.884 20.1687 466.977
1261 0 42.5225 19.2134 817 145.651 20.8519 467.939
1262 0 44.4952 20.2718 902 140.509 21.3847 467.563
1263 0 45.3777 19.1283 868 146.509 22.053 465.676
1264 0 46.4165 19.6482 912 149.261 23.3684 463.799
1265 0 50.3543 19.9586 1005 145.527 24.6537 463.75
1266 0 49.3095 16.4269 810 155.365 26.2654 464.209
1267 0 52.3482 17.6701 925 152.714 26.6951 462.659
1268 0 54.3997 18.7685 1021 149.691 28.5387 462.894
1269 0 57.3014 19.3189 1107 147.096 29.6531 464.441
1270 0 57.1195 18.7852 1073 151.416 29.5284 463.147
1271 0 57.0888 17.7968 1016 153.422 30.4055 461.581
1272 0 59.0485 17.2401 1018 154.204 30.4283 466.191
1273 0 60.0808 16.9272 1017 158.132 29.5438 462.271
1274 0 63.0661 17.8384 1125 154.582 29.9876 464.108
1275 0 66.1266 17.648 1167 154.353 29.5227 465.01
1276 0 67.1087 18.9543 1272 153.781 28.9851 463.331
1277 0 70.1576 21.466 1506 147.41 28.2656 464.733
1278 0 71.1559 18.1854 1294 155.056 26.1808 463.671
1279 0 74.1494 21.3353 1582 147.141 25.0506 465.687
1280 0 77.1735 24.0497 1856 142.711 23.9639 462.936
1281 0 75.1091 21.2358 1595 151.367 23.2909 461.965
1282 0 79.0865 22.8231 1805 146.522 21.6803 459.037
1283 0 82.1258 20.5538 1688 153.105 21.0693 457.548
1284 0 85.1481 22.2671 1896 150.742 21.3207 457.096
1285 0 88.2304 20.7185 1828 151.351 19.2429 453.164
1286 1 43.1051 17.1209 738 163.985 19.4336 475.131
1287 0 47.1072 17.959 846 161.648 18.9775 472.532
1288 0 45.2141 19.5735 885 160.53 19.0836 471.823
1289 0 45.155 17.0081 768 167.807 18.2904 469.65
1290 0 51.3332 20.2014 1037 159.209 19.1659 468.678
1291 0 51.2236 23.0558 1181 152.601 18.6376 465.957
1292 0 54.8383 22.1013 1212 156.365 18.5957 465.637
1293 0 53.2712 21.0808 1123 161.858 19.5922 464.51
1294 0 54.7348 20.0969 1100 163.682 19.7009 463.343
1295 0 59.2525 20.3705 1207 162.595 20.3007 460.934
1296 0 58.1023 19.655 1142 166.083 21.2478 461.441
1297 0 59.1535 20.32 1202 164.829 22.3203 458.538
1298 0 63.1683 18.2528 1153 167.577 22.6756 457.062
1299 0 66.3156 20.2667 1344 160.581 24.151 457.009
1300 0 68.0831 17.8752 1217 166.166 24.8611 455.188
1301 0 70.1252 18.7379 1314 164.306 25.4376 453.794
1302 0 72.1892 16.9 1220 169.207 26.1607 453.551
1303 0 78.1499 21.4715 1678 155.919 27.3415 452.556
1304 0 78.0913 18.0302 1408 166.271 27.6683 452.053
1305 0 83.1055 20.3115 1688 157.677 27.9171 451.589
1306 0 85.1596 17.8371 1519 164.779 27.6182 450.753
1307 1 40.0942 13.144 527 177.192 27.0569 468.457
1308 0 42.1065 12.4446 524 175.962 27.6183 470.342
1309 0 49.127 16.264 799 163.929 27.4068 471.811
1310 0 49.1876 17.1791 845 165.283 26.6521 470.782
1311 0 48.092 14.9921 721 174.678 25.6879 469.243
1312 0 52.0752 18.9149 985 161.448 25.1381 472.041
1313 0 55.1199 19.1401 1055 160.893 23.5536 470.506
1314 0 56.1294 17.62 989 165.371 22.7361 469.447
1315 0 60.333 21.0001 1267 155.922 20.9905 463.468
1316 0 59.1239 19.7551 1168 166.391 20.6524 464.714
1317 0 61.379 18.4591 1133 168.985 19.917 465.275
1318 0 64.1076 21.5263 1380 163.001 18.9036 461.586
1319 0 64.1936 22.9151 1471 161.084 18.9891 461.886
1320 0 68.1643 21.8736 1491 163.949 18.0141 457.585
1321 0 68.2453 23.6207 1612 160.452 18.3883 456.93
1322 0 70.2267 22.0714 1550 158.586 17.4632 455.955
1323 0 74.3702 25.1983 1874 157.601 16.8543 452.156
1324 0 75.4085 24.0689 1815 158.799 17.4799 450.187
1325 0 77.2274 22.6215 1747 161.175 17.3171 447.422
1326 0 77.3587 23.8758 1847 163.466 17.6708 447.711
1327 0 76.43 20.3716 1557 142.686 16.9094 447.353
1328 0 77.4998 24.8001 1922 137.183 19.167 446.999
1329 0 75.3536 20.8351 1570 139.697 19.493 448.108
1330 0 78.1201 22.7982 1781 137.392 20.6732 447.508
1331 0 76.808 22.4456 1724 136.302 23.243 446.794
1332 1 24.89 10.8477 270 138.53 24.6778 470.741
1333 0 21.0073 13.8523 291 133.746 25.9966 474.704
1334 0 26.4322 14.679 388 125.33 27.2268 474.698
1335 0 22.0099 13.6302 300 130.453 28.3167 475.207
1336 0 23.0719 13.9997 323 127.059 29.6749 475.889
1337 0 22.0553 10.8364 239 129.477 30.8326 477.975
1338 0 16.0108 7.55742 121 124.769 32.4463 478.165
1339 0 25.0279 6.83237 171 105.596 31.7544 476.398
1340 0 36.9716 7.22175 267 87.7416 34.2097 471.236
1341 0 34.1663 11.2392 384 79.1641 32.6641 468.651
