time division length width area intensity CMx CMy
0 0 73.6002 18.7364 1379 121.983 1202.29 448.489
1 0 71.0502 13.962 992 128.907 1203.19 446.8
2 0 70.1508 15.538 1090 127.388 1203.45 450.525
3 1 149.82 14.5708 2183 136.861 1202.5 411.972
4 0 155.627 18.6021 2895 128.237 1203.1 414.063
5 0 163.124 22.6454 3694 125.422 1202.65 410.172
6 1 82.1373 13.4774 1107 133.987 1202.93 446.201
7 0 87.1564 18.1283 1580 128.932 1201.67 448.56
8 0 86.2533 13.3444 1151 147.632 1199.96 442.348
9 0 94.1195 16.3622 1540 141.651 1199.2 442.577
10 0 96.208 14.5206 1397 145.686 1198.55 444.454
11 0 103.263 14.6422 1512 144.84 1196.94 443.976
12 1 57.1613 14.4678 827 140.358 1196.96 464.709
13 0 54.1511 12.2804 665 154.155 1195.77 461.659
14 0 57.1849 13.7799 788 152.858 1194.04 460.519
15 0 57.2826 14.5245 832 143.012 1191.45 455.791
16 0 56.1202 12.4019 696 149.769 1190.77 452.019
17 0 60.1102 14.0076 842 144.057 1188.08 455.454
18 0 61.1408 12.463 762 146.824 1186.83 454.532
19 0 64.2481 13.5413 870 144.815 1186.28 451.864
20 0 67.1857 13.2469 890 146.015 1185 448.996
21 0 65.1801 12.5192 816 139.412 1183.94 450.194
22 0 71.1085 15.5537 1106 142.08 1184.9 446.51
23 0 72.1682 13.5655 979 147.3 1184.75 443.278
24 0 75.1038 13.2084 992 146.549 1184.28 443.247
25 0 77.0937 13.9052 1072 144.838 1184.32 442.353
26 0 78.2132 10.6376 832 150.483 1185.14 440.706
27 0 82.1668 11.428 939 149.199 1185.58 438.786
28 0 84.1656 13.4616 1133 143.153 1186.41 433.33
29 0 89.1031 13.4227 1196 140.494 1187.32 436.135
30 0 91.1047 15.5974 1421 135.326 1189.73 435.35
31 1 49.1047 13.1352 645 130.574 1190.34 455.462
32 0 52.1027 13.3774 697 126.636 1191.85 456.508
33 0 51.0928 10.0014 511 141.685 1194.83 456.538
34 0 57.1474 11.9165 681 135.601 1196.06 458.32
35 0 57.1523 11.863 678 147.298 1197.04 458.333
36 0 61.0952 16.9408 1035 119.64 1196.98 458.524
37 0 60.0926 13.8952 835 125.093 1197.09 457.816
38 0 65.1847 18.6547 1216 121.135 1197.99 458.067
39 0 66.1841 15.9706 1057 124.717 1197.64 459.555
40 0 67.2438 14.3954 968 133.867 1197.67 456.815
41 0 69.1037 17.0613 1179 130.816 1197.83 459.299
42 0 72.0636 14.5982 1052 145.582 1195.56 457.718
43 0 74.1248 16.6071 1231 138.425 1195.3 458.374
44 0 76.1821 14.6885 1119 144.632 1194.14 455.423
45 0 80.0879 14.7838 1184 148.334 1193.37 456.088
46 0 80.1045 17.3024 1386 150.126 1192.08 453.271
47 0 83.0825 16.2008 1346 150.801 1190.74 454.138
48 0 86.1271 17.3232 1492 151.434 1188.94 451.269
49 1 44.0753 11.8661 523 158.539 1187.52 471.455
50 0 48.061 11.1317 535 156.022 1185.93 472.991
51 0 48.0386 11.1369 535 162.471 1184.55 469.703
52 0 50.0658 11.7645 589 160.082 1182.77 468.791
53 0 51.0323 13.2073 674 156.47 1182.09 465.116
54 0 54.0785 13.2955 719 157.982 1181.11 465.292
55 0 52.1076 13.357 696 158.603 1181.31 463.608
56 0 57.1057 17.2662 986 146.631 1180.9 462.789
57 0 58.1095 14.2317 827 155.675 1180.9 460.965
58 0 58.0624 13.4338 780 156.719 1180.51 459.45
59 0 62.0812 17.9604 1115 146.03 1181.19 456.277
60 0 63.0747 15.7908 996 149.724 1181.16 455.864
61 0 65.0606 14.4942 943 151.668 1180.93 456.699
62 0 67.1076 15.1399 1016 151.545 1181.71 453.43
63 0 69.0488 14.6418 1011 148.76 1183.78 455.206
64 0 72.1536 16.6035 1198 146.457 1184.72 451.664
65 0 74.1077 15.6934 1163 146.031 1187.78 450.813
66 0 82.444 18.9219 1560 136.563 1189.08 454.047
67 0 79.175 16.4193 1300 145.617 1190.72 450.101
68 0 81.3449 13.9161 1132 152.051 1194.79 448.996
69 0 84.3121 17.1031 1442 143.438 1195.86 449.003
70 1 44.0205 10.427 459 148.619 1197.69 468.627
71 0 47.0769 9.68627 456 149.923 1199.11 469.044
72 0 49.0943 11.9158 585 144.048 1198.54 470.173
73 0 51.075 13.7249 701 139.963 1198.46 468.745
74 0 51.2393 12.6075 646 147.698 1198.15 467.389
75 0 52.2499 12.7082 664 135.748 1194.54 465.045
76 0 53.0469 13.9499 740 137.438 1195.15 465.43
77 0 55.1595 12.5092 690 139.107 1195.26 465.526
78 0 57.1923 13.3759 765 141.323 1194.04 464.212
79 0 58.1499 12.485 726 141.178 1193.18 465.515
80 0 59.1473 12.2068 722 139.871 1192.19 465.67
81 0 60.1316 12.9549 779 140.463 1190.92 462.331
82 0 64.1863 11.825 759 141.518 1189.45 461.61
83 0 66.265 11.9973 795 141.424 1188.23 459.308
84 0 71.0845 13.913 989 136.231 1186.94 459.413
85 0 68.132 12.6079 859 141.7 1185.37 458.449
86 1 34.2615 9.42748 323 135.827 1182.99 475.077
87 0 39.2215 10.122 397 132.889 1181.89 473.307
88 0 39.2458 11.2878 443 130.711 1182.18 472.535
89 0 40.233 9.42013 379 138.396 1180.99 467.707
90 0 45.4241 12.5044 568 129.736 1181.01 467.868
91 0 43.2076 12.8218 554 133.211 1180.54 464.93
92 0 46.1903 12.4918 577 128.352 1181.11 465.91
93 0 45.2875 12.233 554 132.74 1180.8 462.336
94 0 46.0956 11.5629 533 137.989 1181.86 464.606
95 0 48.1222 14.1722 682 135.796 1181.96 464.249
96 0 47.0914 12.4227 585 138.839 1185.07 462.115
97 0 49.0833 12.0204 590 141.553 1186.06 460.186
98 0 52.0657 15.1347 788 131.824 1188.3 462.841
99 0 53.0551 14.5132 770 133.771 1190.7 462
100 0 58.2303 15.7993 920 129.782 1191.62 460.154
101 0 57.2405 14.1333 809 131.392 1194.24 461.96
102 0 59.0638 13.6293 805 133.072 1195.69 459.265
103 0 62.0668 15.435 958 127.676 1197.15 461.034
104 0 64.1607 14.4948 930 127.314 1197.12 462.308
105 0 63.162 14.5182 917 130.595 1198.25 459.068
106 0 68.1345 14.4714 986 131.371 1196.99 461.683
107 0 68.2078 16.5377 1128 127.608 1196.96 462.73
108 0 71.1938 15.7036 1118 132.085 1195.35 459.516
109 0 74.2248 16.1941 1202 131.784 1194.53 456.767
110 0 75.1769 14.007 1053 134.391 1193.56 458.993
111 0 80.17 15.542 1246 130.876 1193.15 459.069
112 0 82.3514 14.681 1209 134.195 1192.87 460.335
113 0 84.3124 15.5612 1312 134.382 1191.29 458.058
114 0 86.2246 15.6916 1353 135.821 1190.26 454.948
115 0 88.0784 15.3613 1353 135.377 1189.17 452.663
116 1 47.1485 12.6197 595 135.43 1188.58 473.449
117 0 51.0807 11.3546 580 137.616 1186.48 473.971
118 0 52.0195 13.9179 724 133.899 1184.78 473.678
119 0 52.2591 16.3608 855 134.068 1183.36 468.88
120 0 53.2192 13.5478 721 141.334 1182.19 466.86
121 0 53.4756 14.5487 778 140.478 1181.2 468.03
122 0 59.1768 13.7892 816 138.137 1180.55 468.565
123 0 62.2898 16.0219 998 135.388 1179.22 462.305
124 0 64.2732 13.676 879 140.105 1179.53 461.652
125 0 65.3464 16.9711 1109 133.28 1179.25 463.915
126 0 69.1213 12.8325 887 143.346 1179.99 458.52
127 0 69.3008 15.007 1040 140.048 1179.48 457.14
128 1 37.0571 9.74172 361 143.302 1179.86 472.776
129 0 37.0408 13.3097 493 138.505 1182.01 472.428
130 0 39.0885 11.2309 439 143.358 1183.07 470.28
131 0 42.034 14.8451 624 137.284 1184.51 467.492
132 0 42.1467 10.4872 442 145.749 1185.47 471.102
133 0 44.1183 13.6451 602 140.992 1189.13 468.724
134 0 46.0735 14.7156 678 141.338 1190.36 466.987
135 0 45.0631 13.2703 598 146.838 1191.73 468.701
136 0 47.0663 14.1502 666 146.593 1193.58 467.008
137 0 48.085 13.8921 668 147.163 1193.68 467.641
138 0 53.0366 18.2138 966 138.428 1194.82 466.446
139 0 51.0699 14.0983 720 149.511 1194.78 468.936
140 0 55.1092 13.2646 731 149.491 1194.97 471.123
141 0 54.0508 14.3754 777 150.169 1193.89 469.995
142 0 57.1205 17.3493 991 145.978 1194.26 468.041
143 0 59.108 17.2058 1017 145.723 1192.99 469.486
144 0 57.1065 14.079 804 159.164 1192.57 467.57
145 0 61.0892 13.5539 828 158.882 1191.95 469.237
146 0 65.0736 17.8874 1164 149.73 1191.14 467.448
147 0 67.0883 14.861 997 156.482 1189.57 469.122
148 0 69.2239 15.5293 1075 156.744 1187.8 463.713
149 0 71.105 15.4841 1101 157.067 1186.96 464.509
150 0 75.1533 17.0984 1285 154.528 1186.33 460.497
151 1 38.0901 10.8427 413 159.944 1184.48 478.429
152 0 40.0342 11.6401 466 160.612 1183.93 475.742
153 0 43.1993 14.5141 627 151.29 1182.37 477.257
154 0 44.266 14.0966 624 152.647 1182.29 474.441
155 0 46.2019 13.4194 620 153.626 1180.79 473.032
156 0 44.1212 13.9389 615 155.462 1180.01 472.163
157 0 46.4024 14.5036 673 155.513 1179.58 469.068
158 0 49.5013 14.5653 721 156.673 1178.96 466.001
159 0 51.3413 15.4067 791 153.951 1178.88 465.909
160 0 52.1316 14.0414 732 154.439 1178.91 467.831
161 0 53.1198 14.3449 762 156.428 1178.95 462.677
162 0 54.0419 16.7277 904 150.768 1180.63 458.809
163 0 57.0778 15.1022 862 152.03 1181.15 461.481
164 0 57.0724 14.4904 827 153.486 1182.58 461.453
165 0 60.064 17.2316 1035 147.44 1184.56 459.968
166 0 58.1809 13.6299 793 157.832 1186.23 458.642
167 0 67.0695 13.3891 898 152.609 1188.28 459.972
168 0 66.0955 15.2053 1005 150.392 1190.1 457.582
169 0 68.1907 15.134 1032 149.325 1190.93 458.868
170 1 37.1107 8.51507 316 158.345 1192.01 473.193
171 0 39.0102 12.9966 507 148.225 1192.04 473.18
172 0 39.1562 13.3568 523 147.27 1192.75 473.352
173 0 38.0064 11.1034 422 150.289 1193.54 476.829
174 0 42.0458 12.5102 526 146.61 1193.02 475.7
175 0 46.0707 12.394 571 143.946 1192.08 474.392
176 0 45.0847 12.7316 574 148.441 1191.36 473.913
177 0 45.1177 13.4315 606 146.81 1190.79 475.493
178 0 49.2135 14.9553 736 144.391 1188.74 474.577
179 0 51.1756 14.7336 754 145.784 1189.26 472.841
180 0 52.3055 14.4344 755 146.034 1187.93 472.955
181 0 52.121 14.6582 764 145.149 1186.65 471.156
182 0 56.2475 18.5075 1041 138.206 1185.32 471.218
183 0 56.2546 14.9143 839 147.93 1184.01 468.677
184 0 56.2802 14.2679 803 146.964 1182.6 470.662
185 0 60.1909 14.8361 893 144.907 1180.87 470.214
186 0 63.2519 17.2801 1093 140.4 1179.95 468.224
187 0 65.198 16.2122 1057 145.467 1179.25 466.901
188 0 66.1975 15.9372 1055 144.715 1177.98 464.591
189 0 66.2186 11.6886 774 155.965 1177.57 464.738
190 0 69.4756 13.2852 923 150.849 1176.43 463.528
191 0 71.3419 13.7647 982 151.489 1175.78 460.048
192 0 73.1152 14.7986 1082 150.462 1175.1 456.282
193 0 77.4293 14.6327 1133 149.39 1175.56 457.197
194 0 79.3923 14.9637 1188 148.476 1175.43 453.23
195 0 82.5249 17.5826 1451 142.598 1176.38 453.415
196 1 49.579 13.776 683 145.425 1177.82 468.16
197 0 46.1035 13.4263 619 152.691 1179.35 465.73
198 0 47.0675 10.4956 494 154.522 1179.95 468.798
199 0 48.2279 11.6737 563 155.872 1181.88 464.229
200 0 47.1145 10.8884 513 158.244 1184 463.495
201 0 49.1411 13.6749 672 150.012 1186.01 462.774
202 0 55.3447 15.5932 863 143.01 1186.69 461.864
203 0 55.328 15.634 865 138.598 1186.67 461.884
204 0 59.0544 16.4255 970 143.03 1190.96 464.605
205 0 59.2003 16.081 952 144.653 1190.88 465.574
206 0 60.0545 13.7209 824 149.359 1190.92 467.479
207 0 60.3727 15.3049 924 149.799 1190.3 465.497
208 0 63.4795 13.5949 863 153.299 1189.83 466.841
209 0 65.4904 13.8646 908 156.034 1190.42 464.818
210 0 67.4355 16.7271 1128 150.834 1189.67 463.834
211 0 72.5455 13.7293 996 155.272 1189.45 466.833
212 0 74.3759 16.2822 1211 151.053 1188.11 464.717
213 0 73.7484 14.6579 1081 153.883 1187.26 467.479
214 0 78.697 14.1683 1115 154.36 1186.54 462.527
215 1 42.0638 13.1942 555 145.449 1186.16 480.009
216 0 42.0435 13.2006 555 146.083 1185.43 480.512
217 0 41.0708 9.13057 375 156.416 1183.81 478.76
218 0 46.0638 13.7635 634 147.793 1182.98 474.093
219 0 45.0855 9.91449 447 151.186 1181.2 477.846
220 0 47.0275 9.9729 469 153.981 1179.81 475.275
221 0 48.1059 12.0983 582 151.679 1177.84 473.515
222 0 51.3225 12.665 650 147.994 1176.4 471.862
223 0 54.2393 14.3254 777 142.946 1176.16 465.462
224 0 56.0544 15.4671 867 141.038 1177.19 467.296
225 0 58.0426 14.4549 839 142.508 1176.38 466.277
226 0 60.0872 15.3277 921 140.286 1175.69 464.333
227 0 59.1981 14.0545 832 145.001 1176.27 460.911
228 0 65.1246 15.2477 993 139.809 1176.16 461.518
229 0 66.1026 15.6877 1037 140.956 1177.13 460.278
230 0 68.1633 16.3724 1116 140.537 1178.24 457.437
231 0 71.1068 17.5511 1248 135.764 1179.37 454.82
232 0 73.0521 15.2083 1111 140.189 1181.13 456.344
233 0 75.1558 14.2238 1069 143.778 1182.95 454.885
234 0 78.2017 16.7771 1312 139.075 1184.64 452.572
235 0 80.3379 15.5095 1246 139.59 1186.91 456.526
236 0 83.27 16.0682 1338 142.602 1187.01 452.782
237 0 84.2598 15.1199 1274 145.182 1187.86 453.801
238 0 87.182 14.3837 1254 148.152 1189.21 451.774
239 1 47.0284 12.6732 596 144.473 1189.03 474.476
240 0 48.0939 12.0598 580 149.212 1189.92 474.726
241 0 50.0949 12.6959 636 145.989 1189.92 477.083
242 0 54.097 12.4776 675 148.15 1189.71 474.493
243 0 55.0437 13.7345 756 144.243 1189.66 475.481
244 0 53.0606 12.0994 642 151.087 1187.87 473.922
245 0 55.0886 14.1409 779 147.366 1187.72 473.056
246 0 57.0341 13.115 748 149.473 1187.09 472.742
247 0 62.1808 18.4784 1149 136.141 1186.47 472.779
248 0 63.0827 16.2009 1022 142.78 1185.29 468.335
249 0 63.0885 13.1244 828 149.971 1184.75 469.692
250 0 66.0461 18.8959 1248 138.89 1183.72 469.099
251 0 68.0931 14.9208 1016 147.642 1181.97 467.066
252 0 67.0554 11.7067 785 156.028 1181.63 465.512
253 0 73.143 13.6172 996 150.366 1180.2 465.518
254 0 77.0836 12.1945 940 154.628 1178.64 463.167
255 0 80.0546 15.0148 1202 149.135 1177.67 459.248
256 0 82.2197 14.9599 1230 152.131 1174.52 456.567
257 1 44.0913 11.8164 521 152.885 1173.06 477.086
258 0 44.0264 12.1972 537 154.777 1172.6 474.235
259 0 47.0372 11.7141 551 157.167 1171.68 472.005
260 0 43.1137 12.757 550 157.315 1171.63 470.464
261 0 50.0328 14.2307 712 150.768 1171.54 469.406
262 0 51.0659 17.5264 895 144.573 1173.03 467.549
263 0 55.416 14.7611 818 145.836 1176.31 467.84
264 0 54.4531 14.0672 766 150.804 1177.02 464.487
265 0 56.4562 14.4714 817 151.084 1179.2 462.922
266 0 58.1573 15.0626 876 145.326 1182.28 466.6
267 0 58.125 11.7161 681 154.188 1183.8 464.217
268 0 61.1152 13.5973 831 147.798 1185.86 463.883
269 0 61.0682 15.5072 947 145.836 1187.4 461.282
270 0 66.0453 17.2003 1136 139.143 1188.7 464.536
271 0 69.0629 15.3194 1058 144.051 1190.05 462.996
272 0 72.1353 14.958 1079 143.077 1190.42 463.652
273 0 74.1312 16.4303 1218 141.904 1190.6 459.498
274 0 75.2498 13.1562 990 147.214 1190.44 462.424
275 0 77.1616 14.4113 1112 145.821 1190.24 460.699
276 0 80.1859 13.5311 1085 146.831 1189.53 459.082
277 0 82.1159 12.0318 988 149.834 1189.24 459.404
278 1 44.018 11.4499 504 144.077 1188.79 477.599
279 0 45.1117 10.5959 478 135.665 1187.76 482.414
280 0 46.0711 10.0931 465 142.108 1187.25 476.918
281 0 48.019 12.4326 597 136.806 1185.16 477.64
282 0 52.0674 13.3289 694 135.088 1184.35 473.984
283 0 50.0448 12.3489 618 135.841 1182.48 477.727
284 0 53.4027 11.9657 639 138.674 1178.94 474.959
285 0 55.2963 13.9612 772 135.57 1178.02 474.071
286 0 57.3484 15.1879 871 133.824 1176.83 470.478
287 0 59.2922 17.692 1049 126.435 1175.42 473.443
288 0 61.3937 14.3011 878 134.264 1174.14 467.126
289 0 63.2377 13.2674 839 136.902 1172.95 462.894
290 0 67.3461 20.8327 1403 122.547 1172.35 462.788
291 0 68.2478 13.7294 937 135.061 1171.46 461.813
292 0 68.2093 13.9277 950 135.614 1171.58 459.817
293 0 72.1766 13.3977 967 135.965 1171.43 460.348
294 0 75.2177 15.9138 1197 133.045 1171.95 453.087
295 0 79.2216 14.8571 1177 132.967 1172.43 453.614
296 0 80.1199 14.7903 1185 135.305 1173.23 453.899
297 0 83.2031 15.4802 1288 134.925 1175.06 450.286
298 0 84.3092 13.7826 1162 139.755 1176.11 448.747
299 1 47.0308 10.6951 503 139.624 1177 469.95
300 0 50.1298 14.3826 721 132.742 1179.28 468.75
301 0 49.1289 13.8411 680 136.321 1181.24 469.509
302 0 52.0434 13.0852 681 137.278 1182.84 466.207
303 0 52.076 13.7875 718 134.868 1184.9 466.494
304 0 53.0687 11.7395 623 138.361 1185.79 467.682
305 0 58.1978 12.9215 752 133.856 1185.84 468.739
306 0 60.0801 16.5279 993 128.63 1187.1 466.76
307 0 64.0682 15.3118 981 130.944 1190.67 468.336
308 0 66.1194 15.7442 1041 131.305 1189.91 467.207
309 0 69.2599 16.0699 1113 135.356 1188.74 466.1
310 0 68.3801 17.198 1176 135.054 1188.2 466.588
311 0 72.3694 16.9547 1227 137.182 1186.89 460.793
312 0 76.3304 17.4766 1334 134.217 1186.74 467.743
313 0 78.3321 16.1364 1264 137.977 1185.54 464.528
314 0 80.4338 13.9742 1124 142.368 1183.99 464.704
315 0 83.4476 16.2497 1356 141.491 1182.99 459.984
316 0 85.4385 15.4497 1320 143.752 1181.63 457.347
317 0 88.4136 19.1034 1689 135.05 1180.76 459.41
318 0 91.4423 16.5241 1511 140.833 1179.43 455.254
319 0 97.4986 20.1439 1964 134.339 1178.4 452.65
320 1 49.1168 12.6026 619 140.908 1177.66 475.871
321 0 50.1455 13.2614 665 141.98 1177.2 471.88
322 0 50.12 10.6744 535 142.131 1175.32 472.878
323 0 55.3723 16.7412 927 133.413 1174.69 469.105
324 0 55.3274 14.8028 819 138.806 1173.5 462.625
325 0 59.0717 14.0169 828 139.844 1174.59 464.836
326 0 59.1091 13.382 791 141.459 1175.03 462.095
327 0 62.3082 14.1394 881 140.396 1175.66 460.049
328 0 61.0949 13.1107 801 141.908 1174.81 460.245
329 0 64.1536 13.2495 850 140.929 1174.3 459.893
330 0 66.2576 15.0926 1000 138.556 1176.44 456.959
331 0 67.4062 13.0997 883 141.943 1177.45 455.41
332 0 70.2744 15.1264 1063 136.806 1178.76 457.181
333 0 73.4118 15.6923 1152 136.648 1180.58 453.889
334 0 74.3491 14.6875 1092 139.692 1182.71 450.015
335 0 77.4685 14.1477 1096 139.722 1185.48 453.81
336 0 76.1365 11.3218 862 145.834 1186.74 450.64
337 0 83.2273 17.3621 1445 134.262 1186.96 449.2
338 1 39.0621 8.34568 326 144.328 1189.38 474.908
339 0 46.1066 9.67323 446 140.652 1189.08 474.791
340 0 45.0559 10.4759 472 142.049 1190.22 474.216
341 0 48.1482 11.0077 530 141.134 1189.72 474.413
342 0 49.0292 11.3198 555 139.834 1188.74 475.265
343 0 48.214 12.2993 593 142.137 1186.44 472.575
344 0 52.6616 16.5206 870 134.401 1184.86 466.672
345 0 52.5286 14.6587 770 137.209 1183.82 470.199
346 0 54.2679 13.028 707 142.973 1181.89 472.221
347 0 57.2415 13.7138 785 141.465 1181.88 470.815
348 0 58.2205 12.2809 715 144.407 1180.71 470.666
349 0 59.3204 15.273 906 138.157 1179.8 470.74
350 0 61.2337 14.4038 882 141.051 1178.35 468.703
351 0 64.3701 17.244 1110 136.196 1177.36 464.861
352 0 64.3701 17.2285 1109 111.643 1176.33 464.897
353 0 67.3215 14.5273 978 143.204 1174.8 463.605
354 0 70.1934 15.3433 1077 142.848 1174.23 461.189
355 0 70.2027 13.3043 934 148.335 1173.67 458.756
356 0 72.1364 11.1317 803 153.663 1173.3 460.096
357 0 76.2587 13.31 1015 149.095 1172.03 458.939
358 0 78.2052 16.3161 1276 144.944 1172.04 453.418
359 0 83.1502 17.0414 1417 148.86 1170.53 452.804
360 0 84.3734 16.4151 1385 152.394 1171.18 450.632
361 0 86.0732 17.0436 1467 151.549 1171.55 451.19
362 0 89.2241 18.9859 1694 145.482 1172.24 450.099
363 0 92.1718 14.4513 1332 157.278 1173.84 444.166
364 1 48.0373 9.47181 455 160.393 1173.24 467.78
365 0 54.1127 13.1208 710 153.003 1175.97 467.794
366 0 50.1036 12.3943 621 158.164 1177.58 464.942
367 0 53.0691 13.4541 714 154.14 1179.89 464.952
368 0 57.0397 14.8844 849 152.728 1181.95 461.133
369 0 57.0546 12.2164 697 158.088 1183.11 462.819
370 0 62.1151 15.6806 974 148.307 1184.49 463.888
371 0 63.1052 12.6931 801 153.452 1186.18 465.667
372 0 66.0767 13.4087 886 150.904 1185.41 466.574
373 0 66.0767 13.2573 876 141.339 1185.44 466.558
374 0 71.1261 13.3987 953 150.455 1184.5 464.297
375 0 69.1879 13.0659 904 151.608 1184.07 464.612
376 0 71.3488 13.6933 977 151.536 1184.41 462.916
377 0 74.1408 15.6459 1160 148.334 1184.03 459.149
378 0 80.0455 15.4412 1236 146.682 1182.83 462.069
379 0 80.073 13.3878 1072 151.398 1181.39 461.601
380 0 82.1376 13.4652 1106 153.903 1180.55 456.208
381 0 84.0723 15.1655 1275 148.139 1179.52 457.364
382 1 121.617 20.2932 2468 124.075 1179.03 436.978
383 0 115.779 20.6169 2387 128.76 1177.56 445.487
384 1 47.0138 11.1882 526 148.781 1175.7 476.489
385 0 48.1429 12.089 582 146.151 1175.04 477.845
386 0 51.0564 10.4003 531 149.324 1173.92 475.46
387 0 52.1074 10.0562 524 150.878 1172.43 474.095
388 0 52.0281 13.2044 687 145.342 1171.67 472.524
389 0 55.1184 12.9176 712 145.591 1171.62 471.375
390 0 55.1616 13.4695 743 147.452 1170.45 469.397
391 0 56.0786 12.857 721 142.234 1175.67 467.588
392 0 58.1015 12.9773 754 142.997 1174.54 465.126
393 0 62.063 15.871 985 134.264 1174.63 465.281
394 0 62.1116 13.2343 822 142.298 1175.33 463.392
395 0 62.1116 13.2182 821 138.317 1176.32 463.356
396 0 67.063 12.6896 851 143.579 1176.77 462.098
397 0 65.0726 13.0316 848 145.689 1178.34 460.87
398 0 67.0745 12.8216 860 145.231 1179.33 461.988
399 0 71.0707 14.366 1021 141.883 1180.47 461.242
400 0 71.0707 14.2956 1016 146.757 1181.5 461.274
401 0 72.0919 13.8296 997 146.011 1183.38 458.248
402 0 74.1961 15.9982 1187 142.96 1184.92 458.312
403 0 75.0733 11.895 893 151.918 1186.21 459.087
404 0 78.1272 15.7052 1227 145.724 1188.12 457.996
405 0 79.0848 14.2758 1129 148.617 1188.12 460.92
406 0 79.0618 13.129 1038 151.163 1188.76 462.837
407 0 83.0832 16.0923 1337 145.201 1189.55 461.146
408 0 84.2378 15.2663 1286 148.386 1188.89 457.838
409 0 86.2046 16.716 1441 145.399 1188.33 458.399
410 0 88.2068 19.0915 1684 139.625 1188.27 460.719
411 0 89.4291 16.0015 1431 148.422 1187.1 459.624
412 0 90.229 13.4325 1212 152.982 1185.88 460.565
413 0 92.2319 14.9081 1375 152.072 1184.13 455.71
414 0 93.3573 12.8538 1200 155.878 1183.1 456.505
415 0 93.3865 12.8391 1199 154.064 1181.09 456.443
416 0 93.3777 10.4736 978 159.857 1181.33 460.633
417 0 98.2951 16.8371 1655 147.382 1179.77 456.482
418 0 97.2296 13.0413 1268 156.16 1178.52 455.838
419 0 103.376 17.8861 1849 146.289 1177.41 452.686
420 0 99.4113 12.8959 1282 159.77 1176.33 450.137
421 0 103.329 15.049 1555 154.038 1175.3 446.25
422 0 108.356 15.7352 1705 151.215 1175.12 446.675
423 0 101.175 12.9084 1306 163.204 1174.06 440.923
424 0 109.372 12.9375 1415 156.446 1173.76 444.03
425 0 108.244 12.5272 1356 156.9 1173.52 442.659
426 0 108.458 11.7557 1275 161.746 1172.53 439.158
427 0 107.355 12.6217 1355 161.753 1173.24 431.288
428 0 112.466 12.875 1448 157.983 1173.76 435.3
429 0 108.331 14.7788 1601 155.645 1175.55 440.149
430 0 108.651 13.2995 1445 157.538 1176.5 442.963
431 0 109.36 14.4659 1582 156.581 1177.87 439.068
432 0 111.484 15.0156 1674 155.109 1180.13 439.292
433 0 115.44 16.5541 1911 150.035 1181.61 441.702
434 0 115.496 16.1478 1865 151.911 1184.04 438.843
435 0 114.207 12.67 1447 161.134 1187.36 446.819
436 0 111.136 13.6949 1522 163.348 1188.38 438.855
437 0 115.263 15.3562 1770 159.85 1189.71 439.399
438 0 117.266 16.3986 1923 156.917 1189.9 441.947
439 0 114.174 12.8313 1465 168.79 1190.53 439.791
440 0 117.236 14.4154 1690 162.167 1190.41 442.325
441 0 119.265 14.841 1770 161.694 1189.89 442.587
442 0 119.408 15.4931 1850 161.629 1189.6 442.843
443 0 121.192 13.3673 1620 166.605 1189.06 444.938
444 0 119.263 15.6796 1870 163.71 1188.1 440.626
