time division length width area intensity CMx CMy
0 0 68.1191 15.2233 1037 131.652 355.508 446.895
1 0 70.0482 17.7878 1246 127.778 356.132 443.852
2 1 144.499 20.0417 2896 131.759 356.412 404.846
3 0 151.699 15.2077 2307 134.893 357.622 414.35
4 0 152.484 14.9261 2276 136.801 357.128 411.645
5 0 160.324 18.2567 2927 134.331 357.603 400.812
6 1 85.2095 14.8575 1266 132.509 358.118 440.16
7 1 46.0322 13.6861 630 131.925 357.927 463.403
8 0 48.0761 16.8483 810 132.71 356.238 464.057
9 0 45.0584 9.47658 427 152.405 354.199 464.211
10 0 49.0612 14.2271 698 139.358 351.294 462.097
11 0 50.1058 12.3339 618 153.736 349.971 461.032
12 0 48.0737 11.0663 532 153.803 350.842 459.825
13 0 51.0345 12.5405 640 148.492 350.197 460.025
14 0 53.1502 11.8908 632 154.726 348.138 459.672
15 0 55.0742 12.5285 690 155.881 346.409 457.904
16 0 56.0634 13.2885 745 153.703 344.883 457.627
17 0 59.137 12.4288 735 155.707 343.703 457.869
18 0 60.1602 12.8989 776 154.5 342.914 453.293
19 0 60.0239 11.0789 665 160.141 343.057 450.101
20 0 65.0631 14.3553 934 149.675 343.45 452.148
21 0 67.0845 13.0731 877 154.407 342.839 447.416
22 0 70.048 14.3901 1008 149.856 342.094 445.803
23 0 70.089 11.7993 827 158.879 342.613 446.562
24 0 72.0976 12.4831 900 154.914 343.402 441.634
25 0 76.0706 15.8931 1209 148.76 343.161 439.802
26 0 80.106 14.8803 1192 152.988 343.142 440.027
27 1 41.1016 8.4425 347 162.882 344.012 458.628
28 0 47.1167 12.1825 574 154.549 344.059 454.625
29 0 43.0336 9.64364 415 164.564 346.424 452.713
30 0 49.0404 11.256 552 153.411 348.083 454.958
31 0 51.0427 11.7549 600 151.955 349.87 452.875
32 0 53.1978 12.4253 661 147.915 347.575 453.847
33 0 54.185 11.6268 630 148.3 347.819 453.86
34 0 55.0976 14.8645 819 138.603 352.298 456.851
35 0 53.1449 12.1178 644 143.447 354.239 459.116
36 0 55.0367 12.0465 663 142.158 354.799 457.291
37 0 58.189 12.7344 741 138.387 356.528 456.607
38 0 63.3059 19.5243 1236 122.445 355.973 461.489
39 0 61.2123 12.7425 780 145.497 355.66 455.235
40 0 64.0771 13.3901 858 143.606 355.359 455.128
41 0 66.1647 13.814 914 146.247 355.685 457.661
42 0 64.1341 12.5518 805 158.371 354.148 451.909
43 0 67.1232 13.7061 920 154.935 353.852 454.71
44 0 71.0834 13.8288 983 157.336 352.858 452.969
45 0 73.0731 12.5764 919 160.62 353.079 455.244
46 0 77.0685 14.9218 1150 154.155 351.367 455.494
47 1 41.0428 10.6231 436 166.016 350.706 469.72
48 0 41.0252 9.77447 401 166.449 349.08 469.908
49 0 43.0587 13.5629 584 157.553 346.277 470.178
50 0 45.0411 13.7652 620 155.379 344.847 470.405
51 0 46.0386 12.533 577 160.967 344.135 466.802
52 0 48.1001 13.0769 629 161.583 341.453 464.749
53 0 47.1936 13.2009 623 160.074 340.605 466.679
54 0 49.0588 14.9616 734 155.638 341.285 463.063
55 0 50.1353 11.8878 596 163.376 338.973 461.742
56 0 51.3067 14.2477 731 159.127 337.235 458.7
57 0 54.2681 12.6778 688 162.478 337.382 459.442
58 0 54.3292 13.9152 756 159.173 336.052 456.774
59 0 56.2813 13.0416 734 161.441 336.665 455.699
60 0 60.1966 14.436 869 155.494 337.474 455.226
61 0 60.3664 13.5837 820 159.087 337.283 451.86
62 0 64.2421 16.609 1067 150.448 338.527 452.347
63 0 63.245 13.3607 845 160.026 338.753 451.56
64 0 64.2855 14.9801 963 156.638 341.235 446.375
65 0 68.2306 16.2391 1108 151.665 343.413 450.277
66 0 71.283 14.4915 1033 151.921 346.138 449.304
67 0 72.1579 15.0781 1088 147.09 348.141 451.375
68 0 75.2294 13.3724 1006 149.115 349.621 449.427
69 0 76.2791 14.0537 1072 147.021 350.91 449.722
70 0 78.2643 13.7483 1076 147.77 351.439 447.743
71 0 80.2575 15.5998 1252 147.528 352.593 445.162
72 0 86.2749 16.7488 1445 142.577 352.642 446.792
73 1 49.0672 10.9849 539 149.584 351.41 465.64
74 0 51.0206 13.2692 677 149.449 351.644 466.065
75 0 52.0185 14.0527 731 145.609 350.581 465.201
76 0 53.1041 13.1063 696 150.045 349.624 465.072
77 0 55.0814 15.6496 862 143.341 349.356 463.391
78 0 54.226 13.1671 714 149.903 348.814 462.755
79 0 59.3823 13.2868 789 149.513 347.864 462.753
80 0 58.2785 13.7615 802 152.405 346.534 461.712
81 0 57.208 12.8653 736 157.476 345.037 462.322
82 0 62.1482 14.9321 928 151.994 343.185 460.822
83 0 63.2702 16.88 1068 148.787 341.735 458.449
84 0 64.2243 14.9788 962 152.298 340.562 457.22
85 0 66.1896 14.4585 957 154.857 338.822 454.204
86 0 70.2147 12.4333 873 157.285 338.348 456.174
87 0 70.1921 11.3261 795 163.659 337.191 450.448
88 0 72.2849 14.0555 1016 156.325 336.478 449.542
89 0 73.223 12.8785 943 159.863 336.032 450.546
90 0 77.2193 13.5329 1045 159.157 335.888 448.275
91 0 80.2192 14.4729 1161 154.576 336.337 446.344
92 0 82.1183 14.8932 1223 153.58 336.276 445.495
93 1 49.0541 12.3129 604 150.699 336.038 461.106
94 0 51.1031 10.9387 559 154.32 335.952 459.592
95 0 51.0597 11.1046 567 150.168 336.608 459.088
96 0 51.0915 7.28105 372 157.516 337.118 459.022
97 0 51.0824 9.16166 468 160.115 337.917 455.459
98 0 57.0453 13.0247 743 147.482 340.353 453.712
99 0 57.266 11.7347 672 151.381 344.229 456.208
100 0 61.2824 13.5928 833 142.04 343.968 456.259
101 0 62.0853 14.5123 901 139.297 347.741 453.305
102 0 63.0901 12.601 795 140.525 350.584 454.309
103 0 65.0889 14.1806 923 136.306 352.282 455.008
104 0 66.1407 11.7326 776 140.714 352.405 453.003
105 0 68.1641 13.3208 908 138.537 353.282 451.164
106 0 74.1396 16.4959 1223 132.425 352.913 451.976
107 0 74.1056 12.2258 906 138.002 353.591 453.691
108 0 77.1291 12.0707 931 138.303 352.749 452.354
109 0 80.0872 16.7442 1341 135.346 349.451 450.896
110 0 84.2758 13.6813 1153 140.872 348.685 451.186
111 0 85.2204 13.6704 1165 145.715 348.464 446.799
112 1 40.0289 8.66873 347 154.527 347.029 470.216
113 0 47.0363 9.35448 440 152.375 345.845 469.414
114 0 47.0228 11.9517 562 147.431 343.996 468.238
115 0 47.1829 8.75317 413 156.763 343.046 467.625
116 0 51.1204 12.4608 637 147.4 341.818 466.584
117 0 52.0323 10.8971 567 149.118 339.621 466.55
118 0 55.0628 12.4585 686 147.843 337.985 463.013
119 0 55.0888 12.017 662 146.927 339.394 463.508
120 0 54.1932 10.9239 592 149.387 338.941 460.404
121 0 59.1079 12.9086 763 146.315 336.574 459.482
122 0 60.0316 12.4101 745 144.652 332.117 456.671
123 0 55.0382 13.3362 734 152.332 331.685 460.396
124 0 59.0818 14.4884 856 149.535 331.93 458.255
125 0 60.0482 19.0514 1144 138.615 334.252 458.399
126 0 58.1744 13.4423 782 153.207 331.457 454.428
127 0 61.1238 13.8408 846 150.518 333.128 455.232
128 0 60.5554 14.978 907 147.581 333.785 445.079
129 0 62.1625 16.2638 1011 148.539 334.225 453.753
130 0 63.0789 15.5678 982 149.276 334.621 451.037
131 0 64.0982 17.5824 1127 145.21 336.116 451.784
132 0 65.0832 17.5621 1143 145.841 338.682 452.109
133 0 64.113 14.88 954 154.247 341.047 453.594
134 0 64.2786 13.986 899 155.858 343.882 449.23
135 0 66.3718 13.56 900 159.882 345.928 451.971
136 0 71.0905 27.0641 1924 124.003 345.957 445.706
137 0 74.1161 22.033 1633 135.015 345.993 451.676
138 0 71.1046 18.1001 1287 154.33 346.385 455.812
139 0 73.2017 18.6881 1368 149.993 347.879 455.249
140 0 69.0866 15.4444 1067 163.113 348.463 460.161
141 0 68.0342 16.1243 1097 159.933 348.257 460.819
142 1 150.473 16.1823 2435 126.425 348.235 437.424
143 0 152.301 12.7839 1947 137.342 347.063 447.1
144 0 142.871 16.5674 2367 126.283 344.871 425.59
145 0 150.795 12.8253 1934 139.962 343.883 441.02
146 0 147.983 19.0832 2824 121.576 342.857 428.178
147 0 148.82 12.6865 1888 142.936 342.704 444.756
148 0 146.197 14.0016 2047 138.029 341.625 434.75
149 0 137.159 14.0931 1933 146.081 340.061 453.078
150 0 141.226 13.3403 1884 148.679 338.092 449.937
151 1 157.801 16.0202 2528 132.695 336.236 425.327
152 1 49.1014 10.7736 529 171.282 336.291 471.357
153 0 47.1094 11.7811 555 169.411 335.427 471.447
154 0 49.1368 12.1905 599 171.705 333.08 467.748
155 0 50.2202 12.4452 625 172.013 331.827 467.213
156 0 50.1644 11.0636 555 176.461 332.377 466.546
157 0 50.2004 13.3465 670 176.794 330.925 460.867
158 0 52.2727 11.2678 589 183.141 330.874 462.243
159 0 56.2048 12.5078 703 175.498 330.895 462.208
160 0 55.123 15.4926 854 171.763 330.906 457.084
161 0 57.1907 13.3763 765 177.801 331.352 457.221
162 0 59.1375 14.4578 855 174.119 331.862 455.836
163 0 61.0826 13.5391 827 173.609 333.393 454.363
164 0 63.1187 14.6549 925 171.251 334.549 452.552
165 1 33.0507 9.44004 312 173.314 337.128 468.061
166 0 30.031 10.2894 309 173.113 339.553 469.094
167 0 36.0814 11.5572 417 164.165 342.257 469.194
168 0 34.045 11.2204 382 165.971 345.039 468.492
169 0 36.014 12.1064 436 165.523 344.853 469.021
170 0 36.0199 13.0484 470 165.287 346.402 467.862
171 0 38.0279 14.3053 544 153.908 347.732 469.926
172 0 34.24 10.8061 370 167.924 345.292 468.786
173 0 38.1468 13.317 508 166.089 346.445 474.47
174 0 38.0878 12.8913 491 164.369 346.289 475.387
175 0 40.1997 12.7115 511 165.415 346.301 474.423
176 0 40.3447 12.5419 506 167.464 345.164 473.447
177 0 40.2168 15.1181 608 158.016 343.812 475.385
