time division length width area intensity CMx CMy
233 0 59.0974 12.2002 721 69.7573 1106.19 491.265
234 0 59.2147 12.2098 723 70.3458 1105.28 489.282
235 0 62.0747 13.0971 813 68.9594 1105.37 488.446
236 0 62.0747 13.1132 814 121.122 1106.36 488.393
237 0 66.1966 11.4507 758 70.8945 1105.42 487.459
238 0 68.1588 12.3975 845 69.5349 1105.74 487.314
239 0 71.2445 11.5237 821 69.9574 1106.07 485.904
240 0 75.1735 12.1984 917 69.5507 1105.58 483.51
241 0 76.2144 11.835 902 69.7871 1105.39 484.154
242 1 38.1678 12.2878 469 68.2367 1106.83 500.631
243 0 41.0799 12.5365 515 67.4233 1106.34 498.487
244 0 40.0591 11.0337 442 70.1063 1105.67 497.213
245 0 40.0591 10.9838 440 133.598 1103.7 497.236
246 0 44.0888 11.7263 517 68.4313 1106.85 493.808
247 0 47.104 12.1858 574 67.655 1107.1 490.791
248 0 49.1201 12.7646 627 66.2137 1107.02 488.904
249 0 54.0991 16.5992 898 58.3541 1107.64 484.722
250 0 59.3859 14.9025 885 59.5141 1106.43 485.373
251 0 61.1571 15.8771 971 57.5283 1107.1 482.68
252 0 61.0827 13.8337 845 60.4343 1107.4 481.788
253 0 66.4316 17.4164 1157 54.5938 1106.62 480.322
254 0 63.2411 14.2629 902 60.5344 1108.1 482.17
255 0 67.3709 19.875 1339 52.7364 1107.54 477.367
256 0 71.2833 17.7601 1266 54.7749 1107.33 479.749
257 0 71.2496 18.1334 1292 54.9551 1108.01 480.567
258 0 76.2077 18.5152 1411 53.708 1107.83 478.296
259 0 78.0905 21.7824 1701 50.6267 1107.09 474.643
260 0 78.1835 15.988 1250 57.1312 1107.39 474.901
261 0 81.2325 18.9087 1536 53.6699 1107.67 473.975
262 0 80.2089 16.6565 1336 56.994 1106.51 475.405
263 0 88.2993 15.572 1375 56.8865 1106.53 469.545
264 0 89.2101 19.3027 1722 53.32 1107.55 468.134
265 0 90.2205 15.3845 1388 58.9352 1106.14 468.267
266 1 42.2453 12.9955 549 64.275 1105.74 492.284
267 0 44.0829 13.2931 586 64.0239 1105.95 491.77
268 0 46.0903 12.0416 555 65.3099 1106.34 493.341
269 0 47.2901 13.7873 652 63.1702 1107.01 491.825
270 0 48.2567 12.4957 603 65.0862 1106.14 492.413
271 0 49.1112 13.5407 665 64.2692 1107.23 489.567
272 0 50.1156 10.9746 550 68.12 1106.36 488.62
273 0 53.104 12.4096 659 66.2124 1105.13 486.07
274 0 56.1031 11.6928 656 65.9848 1105.86 489.404
275 0 58.3359 12.8909 752 63.8271 1105.97 488.959
276 0 59.1247 12.8542 760 63.7368 1106.71 488.288
277 0 62.1787 11.7243 729 65.6118 1106.22 485.206
278 0 63.0827 12.1903 769 64.7945 1106.12 484.849
279 0 66.3064 12.8193 850 63.5882 1106.34 483.901
280 0 67.2406 12.3735 832 64.3426 1105.66 484.459
281 0 72.2429 13.3162 962 62.0821 1105.89 484.37
282 0 72.3068 12.4193 898 63.8419 1106.01 482.81
283 0 72.2918 11.5919 838 65.9153 1106.03 480.165
284 0 78.2907 13.105 1026 62.9298 1105.74 478.329
285 1 39.0845 9.08288 355 68.2648 1105.37 457.09
286 0 40.1111 11.3934 457 64.4945 1105.25 498.315
287 0 43.1662 12.95 559 63.0376 1105.34 495.987
288 0 43.145 12.2841 530 64.8849 1104.95 493.838
289 0 47.0954 13.1011 617 62.5138 1105.54 493.418
290 0 48.1573 11.7531 566 64.9152 1105.22 493.364
291 0 50.2493 13.2539 666 62.2192 1105.57 494.126
292 0 49.207 12.6405 622 64.2412 1105.73 494.249
293 0 52.1639 13.17 687 63.5458 1105.84 491.68
294 0 53.151 12.5115 665 64.6165 1105.92 492.675
295 0 55.2637 12.0875 668 65.0524 1105.65 490.293
296 0 56.3463 12.4232 700 65.1657 1105.38 488.846
297 0 57.1598 13.9084 795 63.2 1105.11 487.73
298 0 58.3173 12.1233 707 66.355 1105.08 487.277
299 0 61.326 13.3875 821 63.8002 1104.88 488.1
300 0 64.1812 14.1475 908 62.7797 1105.19 486.55
301 0 64.1101 14.2567 914 63.5164 1105.1 483.078
302 0 67.129 14.6286 982 62.5316 1103.77 485.392
303 0 68.1631 12.7342 868 65.4827 1103.62 484.826
304 0 70.1846 12.9801 911 64.6125 1104.13 483.988
305 0 73.203 14.3027 1047 62.744 1104 482.016
306 0 75.2116 12.179 916 66.0044 1104.04 481.342
307 0 77.2556 13.2288 1022 64.3063 1104.14 477.94
308 0 82.2608 13.8705 1141 62.5329 1104.89 480.954
309 0 82.1994 14.5986 1200 62.7192 1104.24 475.58
310 0 84.2573 12.6873 1069 65.2844 1104.91 478.005
311 0 86.1606 13.0802 1127 64.8323 1104.28 475.188
312 0 92.2723 14.1646 1307 62.8141 1104.19 471.997
313 1 47.1298 11.6275 548 65.6241 1104.71 491.502
314 0 50.1415 10.8892 546 65.3059 1105.23 492.238
315 0 50.0848 11.0213 552 65.4022 1105.25 491.806
316 0 54.112 12.585 681 62.8208 1105 491.116
317 0 53.2066 10.1115 538 66.9442 1105.62 491.37
318 0 57.1096 13.8331 790 61.2063 1105.18 488.608
319 0 58.1435 12.6239 734 63.0668 1105.32 486.538
320 0 58.1234 12.3702 719 63.5146 1104.43 484.91
321 0 63.1675 11.6357 735 63.5728 1104.87 485.731
322 0 65.1344 12.6508 824 62.0983 1105.24 484.882
323 0 67.1387 13.7477 923 59.8006 1105.04 485.463
324 0 66.1271 12.8238 848 63.0684 1104.84 480.98
325 0 70.1098 11.4535 803 63.8506 1105.07 482.94
326 0 72.1467 12.3776 893 62.8063 1105.98 480.372
327 0 74.132 12.4103 920 62.4772 1105.41 481.425
328 0 79.1953 13.5993 1077 60.8839 1105.61 480.69
329 0 81.1527 12.1746 988 62.1194 1104.93 481.5
330 0 83.1657 12.1564 1011 63.0821 1104.94 478.295
331 1 44.1679 9.87142 436 60.0505 1105.3 497.858
332 0 46.2842 9.16078 424 60.6344 1104.95 499.46
333 0 45.171 9.69649 438 61.0137 1105.42 496.139
334 0 48.1455 9.32589 449 61.4699 1105.54 496.909
335 0 48.1034 9.04302 435 62.3471 1104.4 494.657
336 0 51.0892 10.648 544 59.7702 1104.93 496.458
337 0 52.2694 12.1103 633 58.5103 1104.74 492.542
338 0 54.189 9.66986 524 60.7805 1104.45 495.017
339 0 55.1082 10.5066 579 59.8774 1105.06 494.755
340 0 58.3035 10.7198 625 58.9296 1105.69 495.389
341 0 58.1324 10.1836 592 60.223 1105.39 494.213
342 0 61.2128 11.9583 732 58.6148 1105.48 491.123
343 0 64.1493 11.4888 737 58.9593 1105.84 490.285
344 0 64.1516 9.66461 620 60.0629 1105.67 489.634
345 0 64.1802 10.1589 652 59.9156 1105.28 489.472
346 0 68.1299 10.6414 725 59.7379 1104.93 487.386
347 0 70.2416 9.86595 693 60.8903 1104.75 485.105
348 0 71.1054 10.9134 776 59.7229 1105.11 484.795
349 1 38.2624 9.80074 375 56.7733 1105.23 504.085
350 0 37.0864 9.35654 347 57.8963 1105.59 502.614
351 0 38.1327 7.78859 297 58.4646 1106.05 505.279
352 0 38.2452 10.7726 412 56.6553 1105.18 501.609
353 0 39.2049 10.2028 400 57.665 1105.87 502.58
354 0 42.1085 9.49927 400 58.09 1106.17 502.772
355 0 41.0891 7.88531 324 60.1636 1106.36 502.497
356 0 44.0771 10.8673 479 57.4092 1106.61 498.979
357 0 45.0351 10.081 454 58.3326 1106.27 500.54
358 0 44.2573 10.8683 481 58.1372 1106.48 500.597
359 0 47.0866 11.2559 530 57.6415 1106.72 500.068
360 0 49.0756 9.92347 487 58.9528 1106.6 501.29
361 0 49.1758 12.6078 620 56.4903 1106.39 497.632
362 0 50.0983 10.8187 542 58.9078 1106.19 498.756
363 0 53.104 11.3551 603 57.8557 1106.9 500.065
364 0 54.1459 11.3582 615 58.1626 1106.66 499.764
365 0 53.1636 10.1949 542 59.8911 1106.35 501.316
366 0 54.2603 9.15956 497 60.839 1107.12 502.614
367 0 57.3142 11.3933 653 59.2129 1106.31 501.729
368 0 58.404 11.1465 651 59.3226 1106.92 501.978
369 0 59.4186 10.771 640 60.0375 1106.6 501.15
370 0 62.2328 10.75 669 60.1824 1105.94 500.354
371 0 65.3163 11.2529 735 58.4966 1105.82 502.819
372 0 65.3244 9.29209 607 61.9028 1105.71 500.217
373 0 66.3385 11.1248 738 60.4458 1105.15 496.98
374 0 68.3438 9.27662 634 62.0473 1105.35 496.364
375 0 70.2194 10.1112 710 60.9056 1106.16 497.555
376 0 72.2252 10.9242 789 60.2864 1105.77 495.356
377 0 74.1654 9.9777 740 60.9973 1105.89 496.478
378 0 75.1588 10.4712 787 60.8551 1105.45 495.511
379 0 79.2057 11.4007 903 59.5803 1105.69 495.081
380 1 41.1995 11.6506 480 57.6479 1106.39 513.327
381 0 42.1183 10.2093 430 59.5744 1106.23 511.684
382 0 42.2385 9.25696 391 60.9719 1105.4 511.696
383 0 44.0417 11.7162 516 58.1454 1105.72 511.122
384 0 45.1862 9.6711 437 59.5904 1106.21 512.027
385 0 47.1794 10.9582 517 58.9768 1105.29 510.031
386 0 50.2153 11.2316 564 57.8262 1106.28 508.647
387 0 48.1297 10.4717 504 59.4683 1105.97 507.651
388 0 52.043 11.087 577 58.1768 1105.76 502.986
389 0 51.0957 10.1378 518 59.722 1105.08 500.983
390 0 55.1107 12.3206 679 57.2018 1105.66 500.037
391 0 57.1492 12.6161 721 55.957 1106.45 500.946
392 0 59.1946 10.305 610 59.0033 1105.71 496.479
393 0 60.3476 11.3012 682 58.6906 1105.46 497.761
394 0 60.2664 10.8352 653 59.5406 1105.17 496.374
395 0 62.1713 9.58641 596 60.7567 1105.8 496.193
396 0 64.1339 10.8523 696 59.5532 1105.93 494.282
397 0 66.1348 11.537 763 59.2949 1106.41 493.616
398 1 39.149 11.6223 455 56.1099 1106.1 506.626
399 0 39.1052 10.6124 415 57.7108 1106.5 508.586
400 0 40.1685 12.5471 504 55.9385 1106.12 507.312
401 0 40.2123 11.0414 444 57.9978 1105.92 508.685
402 0 39.1461 10.6013 415 60.1084 1106.53 507.436
403 0 43.1221 11.7109 505 58.2277 1106.79 509.519
404 0 44.1072 11.7214 517 58.8027 1106.72 508.186
405 0 45.2334 9.61678 435 59.9356 1107.19 513.205
406 0 46.0978 10.1523 468 60.9914 1106.18 512.009
407 0 48.1052 10.6018 510 60.8549 1106.55 511.769
408 0 47.2004 10.233 483 62.1242 1106.14 510.876
409 0 52.2457 9.51274 497 61.67 1106.06 512.577
410 0 52.136 11.0097 574 61.0366 1105.34 508.62
411 0 55.132 11.8806 655 59.887 1105.73 511.487
412 0 56.1153 11.9397 670 59.8731 1105.81 512.588
413 0 56.1314 10.5823 594 61.8114 1105.72 511.753
414 0 58.0762 10.7962 627 60.8836 1105.79 513.062
415 0 59.0996 12.2505 724 60.3149 1105.44 506.715
416 0 62.2255 10.0602 626 62.0958 1106.06 508.05
417 0 64.124 11.5869 743 60.4011 1106.68 504.343
418 0 67.1306 10.4274 700 61.49 1106.4 503.127
419 0 67.1779 11.2537 756 60.5807 1106.1 501.393
420 0 70.1798 10.2309 718 61.6588 1105.48 498.751
421 0 72.0776 11.2101 808 60.5408 1105.78 498.595
422 0 74.1466 10.5602 783 61.3091 1105.82 499.61
423 1 37.166 11.4352 425 58.3271 1105.6 516.64
424 0 37.0294 9.2089 341 61.4252 1105.12 514.886
425 0 42.1677 9.39108 396 60.4015 1106.27 516.106
426 0 43.1398 9.73579 420 59.6238 1106.17 515.626
427 0 43.1934 10.8813 470 59.2149 1105.92 514.155
428 0 45.1335 11.7208 529 58.569 1105.73 510.132
429 0 46.0726 10.6788 492 59.5488 1104.87 512.118
430 0 48.1597 10.1952 491 59.6049 1106.13 511.369
431 0 48.0375 10.3669 498 59.6687 1106.58 512.697
432 0 50.1777 11.8977 597 58.7169 1106.48 507.471
433 0 50.1708 10.6436 534 59.5918 1106.46 509.828
434 0 52.0787 10.7722 561 60.0125 1105.73 507.64
435 0 56.1348 10.3323 580 59.6 1106.42 508.371
436 0 59.0677 12.4941 738 56.9743 1106.19 506.495
437 0 61.0923 10.0995 617 59.2399 1106.8 507.319
438 0 61.1412 10.8765 665 59.0752 1106.66 504.755
439 0 63.1617 11.0035 695 58.2115 1107.08 505.137
440 0 66.257 12.2251 810 57.0136 1105.54 503.456
441 0 67.3025 10.8614 731 58.8167 1105.95 503.261
442 0 71.0662 12.4391 884 56.8914 1106.29 500.7
443 1 38.0439 11.4342 435 55.3931 1106.9 516.214
444 0 40.2376 10.1398 408 56.9142 1106.26 514.426
445 0 38.1721 9.77154 373 58.5523 1106.05 515.619
446 0 39.0706 9.54683 373 59.563 1106.03 513.528
447 0 42.1069 11.1858 471 57.7325 1105.75 511.9
448 0 43.067 11.9349 514 56.7082 1105.44 511.093
449 0 42.1081 11.1855 471 58.603 1105.55 508.972
450 0 45.1139 11.8367 534 57.603 1106.53 507.916
451 0 47.1966 11.4627 541 58.329 1106.04 509.004
452 0 49.1561 12.1043 595 57.7378 1106.19 508.323
453 0 47.2093 9.70147 458 61.19 1106.45 509.09
454 0 50.1457 12.3241 618 58.4515 1105.61 505.382
455 0 50.1316 11.031 553 59.1989 1106.68 507.179
456 0 54.0726 11.5031 622 59.3344 1106.24 505.14
457 0 57.0838 12.2276 698 57.9484 1106.09 505.09
458 0 55.116 11.249 620 59.8968 1106.32 502.498
459 0 55.1427 10.0467 554 61.2383 1106.32 501.554
460 0 57.1013 9.96475 569 61.9016 1105.19 500.053
461 0 61.1432 11.8738 726 58.9904 1105.41 499.872
462 0 63.0854 10.7632 679 60.0147 1105.88 499.839
463 0 65.1143 11.211 730 58.8164 1105.24 503.273
464 0 67.1204 10.9952 738 59.3238 1104.83 499.538
465 0 69.1192 11.1836 773 59.0595 1104.98 495.556
466 0 70.2086 10.54 740 60.2378 1106.02 496.257
467 0 74.1009 11.2954 837 59.0108 1106.25 495.413
468 1 36.0072 10.8589 391 58.3222 1107.02 511.634
469 0 42.0539 10.0347 422 57.6848 1106.48 512.656
470 0 41.0514 11.8145 485 55.8227 1105.8 512.635
471 0 43.0807 10.5384 454 58.0903 1105.85 509.833
472 0 44.1498 11.1665 493 56.9939 1105.47 510.083
473 0 46.0832 12.3255 568 54.162 1105.27 512.861
474 0 47.1356 12.2413 577 56.0711 1104.84 507.872
475 0 48.1258 9.68295 466 59.2339 1105.65 506.028
476 0 48.0763 10.6081 510 58.2627 1104.59 506.496
477 0 50.0698 10.8249 542 57.893 1105.07 505.974
478 0 52.1149 11.1485 581 56.9966 1105.24 506.108
479 0 55.0823 12.4904 688 55.1715 1105.42 505.622
480 0 55.0933 10.9269 602 56.4468 1105.11 506.151
481 0 56.143 12.3079 691 55.7554 1104.35 502.64
482 0 57.0878 10.1948 582 57.5722 1104.26 504.617
483 0 59.2164 11.0949 657 56.5738 1105.24 502.568
484 0 61.1091 11.8477 724 56.0069 1104.98 500.167
485 0 63.1581 11.8275 747 55.8527 1104.84 497.9
486 0 64.1825 10.6259 682 56.9032 1105.75 499.069
487 0 67.1291 11.6939 785 55.9924 1105.56 494.739
488 0 68.1056 11.3647 774 56.4638 1105.37 495.056
489 0 69.2076 10.5191 728 57.5769 1105.49 496.062
490 0 74.2288 11.3433 842 56.4299 1105.49 494.721
491 0 76.2445 10.1516 774 57.6744 1105.02 494.204
492 0 78.1095 12.3032 961 55.5963 1105.69 490.13
493 1 41.0467 9.47701 389 56.4679 1104.77 512.925
494 0 39.0913 7.44411 291 59.8282 1105.57 510.206
495 0 42.0913 10.3109 434 56.8479 1106.13 510.906
496 0 44.0376 11.7173 516 56.155 1104.22 507.39
497 0 45.084 10.6912 482 57.1764 1104.91 507.386
498 0 45.07 11.2936 509 57.3694 1105.34 505.927
499 0 48.1259 12.1141 583 56.163 1105.54 504.214
500 0 48.1126 11.868 571 57.2067 1105.69 504.201
501 0 52.2718 12.9707 678 55.1829 1105.45 505.453
502 0 52.0716 12.3292 642 56.4502 1105.84 504.97
503 0 54.0541 11.7845 637 57.3061 1105.11 505.209
504 0 53.033 9.74864 517 60.441 1105.35 503.76
505 0 57.1387 13.336 762 55.8333 1105.56 503.597
506 0 57.1183 14.076 804 55.7985 1106.36 500.178
507 0 60.0729 13.2339 795 56.5208 1105.81 501.137
508 0 61.2471 11.5761 709 58.701 1105.25 498.512
509 0 62.135 10.8634 675 60.0104 1104.78 500.6
510 0 68.1399 12.7238 867 56.6494 1104.61 499.08
511 0 66.0776 11.8951 786 59.2799 1104.56 498.401
512 0 70.0656 12.0316 843 58.694 1104.97 497.751
513 0 73.1005 12.6812 927 58.1661 1104.34 494.64
514 0 74.1138 13.1554 975 57.9487 1105.03 495.088
515 0 76.1173 11.9552 910 59.6242 1104.68 492.88
516 0 78.1775 14.045 1098 57.0219 1104.89 492.552
517 0 79.242 11.7614 932 60.2983 1104.9 491.666
518 0 82.0716 12.2576 1006 60.0726 1105.62 490.968
519 0 84.127 12.7308 1071 59.6069 1104.97 490.409
520 0 86.1588 11.5484 995 61.4352 1104.59 489.377
521 1 46.046 10.7067 493 61.213 1105.51 508.225
522 0 48.0896 10.7092 515 61.3612 1105.69 508.701
523 0 49.0946 11.9362 586 60.8208 1105.21 506.111
524 0 51.0805 11.2959 577 61.3449 1105.56 505.917
525 0 51.1418 11.4192 584 61.5017 1105.26 505.563
526 0 54.0656 12.0594 652 60.816 1105.06 503.94
527 0 53.0733 11.1921 594 62.6229 1104.93 504.227
528 0 54.0639 12.4112 671 61.5395 1104.53 502.165
529 0 57.082 12.4382 710 60.7141 1105.5 502.913
530 0 58.125 13.2817 772 60.1412 1105.44 503.238
531 0 62.1616 13.1914 820 59.6415 1105.78 501.689
532 0 63.0805 12.9358 816 60.2316 1104.85 501.897
533 0 65.0341 12.6857 825 61.183 1104.99 499.215
534 0 64.0791 11.1425 714 63.3557 1105.05 499.539
535 0 67.0326 12.024 806 62.6551 1104.97 498.303
536 0 71.0708 11.3549 807 62.7249 1105.28 499.213
537 0 72.0368 11.9522 861 62.5981 1105.28 496.009
538 0 73.1143 11.9812 876 63.0183 1104.7 495.219
539 0 77.1185 12.5651 969 62.5222 1104.63 496.284
540 0 80.0989 13.9827 1120 60.8223 1104.6 495.11
541 0 83.1115 12.8261 1066 62.348 1104.93 495.348
542 1 40.0246 9.64407 386 65.2927 1104.41 512.557
543 0 42.1331 12.4605 525 62.0286 1105.61 513.301
544 0 43.0666 11.517 496 62.873 1105.65 515.554
545 0 44.039 11.4671 505 63.6891 1105.88 513.978
546 0 45.0478 11.3435 511 64.6595 1105.08 512.104
547 0 48.0476 12.113 582 62.8505 1104.76 514.594
548 0 49.037 12.2765 602 63.0664 1105.06 511.063
549 0 50.1329 11.6091 582 63.6117 1104.86 512.467
550 0 51.0608 13.2783 678 62.441 1104.58 509.824
551 0 53.0394 13.1977 700 62.15 1104.85 509.733
552 0 56.0813 13.9619 783 61.092 1104.47 510.212
553 0 55.0372 12.4098 683 63.836 1105.12 507.856
554 0 56.0226 12.4592 698 64.4656 1105.81 506.345
555 0 58.0811 14.2559 828 62.2778 1105.87 504.787
556 0 60.0505 12.1398 729 64.6722 1105.87 507.936
557 0 64.0453 12.6473 810 63.5111 1105.55 507.349
558 0 67.0294 13.3374 894 62.5481 1105.22 508.892
559 0 67.0589 12.8245 860 64.6349 1104.98 504.971
560 0 69.1446 15.0554 1041 61.8136 1104.71 504.091
561 0 69.0218 11.5905 800 66.8825 1105.82 503.321
562 0 72.0371 11.855 854 66.6206 1106 503.085
563 0 74.0587 13.4218 994 65.3149 1105.5 499.48
564 0 78.0915 14.3678 1122 63.8084 1104.99 503.188
565 0 77.0689 11.7946 909 68.0286 1105.26 499.066
566 1 42.0694 11.1482 469 67.5266 1105.33 516.853
567 0 43.0674 11.4936 495 68.0929 1105.57 515.234
568 0 46.0486 11.5747 533 68.2045 1105.23 515.617
569 0 46.0276 11.4496 527 68.5806 1105.24 515.956
570 0 48.181 11.9757 577 67.4437 1105.13 514.392
571 0 48.0468 12.2381 588 67.2517 1104.47 514.755
572 0 53.0297 13.4264 712 64.868 1105.69 512.652
573 0 52.0466 11.9316 621 67.57 1105.4 512.733
574 0 52.1729 12.0944 631 68.1474 1105.27 510.575
575 0 54.0491 11.9706 647 68.3879 1105.97 509.326
576 0 57.0215 12.5917 718 67.3273 1105.75 508.868
577 0 58.0417 13.3008 772 66.3795 1106.16 507.28
578 0 63.1319 14.5093 916 63.0469 1106.62 508.008
579 0 63.0338 14.0083 883 64.5617 1106.58 505.994
580 0 66.064 13.941 921 64.0912 1107.88 506.104
581 0 66.0501 12.0969 799 67.2378 1107.56 503.688
582 0 69.0492 11.3832 786 67.3779 1107.95 504.073
583 0 71.1308 11.8092 840 66.3798 1107.81 500.533
584 0 75.057 12.8436 964 64.7956 1106.68 499.824
585 1 41.0478 11.3526 466 65.7146 1106.73 515.021
586 0 40.1489 12.1548 488 65.7049 1106.85 514.227
587 0 41.0693 11.6632 479 66.3507 1107.3 513.148
588 0 43.0353 10.3404 445 67.7281 1106.5 513.348
589 0 42.2186 10.9194 461 67.4382 1105.74 511.779
590 0 48.0432 11.5729 556 64.8633 1105.66 512.236
591 0 49.0435 11.1534 547 65.8629 1106.1 510.633
592 0 49.1032 10.2845 505 66.996 1105.72 511.871
593 0 53.0756 13.1134 696 63.3491 1106.92 509.927
594 0 52.0545 11.7185 610 65.9 1106.08 509.885
595 0 52.0679 13.0983 682 65.0455 1105.74 506.76
596 0 56.0836 13.2837 745 63.3946 1104.96 508.314
597 0 58.0577 14.1239 820 62.6866 1105.47 507.466
598 0 59.0333 12.5184 739 64.747 1105.31 506.942
599 0 60.0303 11.894 714 66.0854 1105.41 503.507
600 0 62.0752 12.356 767 65.8696 1105 503.632
601 0 67.1057 13.203 886 64.0463 1105.59 503.542
602 0 67.1988 14.4497 971 62.7209 1106.21 503.152
603 0 70.0794 12.9853 910 64.2582 1106.4 503.509
604 0 72.067 13.0712 942 64.8896 1106.32 500.332
605 0 76.1854 13.1915 1005 63.9711 1106.45 501.642
606 0 78.0536 13.5676 1059 63.628 1105.97 500.774
607 0 80.1536 13.4991 1082 63.8096 1105.34 499.041
608 1 43.183 11.6713 504 64.994 1105.92 515.577
609 0 43.0585 13.5397 583 63.7873 1106.09 514.967
610 0 45.0812 13.8195 623 63.0257 1106.41 513.417
611 0 47.0624 12.0266 566 64.7668 1105.92 514.708
612 0 48.2352 11.8793 573 64.6143 1106.06 513.958
613 0 50.049 12.4278 622 64.2781 1106.34 512.576
614 0 50.0409 12.7696 639 64.4382 1106.34 512.135
615 0 52.0225 14.1093 734 62.5736 1107.22 511.189
616 0 54.0461 13.7475 743 62.4953 1106.82 508.087
617 0 56.1195 12.4556 699 63.6295 1106.95 508.751
618 0 56.0696 10.9685 615 65.7675 1106.23 507.784
619 0 58.0599 12.4699 724 63.308 1105.65 507.564
620 0 61.0328 12.1246 740 63.7149 1105.99 505.339
621 0 64.1378 14.2973 917 60.916 1106.35 504.421
622 0 65.0924 14.1952 924 60.8755 1106.08 504.482
623 0 65.0558 11.6976 761 64.0591 1105.75 504.114
624 0 70.0992 13.1528 922 62.0954 1106.19 501.995
625 0 72.0956 13.8566 999 60.954 1106.47 501.715
626 0 73.1932 13.0203 953 62.5026 1105.95 500.371
627 0 76.1035 12.956 986 62.2982 1106.23 498.275
628 0 79.0999 13.3628 1057 61.0577 1105.47 500.802
629 1 41.0718 11.5408 474 62.5506 1106.22 516.838
630 0 43.0347 11.177 481 62.4927 1106.06 517.904
631 0 43.0408 12.2442 527 62.2714 1106.28 514.71
632 0 46.0604 12.8093 590 61.1254 1105.63 514.192
633 0 46.0775 12.11 558 62.5036 1106.92 513.48
634 0 48.079 13.1658 633 61.5592 1107.27 513.825
635 0 48.0183 13.0159 625 62.3424 1107.23 511.368
636 0 51.039 13.2448 676 61.6257 1106.6 510.757
637 0 52.0898 12.9968 677 61.5111 1107.66 512.024
638 0 55.0554 14.3855 792 59.7197 1107.71 510.3
639 0 53.0295 11.6728 619 62.5977 1106.73 511.585
640 0 58.1056 13.6648 794 60.9521 1106.86 508.455
641 0 60.0781 14.814 890 59.718 1107.09 507.222
642 0 60.0914 12.4311 747 62.0228 1106.43 507.143
643 0 64.0539 13.7697 882 60.6848 1106.42 507.634
644 0 65.1058 12.9942 846 60.5496 1105.32 509.15
645 0 67.0583 12.1685 816 62.1618 1106.06 506.695
646 0 69.0941 14.198 981 60.2915 1106.08 503.959
647 0 70.2016 11.9371 838 63.1277 1105.64 503.364
648 0 74.1029 11.8619 879 62.8612 1105.82 503.338
649 0 79.1336 15.4675 1224 58.4624 1106.3 502.034
650 0 79.2131 12.4222 984 62.4522 1106.34 501.909
651 1 40.0485 11.7607 471 62.3928 1107.22 518.512
652 0 38.0626 9.72084 370 64.6243 1106.82 519.262
653 0 42.0891 10.8817 458 63.1266 1106.81 518.467
654 0 46.0578 13.635 628 59.6752 1106.86 518.261
655 0 46.0481 12.3567 569 61.246 1106.69 519.459
656 0 47.0483 12.5191 589 61.1783 1106.18 518.83
657 0 47.1496 12.1104 571 62.634 1106.76 514.986
658 0 50.1096 13.6102 682 60.3768 1106.45 515.223
659 0 51.0493 12.3802 632 61.6361 1105.81 516.043
660 0 53.075 11.3613 603 62.5274 1106.04 517.002
661 0 54.0547 12.3023 665 62.621 1106.58 512.087
662 0 56.188 12.2268 687 62.195 1106.65 512.704
663 0 56.1105 10.3189 579 63.6114 1106.43 513.459
664 0 59.0151 13.8439 817 60.552 1106.67 510.851
665 0 59.0715 11.3253 669 63.5097 1106.45 508.111
666 0 64.1058 13.1969 846 60.4468 1106.52 509.317
667 0 65.0425 10.4547 680 63.4794 1106.61 511.885
668 0 69.1373 13.2201 914 60.7691 1106.39 508.462
669 0 69.1 13.0101 899 60.8687 1106.47 508.354
670 0 72.0918 13.3025 959 61.0355 1106.65 505.655
671 0 75.1702 13.1302 987 60.5096 1106.48 505.604
672 0 77.1067 12.2039 941 61.3794 1106.51 507.725
673 0 81.1957 12.1805 989 62.1122 1106.94 503.401
674 0 81.1607 10.9659 890 63.6112 1107.35 502.099
675 0 84.1176 12.6965 1068 62.0665 1106.56 499.802
676 1 45.0734 11.2039 505 61.7564 1106.74 520.206
677 0 47.0494 11.9449 562 61.3986 1107.04 519.986
678 0 48.081 13.914 669 60 1106.86 518.504
679 0 47.0476 11.4565 539 63.2263 1106.37 517.839
680 0 49.0749 12.1243 595 61.7866 1106.14 517.348
681 0 50.0628 12.6042 631 61.4548 1106.86 516.933
682 0 53.0982 14.2754 758 59.4208 1107.16 516.854
683 0 55.1361 13.8385 763 60.2713 1107.43 514.501
684 0 55.0457 13.3889 737 60.7341 1107.5 513.791
685 0 57.1437 14.7523 843 59.4531 1107.37 511.937
686 0 59.0762 13.9481 824 60.5498 1107.01 511.534
687 0 60.2404 11.7363 707 63.2914 1107.39 507.506
688 0 63.083 12.2537 773 62.1397 1106.53 510.272
689 0 66.1047 13.3879 885 61.3345 1107.08 509.371
690 0 68.0462 13.2998 905 61.5381 1107.12 507.748
691 0 69.0492 13.8886 959 61.3045 1108.03 507.448
692 0 73.1437 12.0995 885 62.8384 1108.45 508.712
693 0 74.107 11.8207 876 63.8687 1107.26 505.47
694 0 78.0775 12.1546 949 62.8525 1107.04 504.059
695 1 39.1141 10.9935 430 64.007 1106.83 521.881
696 0 44.1138 13.5105 596 60.2651 1106 520.862
697 0 44.008 12.3841 545 62.3578 1106.29 520.048
698 0 44.0446 11.2613 496 64.9798 1107.03 518.792
699 0 47.1265 11.4797 541 63.1534 1106.04 520.584
700 0 49.0869 13.7308 674 60.6484 1106.57 517.755
701 0 49.0468 12.274 602 63.0631 1107.37 516.12
702 0 50.075 13.4399 673 60.7519 1106.83 518.26
703 0 52.1429 11.9863 625 63.2384 1106.71 515.638
704 0 54.0876 12.905 698 61.3768 1106.87 518.117
705 0 52.1083 13.3184 694 63.1153 1106.61 513.392
706 0 56.0434 12.3833 694 63.2839 1106.71 514.007
707 0 60.0503 13.9383 837 61.178 1106.2 512.302
708 0 59.1373 13.7138 811 62.5845 1105.96 510.09
709 0 60.1355 12.6548 761 63.6833 1106.51 510.357
710 0 64.0616 13.8617 888 62.125 1106.68 510.119
711 0 65.0875 11.9224 776 64.4832 1106.52 508.534
712 0 70.0786 13.7845 966 61.528 1106.42 507.194
713 0 70.0681 12.8732 902 62.3226 1106.74 508.848
714 0 73.1272 12.9364 946 61.9535 1106.36 507.92
715 0 75.0736 12.2147 917 63.3468 1106.65 504.043
716 0 77.0909 12.6733 977 63.1095 1106.23 502.427
717 0 79.0678 12.8624 1017 62.8387 1106.59 501.264
718 1 40.0846 10.9269 438 63.1941 1106.44 521.801
719 0 44.0332 12.2181 538 62.658 1106.07 518.833
720 0 45.0771 11.7355 529 63.1059 1106.33 518.86
721 0 47.046 14.3902 677 59.4313 1106.04 518.151
722 0 47.0839 12.6583 596 62.0319 1106.27 516.562
723 0 47.1072 12.7157 599 62.02 1105.8 517.75
724 0 49.0645 13.0033 638 61.1677 1105.6 516.44
725 0 51.1316 12.8101 655 61.7053 1105.81 513.456
726 0 54.0241 13.531 731 60.1477 1106.09 514.792
727 0 54.0718 11.2443 608 62.3882 1106.74 515.959
728 0 57.1135 12.8166 732 60.6831 1106.14 513.096
729 0 59.0785 13.0504 771 60.5525 1106.15 512.292
730 0 61.0688 14.6065 892 58.6603 1106.21 510.392
731 0 62.067 12.8248 796 60.3643 1105.31 513.005
732 0 64.1797 12.5741 807 60.9108 1105.46 508.597
733 0 67.2341 12.7614 858 60.8718 1105.73 505.381
734 0 67.0955 12.7281 854 60.2506 1105.64 506.971
735 0 73.0507 13.5659 991 58.3047 1106.65 506.74
736 0 75.0363 13.2069 991 58.2593 1106.89 506.119
737 0 77.0728 12.2611 945 58.8011 1106.98 505.344
738 0 80.1391 13.7386 1101 58.0445 1106.24 502.235
739 1 39.039 11.3732 444 60.7815 1106.59 519.155
740 0 43.0309 13.0139 560 57.8393 1106.67 521.5
741 0 42.0527 12.6032 530 59.9792 1106.73 519.466
742 0 45.189 12.5694 568 60 1106.87 519.702
743 0 46.0599 13.3956 617 59.0989 1106.6 518.395
744 0 47.0677 13.045 614 59.7313 1106.46 516.617
745 0 48.0498 10.9678 527 61.8406 1105.83 517.588
746 0 49.1072 11.6684 573 61.2321 1105.65 516.759
747 0 53.0984 11.6011 616 60.5942 1104.57 516.497
748 0 52.0469 12.5464 653 60.6371 1104.73 513.397
749 0 56.0904 12.2837 689 60.4659 1105.78 513.913
750 0 55.052 11.3347 624 61.6394 1106.03 513.551
751 0 61.1076 13.1735 805 58.7602 1105.84 512.021
752 0 61.1671 11.5585 707 61.338 1106.22 510.366
753 0 62.087 11.7577 730 61.1014 1106.74 509.83
754 0 67.068 13.5683 910 59.0077 1105.95 507.929
755 0 70.1223 12.9203 906 59.7384 1106.16 507.397
756 0 70.0452 12.235 857 60.7515 1106.21 506.705
757 0 75.0724 14.1996 1066 57.9916 1105.69 505.482
758 0 78.0998 12.8938 1007 59.5223 1106.67 504.619
759 0 80.1112 12.595 1009 60.0634 1106.91 503.841
760 1 43.0498 12.5436 540 58.8648 1106.49 522.68
761 0 42.0366 12.9411 544 59.5294 1106.18 520.34
762 0 44.1084 11.7211 517 60.3694 1105.64 522.458
763 0 45.0869 12.1987 550 60.3273 1105.79 521.138
764 0 47.0727 11.7478 553 61.0506 1106.39 520.521
765 0 49.0373 11.9705 587 60.9744 1105.91 518.422
766 0 51.2247 11.9474 612 60.8791 1106.27 517.908
767 0 51.0543 13.8284 706 58.9504 1105.83 515.18
768 0 53.0171 13.109 695 60.1424 1104.81 514.675
769 0 54.1457 12.9281 700 60.3543 1105.04 512.52
770 0 56.115 12.4922 701 60.5121 1104.92 512.616
771 0 59.0713 12.9166 763 60.0944 1105.58 512.02
772 0 61.0266 13.1746 804 60.1953 1106.24 509.619
773 0 63.2655 13.6093 861 59.6318 1105.66 509.456
774 0 63.0556 12.2115 770 62.0818 1105.09 510.038
775 0 67.1708 12.6394 849 61.3216 1105.79 509.402
776 0 69.0577 13.0326 900 60.9656 1105.42 505.353
777 0 73.1041 13.556 991 60.3764 1104.81 504.818
778 0 74.1157 13.3035 986 61.1673 1105.36 504.338
779 0 75.1539 12.6008 947 62.207 1105.67 503.48
780 1 40.07 11.43 458 63.3079 1105.35 520.52
781 0 43.0524 11.1028 478 63.1151 1105.75 522.425
782 0 46.0227 12.32 567 61.9012 1106.13 521.176
783 0 45.0241 11.0163 496 63.4597 1106.39 520.185
784 0 47.0405 11.8196 556 61.4694 1105.63 521.592
785 0 52.098 13.8969 724 59.0069 1106.1 518.394
786 0 49.3108 12.4111 612 61.8203 1105.61 515.498
787 0 54.0752 12.9449 700 60.0471 1106 515.11
788 0 54.1272 12.914 699 60.711 1105.74 512.924
789 0 57.0846 13.3311 761 60.0223 1105.94 513.798
790 0 59.0812 15.0132 887 57.9121 1105.09 513.702
791 0 61.0761 12.2798 750 61.26 1105.47 511.168
792 0 61.1117 12.0435 736 62.0625 1105.92 511.201
793 0 63.086 13.2359 835 60.8 1105.7 508.265
794 0 66.3562 13.1412 872 60.5103 1106.96 508.069
795 0 69.0843 12.8683 889 60.7503 1106.41 506.138
796 0 71.1678 12.5338 892 61.5235 1106.21 505.04
797 0 76.1888 14.3328 1092 59.2665 1105.86 502.71
798 0 75.1379 14.4268 1084 59.9465 1106.34 504.571
799 0 79.1863 13.3862 1060 61.2302 1106.21 501.007
800 0 83.0703 14.0002 1163 60.2726 1105.95 500.831
801 0 83.2335 12.9515 1078 61.9759 1106.43 499.509
802 0 88.1586 15.4381 1361 59.1918 1105.71 496.952
803 0 90.1019 12.6412 1139 63.0913 1106.47 497.426
804 0 92.15 11.0906 1022 65.3209 1105.95 495.371
805 1 47.0262 12.9077 607 62.3888 1105.74 515.921
806 0 47.1004 12.9723 611 63.4026 1105.88 515.866
807 0 49.0333 12.828 629 63.0906 1106.28 516.116
808 0 51.0429 13.4201 685 62.4073 1105.57 515.201
809 0 51.0939 13.0152 665 62.794 1105.55 515.857
810 0 55.1054 14.0821 776 61.0361 1105.25 513.786
811 0 56.0437 12.7936 717 62.0112 1106.09 513.229
812 0 62.136 13.905 864 59.3368 1106.48 512.904
813 0 61.1312 13.4138 820 61.239 1105.76 509.823
814 0 64.0469 13.7399 880 59.8227 1105.78 511.1
815 0 65.0628 12.9413 842 60.7482 1105.86 510.423
816 0 68.0924 13.5698 924 60.566 1105.77 507.652
817 0 70.1089 13.1367 921 61.4995 1105.59 505.313
818 0 71.2458 13.2639 945 61.2857 1104.78 506.052
819 0 75.0808 12.5332 941 61.8757 1104.83 503.69
820 0 78.103 14.0071 1094 60.0439 1105.86 501.968
821 0 81.1415 12.9034 1047 61.1576 1106.27 501.285
822 0 84.2946 13.8799 1170 60.047 1106.44 498.743
823 1 42.0697 13.2162 556 59.9856 1106.31 516.36
824 0 45.2018 11.1721 505 59.7683 1106.1 520.741
825 0 48.0728 12.1275 583 59.8696 1106.46 517.606
826 0 47.0656 12.3232 580 60.3086 1106.18 517.933
827 0 49.0495 12.4976 613 60.031 1105.45 516.75
828 0 53.0688 11.9279 633 60.0395 1105.23 516.864
829 0 54.0996 11.9779 648 60.4985 1105.4 516.256
830 0 55.0738 12.7465 702 59.9345 1106.23 513.262
831 0 57.0737 13.1409 750 58.7373 1106.27 516.323
832 0 59.1206 14.6142 864 56.9236 1106.12 515.16
833 0 58.0857 10.5361 612 62.3644 1106.12 514.587
834 0 62.0624 12.4713 774 59.8101 1105.8 512.691
835 0 63.0401 11.2785 711 61.1463 1105.93 511.488
836 0 66.0425 11.1141 734 61.7752 1105.1 510.678
837 0 69.0642 11.8296 817 60.7528 1105.09 510.963
838 0 72.0618 12.2256 881 60.3087 1105.82 508.278
839 0 72.0693 11.7526 847 61.3707 1105.33 507.793
840 0 75.1183 13.4854 1013 59.6841 1106.09 506.677
841 0 75.1008 11.651 875 62.464 1106.07 503.134
842 0 81.1433 11.7816 956 61.0293 1106.11 508.521
843 0 84.2041 11.199 943 62.0223 1105.07 504.878
844 0 86.1458 12.2931 1059 61.7686 1105.3 501.838
845 1 46.0657 10.8106 498 61.4779 1106.46 520.823
846 0 48.0259 12.2434 588 60.199 1106.4 521.361
847 0 50.0552 13.5251 677 57.8331 1106.19 522.145
848 0 50.085 12.4788 625 59.4192 1106.33 521.224
849 0 52.0866 11.0393 575 61.327 1106.51 520.153
850 0 50.0314 10.1136 506 63.3992 1105.25 517.897
851 0 53.0848 11.378 604 61.8146 1104.68 517.632
852 0 56.0407 11.7771 660 61.147 1105.49 517.421
853 0 58.0831 13.98 812 58.7303 1106.6 515.111
854 0 60.072 12.0189 722 60.7244 1106.12 515.237
855 0 62.0826 13.3371 828 59.6123 1105.96 513.972
856 0 63.0742 12.3664 780 60.2397 1105.79 518.006
857 0 65.1303 12.3905 807 60.7559 1105.7 514.675
858 0 67.2053 12.3502 830 61.2675 1104.74 511.574
859 0 69.098 11.8962 822 61.7141 1106.06 514.111
860 0 71.0626 12.2005 867 57.519 1105.27 508.815
861 0 73.1196 13.0881 957 62.838 1105.99 509.723
862 0 74.1581 12.2171 906 64.2936 1105.41 510.936
863 0 77.0498 13.1214 1011 63.0514 1106.31 510.558
864 0 82.2002 12.4817 1026 63.6101 1106.27 509.736
865 0 81.1722 11.0999 901 65.7558 1105.93 508.848
866 0 85.0692 12.9659 1103 63.5313 1106.08 508.706
867 0 89.0402 13.0503 1162 63.9071 1105.87 504.064
868 0 92.115 12.5604 1157 64.408 1105.83 505.451
869 0 93.3153 12.806 1195 64.7674 1106.68 504.032
870 1 51.0376 12.0303 614 64.9234 1105.52 520.35
871 0 54.0356 10.4746 566 65.6007 1105.76 522.557
872 0 55.0678 11.5312 635 64.4866 1105.41 523.087
873 0 58.0495 11.4041 662 64.861 1105.34 520.875
874 0 59.2285 13.0849 775 63.2452 1105.91 519.735
875 0 61.1716 11.9336 730 64.0836 1104.74 520.322
876 0 64.1682 13.6516 876 62.097 1105.04 518.058
877 0 66.3242 11.6549 773 64.1384 1105.07 516.572
878 0 68.2784 12.0243 821 63.7259 1105.02 516.169
879 0 71.1678 12.2527 872 63.0803 1105.1 514.92
880 0 71.1573 11.9173 848 63.6002 1105.2 515.337
881 0 76.2132 12.8587 980 61.9092 1104.92 514.566
882 0 78.0703 11.9636 934 63.1949 1104.63 512.076
883 0 81.1073 14.4623 1173 60.162 1105.31 511.292
884 0 82.0681 12.7943 1050 63.0114 1104.98 508.378
885 0 84.1505 12.751 1073 63.4744 1104.7 506.979
886 0 87.0625 13.6224 1186 62.0978 1105.93 504.767
887 1 45.0637 10.7182 483 63.9358 1106.17 527.907
888 0 45.0457 10.345 466 65.3069 1105.92 525.509
889 0 47.0872 9.98149 470 65.9043 1106.06 525.77
890 0 50.1795 12.6944 637 62 1105.54 525.085
891 0 51.0859 12.3909 633 63.0727 1106.29 522.733
892 0 50.2935 11.8504 596 63.5621 1106.38 523.827
893 0 56.0899 13.9419 782 60.188 1106.48 523.694
894 0 55.0683 11.8943 655 63.6336 1106.16 520.841
895 0 56.1097 13.7944 774 61.1525 1106.11 519.975
896 0 57.1158 10.9077 623 64.939 1106.65 519.539
897 0 60.0821 13.0488 784 61.4298 1106.61 521.142
898 0 62.0567 13.1976 819 62.2247 1106.07 517.592
899 0 64.2683 14.0038 900 61.1678 1106.03 517.911
900 0 63.0824 13.5062 852 61.8791 1106.31 516.7
901 0 67.0727 13.3288 894 61.8624 1106.59 514.436
902 0 69.0658 12.1189 837 63.3799 1106.85 514.759
903 0 72.1473 13.5279 976 61.8883 1106.16 512.926
904 0 75.2273 12.9341 973 62.7102 1105.8 510.958
905 0 75.0359 12.0476 904 64.4923 1106.28 510.162
906 0 80.1007 13.3332 1068 62.1245 1105.97 510.165
907 0 84.1527 13.7013 1153 61.6123 1105.73 508.363
908 0 81.0641 12.8787 1044 63.6849 1105.9 508.134
909 0 85.1065 13.0542 1111 63.6202 1106.83 508.481
910 0 85.0611 12.9319 1100 64.1764 1106.55 509.992
911 0 88.1155 11.9389 1052 65.9962 1106.85 505.316
912 0 91.0552 11.5315 1050 65.8533 1106.94 506.067
913 0 94.1373 11.9506 1125 64.896 1107.92 508.544
914 0 99.161 12.0914 1199 64.8382 1107.23 502.126
915 0 98.1284 11.8518 1163 65.7489 1107.2 501.601
916 0 102.127 12.9152 1319 64.1403 1106.54 500.485
917 1 48.0351 11.2001 538 65.3662 1107.05 524.848
918 0 52.1054 11.1889 583 64.8027 1105.81 522.918
919 0 53.0385 11.4068 605 64.9455 1105.74 521.362
920 0 54.0133 12.1452 656 63.8948 1106.39 521.418
921 0 57.066 11.8109 674 63.8279 1106.28 521.528
922 0 58.0286 11.5633 671 64.3785 1106.45 521.766
923 0 57.1194 11.8349 676 65.321 1105.88 517.312
924 0 62.044 12.749 791 63.4273 1105.18 515.022
925 0 64.1277 11.1652 716 64.6452 1105.35 517.82
926 0 67.0311 11.8452 794 63.8413 1105.6 516.902
927 0 71.0453 12.0346 855 63.2386 1105.63 516.007
928 0 71.054 12.8353 912 63.409 1106.36 513.484
929 0 74.08 12.3245 913 64.3089 1105.71 511.073
930 0 77.1399 12.2505 945 64.0434 1105.62 510.829
931 0 79.0644 11.9902 948 65.1646 1105.66 506.729
932 1 44.0241 12.2433 539 62.0761 1105.72 526.158
933 0 45.0191 10.9509 493 64.1643 1105.07 525.631
934 0 45.0561 11.7853 531 63.4105 1106 525.098
935 0 45.1597 11.0275 498 64.6747 1105.67 522.994
936 0 49.0289 11.585 568 63.5845 1105.65 523.132
937 0 48.0778 11.0862 533 64.5891 1105.91 521.439
938 0 50.0343 11.4721 574 63.8571 1105.81 522.331
939 0 52.0812 11.7701 613 63.2463 1105.78 520.995
940 0 55.0731 12.2201 673 62.4859 1105.76 518.957
941 0 56.1364 11.9887 673 63.6226 1105.46 517.128
942 0 56.032 12.1181 679 64.0236 1105.76 515.959
943 0 57.0592 11.3566 648 64.5633 1105.8 515.674
944 0 60.0795 11.7012 703 63.9986 1105.3 514.528
945 0 62.1217 12.2823 763 63.4771 1104.64 513.657
946 0 66.0665 12.0787 798 63.6115 1105.68 512.021
947 0 66.0551 11.6569 770 63.9169 1106.66 513.262
948 0 70.116 13.1782 924 62.1613 1106.24 512.419
949 0 70.0822 12.3997 869 63.8435 1106.34 510.696
950 0 73.0512 12.9909 949 62.6923 1107.26 509.442
951 0 76.1423 12.7393 970 63.7155 1106.94 505.49
952 0 77.1392 12.0043 926 65.3682 1106.51 504.485
953 0 82.1683 12.949 1064 63.4502 1106.94 504.492
954 0 83.0636 12.8095 1064 64.5479 1106.39 501.376
955 1 46.0478 9.70731 447 65.8613 1106.4 521
956 0 47.0325 13.1824 620 62.7806 1104.83 518.779
957 0 47.1016 11.592 546 66.0476 1105.9 516.595
958 0 51.0437 12.4403 635 63.9134 1105.76 518.946
959 0 54.1164 12.7133 688 63.7892 1105.83 515.842
960 0 54.0438 12.2863 664 65.5798 1105.58 515.492
961 0 56.0827 11.9823 672 64.6235 1105.75 515.415
962 0 56.067 13.5374 759 63.5626 1105.69 514.204
963 0 59.0554 11.2606 665 65.7068 1105.39 514.979
964 0 61.0358 11.2557 687 65.901 1106.2 513.178
965 0 62.057 13.407 832 63.637 1106.67 511.531
966 0 65.0812 12.2923 800 64.4112 1106.87 511.158
967 0 67.0882 12.342 828 64.4396 1106.76 509.58
968 0 69.2451 13.6327 944 62.7807 1105.74 509.272
969 0 70.2544 10.9886 772 66.5142 1106.52 508.146
970 0 74.1328 13.1116 972 63.0895 1106.79 508.067
971 0 77.0754 12.9094 995 63.6915 1106.01 505.396
972 0 79.1729 14.2726 1130 61.869 1106.63 505.669
973 0 81.1749 11.9002 966 64.9979 1106.67 501.642
974 1 39.0285 10.9151 426 64.1338 1106.56 521.146
975 0 44.0588 12.3471 544 61.3658 1107.06 523.232
976 0 43.0221 10.9246 470 63.2404 1106.1 522.019
977 0 47.0687 12.0462 567 61.3051 1106.41 521.764
978 0 47.0426 11.2239 528 62.3182 1106.67 521.712
979 0 50.2274 12.3837 622 61.5868 1107.4 518.857
980 0 49.0681 10.3326 507 64.3136 1106.67 518.86
981 0 52.0813 12.4421 648 61.6497 1106.6 518.65
982 0 53.0911 12.5256 665 61.8677 1106.43 517.462
983 0 53.0434 11.4057 605 63.8298 1106.51 514.663
984 0 56.1396 11.5961 651 63.0876 1105.65 515.823
985 0 58.1686 13.8563 806 60.593 1107.04 515.112
986 0 59.1116 12.7724 755 61.5258 1106.11 513.679
987 0 60.0184 13.146 789 61.5818 1106.47 514.643
988 0 63.3357 12.489 791 62.2731 1106.36 511.708
989 0 66.1127 13.4467 889 60.5996 1106.24 512.384
990 0 67.0861 11.4778 770 63.7247 1105.95 509.847
991 0 69.1614 12.3479 854 62.582 1106.32 509.07
992 0 71.1144 12.6275 898 62.2105 1106.06 511.21
993 0 71.1129 8.81697 627 66.4833 1106.43 510.871
994 0 74.1738 12.8078 950 62.4737 1106.21 508.565
995 0 75.119 10.9293 821 65.4251 1106 504.521
996 0 79.1665 11.3558 899 64.6563 1106.15 504.305
997 1 42.1454 10.5112 443 63.8172 1106.31 521.808
998 0 43.132 8.57832 370 63.8378 1106.61 525.195
999 0 42.0231 10.2325 430 64.8512 1106.54 520.958
1000 0 46.1438 12.7645 589 60.9932 1106.78 520.109
1001 0 48.1122 12.9905 625 61.1712 1106.18 519.84
1002 0 48.0985 10.3745 499 64.6393 1106.13 519.084
1003 0 50.025 11.7941 590 62.322 1106.52 519.846
1004 0 50.0292 11.6532 583 63.7924 1106.37 516.635
1005 0 51.0973 11.8597 606 63.1964 1106.41 517.896
1006 0 56.12 10.9943 617 64.0664 1106.31 515.392
1007 0 57.0453 11.2016 639 63.5884 1106.68 516.584
1008 0 57.1646 10.9159 624 64.4519 1107.05 515.035
1009 0 58.16 10.6774 621 65.0145 1106.08 514.29
1010 0 62.1192 12.8463 798 62.4098 1106.71 513.244
1011 0 62.0448 10.3635 643 65.7869 1106.47 511.107
1012 0 65.1486 11.7731 767 64.309 1106.24 509.407
1013 0 66.1439 11.1424 737 64.7693 1106.13 508.729
1014 0 69.1535 13.4339 929 62.436 1105.53 507.87
1015 0 71.1857 11.6737 831 64.1962 1105.42 508.662
1016 0 72.0938 12.2063 880 63.9818 1105.46 505.265
1017 0 77.1234 13.7572 1061 61.6626 1104.65 503.843
1018 0 77.0938 12.7766 985 63.6863 1105.59 500.574
1019 0 80.2301 11.5293 925 64.8778 1105.66 498.364
1020 1 42.0579 11.4128 480 63.6083 1105.54 521.412
1021 0 42.0433 9.49022 399 66.6566 1105.16 519.637
1022 0 45.0556 10.7423 484 64.8161 1105.57 521.502
1023 0 44.0188 11.7677 518 64.5637 1105.61 518.656
1024 0 47.0615 11.4956 541 64.5786 1105.61 518.085
1025 0 49.0628 11.4751 563 64.0995 1105.31 517.599
1026 0 50.1011 12.7143 637 62.3689 1105.37 517.068
1027 0 51.0416 10.5404 538 65.2788 1104.81 517.154
1028 0 50.0334 10.2332 512 66.4219 1105.05 515.834
1029 0 55.1188 12.1737 671 63.0417 1105.3 516.836
1030 0 57.0288 10.8191 617 63.7407 1104.78 518.019
1031 0 61.0535 12.3171 752 61.7713 1104.47 515.488
1032 0 60.0973 12.097 727 62.7084 1104.9 515.477
1033 0 65.128 13.7422 895 60.2067 1105.05 514.692
1034 0 66.1425 12.4428 823 61.9162 1104.22 513.096
1035 0 67.121 12.5147 840 61.3107 1104.39 513.674
1036 0 71.1112 12.9516 921 60.7698 1104.49 512.119
1037 0 73.0786 11.5218 842 62.6651 1105.04 510.101
1038 0 77.1622 12.2599 946 61.815 1104.29 508.834
1039 0 75.1129 11.3695 854 63.918 1104.77 506.908
1040 1 40.0649 11.6062 465 61.9462 1104.62 525.634
1041 0 44.0155 11.0188 485 62.5876 1103.97 524.872
1042 0 45.0682 12.8916 581 61.358 1103.54 521.658
1043 0 44.0393 12.5797 554 62.3863 1103.81 521.336
1044 0 47.1216 11.5234 543 63.628 1104.01 521.389
1045 0 50.1035 12.1149 607 62.2109 1103.22 519.616
1046 0 49.0765 11.0644 543 63.9392 1104.19 521.099
1047 0 52.0337 12.9147 672 61.9434 1103.86 517.552
1048 0 52.0298 11.0706 576 64.5504 1104.12 516.446
1049 0 56.1012 12.121 680 62.7985 1104 516.496
1050 0 57.1391 12.5833 719 62.0626 1103.56 517.727
1051 0 60.1208 12.8741 774 61.7842 1104.34 515.227
1052 0 61.1623 12.5077 765 62.3582 1103.61 512.592
1053 0 63.1901 12.2488 774 63.0439 1103.58 512.621
1054 0 66.1127 11.3594 751 64.0266 1103.41 511.897
1055 0 68.0693 11.3414 772 64.0712 1103.5 510.378
1056 0 69.0672 12.0752 834 63.0636 1103.53 509.691
1057 0 70.1187 12.0653 846 63.0556 1104.09 510.005
1058 0 74.2872 11.2536 836 63.372 1104.38 509.551
1059 0 77.1685 12.4662 962 62.2432 1104.43 505.372
1060 0 79.155 11.6986 926 63.3531 1103.93 504.062
1061 1 41.0349 9.72343 399 64.8221 1104.85 523.281
1062 0 46.0222 11.4075 525 61.3181 1104.97 524.417
1063 0 48.1162 11.7008 563 60.1314 1104.52 525.172
1064 0 49.0306 11.4622 562 61.2687 1104.36 523.749
1065 0 50.1051 12.4538 624 60.6106 1104.58 522.043
1066 0 53.1833 12.9176 687 59.31 1104.68 520.808
1067 0 54.0546 11.8584 641 60.702 1104.67 521.582
1068 0 54.1297 12.1929 660 60.9455 1104.29 517.305
1069 0 59.0985 13.7229 811 58.106 1104.26 520.386
1070 0 58.1157 13.1634 765 60.0601 1104.66 516.583
1071 0 60.0626 14.1519 850 58.8141 1104.83 515.698
1072 0 61.0681 12.2977 751 61.1105 1105.7 516.614
1073 0 66.1273 13.5194 894 58.7103 1104.96 517.229
1074 0 67.1002 13.1445 882 59.6497 1104.62 514.02
1075 0 67.2275 11.1413 749 62.51 1105.12 513.232
1076 0 69.1061 13.501 933 59.8532 1104.66 513.27
1077 0 72.1679 12.9559 935 60.539 1105.22 510.615
1078 0 74.2544 13.5749 1008 59.6855 1104.87 512.361
1079 0 78.0772 12.9871 1014 60.9408 1104.99 508.64
1080 0 81.072 12.7418 1033 61.1801 1105.7 507.083
1081 0 81.037 11.8711 962 63.0447 1105.11 506.235
1082 0 86.3887 13.0341 1126 61.0471 1105.29 506.33
1083 1 48.2086 11.4295 551 61.6987 1105.09 524.486
1084 0 50.1163 13.768 690 59.4072 1104.77 522.728
1085 0 50.0542 13.1857 660 60.8758 1104.31 523.017
1086 0 50.1142 12.5114 627 62.5646 1104.85 520.517
1087 0 50.0733 13.2606 664 61.6777 1104.74 519.822
1088 0 51.0576 11.6535 595 63.8723 1105.62 520.748
1089 0 55.0769 11.9469 658 63.579 1105.64 518.672
1090 0 58.0869 13.3249 774 61.8256 1105.35 517.838
1091 0 55.0316 12.2657 675 63.3763 1105.22 518.409
1092 0 58.1122 12.1145 704 63.5866 1104.4 518.672
1093 0 61.2495 11.8858 728 63.4918 1104.14 517.456
1094 0 64.1009 13.4788 864 61.6852 1104.05 513.916
1095 0 65.0522 11.8366 770 63.8714 1104.28 512.374
1096 0 69.1282 14.1765 980 60.1582 1105.37 512.235
1097 0 70.1487 14.0559 986 61.2657 1105.42 508.332
1098 0 73.0916 13.3668 977 61.6448 1104.84 508.837
1099 0 75.0619 13.2291 993 61.4874 1105.19 508.41
1100 0 77.2275 13.2077 1020 61.0451 1105.47 507.78
1101 0 78.0995 12.4201 970 62.6392 1105.49 504.154
1102 0 81.1738 13.0214 1057 61.8676 1104.61 502.55
1103 0 84.2814 11.7226 988 62.4595 1104.67 506.272
1104 1 41.0919 10.6834 439 63.1298 1104.74 524.681
1105 0 43.087 11.7669 507 61.5957 1104.49 524.28
1106 0 46.0931 14.449 666 58.1186 1105.54 523.327
1107 0 46.1849 10.3064 476 62.7206 1106.14 522.746
1108 0 48.0439 12.78 614 59.7964 1105.64 521.389
1109 0 50.0405 12.9096 646 59.2879 1104.96 522.441
1110 0 50.1152 13.0699 655 59.6763 1105.42 520.376
1111 0 55.1813 12.7942 706 58.7989 1105.78 522.344
1112 0 56.1002 13.6363 765 58.0797 1105.73 519.906
1113 0 54.1126 11.9935 649 61.1587 1105.73 518.082
1114 0 57.1525 11.898 680 60.6 1105.92 516.476
1115 0 58.0947 13.4091 779 59.2709 1105.22 514.847
1116 0 58.0602 12.3665 718 61.1031 1104.71 514.177
1117 0 63.1001 12.8684 812 59.7106 1104.84 513.669
1118 0 64.0839 13.6228 873 59.1031 1106.39 512.81
1119 0 67.1578 12.7759 858 59.5431 1105.24 512.182
1120 0 70.2393 13.511 949 58.6154 1104.95 511.456
1121 0 70.1666 13.0689 917 60.2857 1105.53 508.274
1122 0 72.0343 13.5769 978 59.2945 1105.97 510.724
1123 0 76.0627 13.2917 1011 59.4817 1105.7 506.226
1124 0 78.1505 15.3294 1198 57.5125 1105.51 504.856
1125 0 80.1808 12.2972 986 60.8682 1105.72 504.039
1126 0 84.0928 13.5802 1142 59.7014 1105.64 501.663
1127 0 87.2118 13.1519 1147 60.2929 1106.47 502.39
1128 1 44.1242 11.8756 524 60.5057 1106.43 521.282
1129 0 44.0809 12.5905 555 60.1496 1106.05 521.341
1130 0 45.029 11.6369 524 61.9847 1105.09 518.781
1131 0 49.065 10.4148 511 62.4168 1105.45 519.888
1132 0 50.1045 11.9151 597 60.7755 1106.18 518.712
1133 0 52.1105 11.3221 590 62.0814 1104.73 516.563
1134 0 53.0417 12.9332 686 60.2507 1104.37 515.622
1135 0 56.1879 14.0956 792 58.2626 1104.65 516.549
1136 0 56.1144 13.027 731 59.6457 1105.66 517.134
1137 0 59.0481 12.3628 730 60.3479 1105.05 514.041
1138 0 62.0995 13.1885 819 59.2845 1105.49 509.783
1139 0 62.0996 12.2223 759 60.7246 1105.11 510.999
1140 0 66.1111 12.1462 803 60.4047 1105.27 512.775
1141 0 65.115 11.3645 740 144.58 1105.3 511.818
1142 0 73.2319 12.713 931 59.5231 1105.19 507.156
1143 0 74.0993 13.8193 1024 57.8848 1104.87 510.56
1144 0 74.0319 14.2641 1056 58.1108 1105.06 507.806
1145 0 78.1647 12.947 1012 59.7411 1105.62 503.926
1146 0 83.2749 13.9898 1165 57.8747 1105.44 504.124
1147 0 82.0829 12.6458 1038 59.4875 1105.59 502.098
1148 0 88.0596 14.4448 1272 57.3844 1106.19 500.402
1149 0 91.1663 12.7021 1158 59.4214 1105.27 498.842
1150 0 91.0536 12.4872 1137 60.0572 1105.15 494.112
1151 1 48.0987 12.2664 590 59.0678 1105.21 517.503
1152 0 52.0594 12.6202 657 57.2481 1105.99 519.417
1153 0 53.0374 11.9915 636 58.0833 1106.1 517.003
1154 0 54.1533 12.0214 651 58.255 1105.87 516.7
1155 0 55.1483 11.6595 643 58.3857 1106.36 516.443
1156 0 59.1024 10.6426 629 58.5501 1105.34 514.421
1157 0 62.07 12.9209 802 55.8317 1105.08 514.368
1158 0 62.0737 10.5681 656 58.5442 1104.71 510.375
1159 0 63.0232 11.4561 722 57.6053 1105.12 510.298
1160 0 65.1013 10.9829 715 57.8364 1105.1 507.055
1161 0 69.0375 12.2687 847 55.9079 1104.83 509.535
1162 0 69.0631 12.2786 848 56.1179 1104.7 504.432
1163 0 74.0712 11.1244 824 56.7464 1104.75 504.359
1164 0 76.1068 11.3656 865 56.2647 1105.81 505.699
1165 0 77.154 10.9651 846 56.4515 1105.12 504.112
1166 0 82.1414 13.0994 1076 54.3206 1105.16 502.256
1167 0 84.092 10.6312 894 56.9128 1105.41 496.664
1168 0 88.0618 11.2535 991 55.1322 1106.29 502.771
1169 0 92.1186 10.4865 966 55.9389 1106.07 498.224
1170 1 48.1229 8.68609 418 56.1412 1106.48 518.825
1171 0 50.0856 11.8797 595 53.6723 1106.17 516.029
1172 0 53.0511 9.68877 514 55.4047 1106.44 517.286
1173 0 54.0459 10.2135 552 55.2283 1105.93 516.35
1174 0 55.0674 8.80739 485 56.1773 1106.31 517.546
1175 0 55.0907 9.80202 540 55.9593 1105.58 513.296
1176 0 57.101 11.4709 655 54.3114 1105.75 510.344
1177 0 60.0205 10.9629 658 54.541 1106.16 513.527
1178 0 61.026 10.8315 661 54.888 1106.97 509.874
1179 0 64.0727 11.9864 768 53.957 1106.32 510.042
1180 0 67.1537 11.1535 749 54.6342 1106.63 507.874
1181 0 68.1035 9.99948 681 55.8091 1105.83 509.53
1182 0 70.0834 9.73126 682 56.1804 1105.65 508.295
1183 0 75.0921 11.2262 843 54.688 1105.59 505.426
1184 0 77.1127 11.6583 899 54.1813 1105.59 506.286
1185 0 80.1324 10.3329 828 55.4142 1106.04 504.502
1186 0 84.191 12.3647 1041 53.6667 1106.33 501.607
1187 1 40.1337 8.89526 357 56.9608 1106.02 518.745
1188 0 41.0347 7.4571 306 57.6471 1106.34 519.958
1189 0 43.0247 9.92454 427 56.014 1105.52 517.754
1190 0 48.1052 13.221 636 52.1887 1106.08 517.635
1191 0 48.1892 12.3057 593 54.4132 1105.55 515.762
1192 0 52.0753 11.1569 581 54.3838 1105.77 519.324
1193 0 53.063 13.6065 722 53.0263 1106.63 515.327
1194 0 49.0662 8.58024 421 58.9644 1107.08 513.252
1195 0 57.1818 11.4197 653 55.2741 1106.36 512.51
1196 0 57.1381 11.1134 635 56.4394 1106.14 513.713
1197 0 60.0912 13.3464 802 54.2905 1105.97 511.519
1198 0 61.0524 12.2026 745 55.8846 1106.09 510.928
1199 0 62.1041 12.8977 801 55.4345 1105.49 511.27
1200 0 63.1659 11.6519 736 57.0598 1105.23 508.549
1201 0 69.3019 12.4383 862 55.9664 1105.99 508.486
1202 0 71.2053 12.2884 875 56.2046 1105.98 508.439
1203 0 71.2544 12.1536 866 56.9018 1105.93 504.552
1204 0 73.1694 13.2159 967 55.6174 1105.55 504.623
1205 0 75.0505 12.6448 949 56.4436 1105.51 501.276
1206 0 79.1352 12.1059 958 56.642 1105.6 502.991
1207 0 82.1916 12.4465 1023 56.6383 1104.76 500.195
1208 1 45.0858 11.5336 520 55.3058 1105.54 521.073
1209 0 43.0479 10.5696 455 58.2286 1106 517.716
1210 0 46.0436 10.9027 502 57.5179 1105.88 517.651
1211 0 50.0423 12.5294 627 54.7384 1105.58 516.707
1212 0 48.0395 11.9693 575 56.1461 1105.35 516.078
1213 0 51.0589 11.614 593 56.371 1104.99 518.401
1214 0 52.2051 12.6041 658 55.4149 1105.58 515.863
1215 0 53.055 9.34879 496 59.6976 1105.25 512.613
1216 0 56.0986 10.9628 615 57.7463 1106.34 510.777
1217 0 58.1585 12.122 705 56.2723 1106.11 508.708
1218 0 60.095 11.6815 702 56.6382 1106.3 510.45
1219 0 64.1308 12.1315 778 55.9512 1106.39 510.895
1220 0 65.12 13.7746 897 54.2274 1106.75 509.784
1221 0 65.038 11.8854 773 56.5459 1106.14 508.908
1222 0 68.155 12.2808 837 55.6858 1105.9 507.844
1223 0 69.0582 11.6858 807 56.4771 1106.42 507.073
1224 0 73.1029 13.0774 956 54.8567 1105.63 507.108
1225 0 76.1677 12.7219 969 54.7802 1106.1 505.903
1226 0 76.1188 12.717 968 55.4401 1106.03 502.773
1227 0 78.1656 11.514 900 56.7089 1106.27 500.628
1228 0 81.0975 11.5047 933 56.4148 1105.98 501.81
1229 0 85.0733 12.8477 1093 54.5581 1105.87 502.634
1230 0 87.3705 12.2124 1067 55.1022 1105.83 500.092
1231 1 49.0845 12.122 595 54.9244 1106.32 516.787
1232 0 48.0382 11.6158 558 55.1667 1105.81 520.557
1233 0 50.172 12.3575 620 55.3694 1106.21 515.44
1234 0 51.135 12.5941 644 54.9053 1106.4 517.245
1235 0 54.0607 11.7091 633 55.801 1105.51 513.276
1236 0 52.2057 10.5352 550 58.2582 1106.03 512.693
1237 0 56.0842 12.6417 709 55.3963 1105.32 511.835
1238 0 59.0629 12.0719 713 55.4825 1105.28 511.105
1239 0 62.1307 11.1861 695 56.1712 1105.92 506.702
1240 0 62.247 11.3258 705 56.427 1106.18 509.485
1241 0 63.1753 11.9825 757 55.9775 1106.09 508.443
1242 0 67.2182 12.0057 807 55.9727 1105.55 507.761
1243 0 67.136 12.4821 838 55.8007 1106.27 506.729
1244 0 72.3243 13.4809 975 54.3015 1106.31 505.942
1245 0 73.0901 11.0685 809 57.0655 1106.5 506.518
1246 0 77.167 14.4362 1114 54.0736 1106.65 503.36
1247 0 79.1058 11.7564 930 56.2936 1106.39 505.094
1248 0 80.1459 13.9745 1120 54.8679 1106.52 500.062
1249 0 82.1436 12.0277 988 57.3067 1106.03 500.958
1250 0 86.1966 13.4112 1156 56.1635 1106.12 496.847
1251 0 88.1468 12.6153 1112 57.2113 1106.15 496.407
1252 0 89.0944 12.0097 1070 58.1589 1106.29 495.682
1253 0 94.1392 13.0126 1225 57.182 1106.2 491.039
1254 1 47.0662 10.3471 487 58.3409 1106.06 519.483
1255 0 50.2001 10.6374 534 59.1479 1105.6 518.642
1256 0 50.044 12.4491 623 58.069 1105.57 515.894
1257 0 52.0287 12.57 654 58.0153 1105.11 515.268
1258 0 55.0624 12.6947 699 58 1105.47 513.371
1259 0 58.1887 11.1018 646 58.743 1106.21 516.426
1260 0 60.1175 14.6713 882 55.1474 1107.18 515.043
1261 0 60.1316 12.323 741 58.3968 1106.74 514.768
1262 0 62.1155 12.7021 789 58.2142 1106.12 510.939
1263 0 63.1004 12.5197 790 58.6165 1105.85 511.642
1264 0 66.1126 12.4031 820 58.7829 1105.81 509.63
1265 0 68.2557 13.4055 915 57.7858 1104.71 508.915
1266 0 69.1767 11.3622 786 60.2048 1106.36 509.252
1267 0 74.3289 13.077 972 58.1749 1106.01 507.32
1268 0 78.1997 13.8492 1083 57.0175 1105.8 507.907
1269 0 78.2011 13.6059 1064 58.0536 1106.5 505.524
1270 0 83.2566 12.2032 1016 59.0561 1105.09 504.222
1271 0 83.1325 12.9312 1075 58.6205 1104.98 503.371
1272 0 88.1752 13.269 1170 57.735 1105.06 504.471
1273 0 87.1799 13.7188 1196 58.1304 1104.48 503.47
1274 0 92.2532 12.921 1192 58.344 1104.71 502.696
1275 1 52.2188 12.4668 651 58.0323 1104.13 522.005
1276 0 53.1439 12.739 677 57.8109 1104.75 521.849
1277 0 53.0589 15.1153 802 56.0574 1105.03 518.874
1278 0 56.1151 11.4229 641 60.0296 1106.68 516.289
1279 0 55.2908 12.8593 711 59.3938 1106.32 516.16
1280 0 58.1851 13.2164 769 58.0949 1106.66 515.763
1281 0 61.3978 13.9582 857 57.5403 1106.44 513.571
1282 0 62.1121 13.4434 835 58.0731 1105.93 512.592
1283 0 63.0961 12.8851 813 58.1525 1106.24 512.097
1284 0 66.1345 15.0753 997 55.6871 1105.98 512.624
1285 0 67.2324 13.3418 897 57.6109 1106.26 510.884
1286 0 70.0797 11.7723 825 59.2048 1105.76 509.661
1287 0 73.1892 14.1278 1034 56.3578 1105.45 509.747
1288 0 73.3602 11.2459 825 59.4012 1106.45 510.895
1289 0 78.1107 12.7767 998 57.6593 1106 510.87
1290 0 79.1764 13.0847 1036 57.9102 1105.42 505.192
1291 0 83.2224 12.1362 1010 58.0148 1105.44 508.394
1292 1 42.2282 11.1063 469 57.8166 1106.4 528.307
1293 0 43.0705 11.3535 489 58.8671 1106.13 524.243
1294 0 44.4312 12.9414 575 58.113 1106.26 522.485
1295 0 46.0315 13.4256 618 57.4418 1106.04 523.623
1296 0 47.0313 12.3535 581 58.6885 1105.03 523.871
1297 0 47.2666 10.8533 513 60.8811 1106.48 523.491
1298 0 47.2205 11.4992 543 61.0147 1106.06 521.858
1299 0 49.0986 10.204 501 61.5649 1105.87 520.208
1300 0 51.1533 12.2768 628 59.7213 1105.91 522.123
1301 0 53.2042 11.8224 629 60.2289 1106.13 520.631
1302 0 55.1872 12.9921 717 59.7015 1106.2 519.116
1303 0 58.2581 14.9164 869 57.8596 1106.2 515.879
1304 0 58.1315 11.9557 695 61.318 1106.15 516.34
1305 0 63.292 13.177 834 59.0791 1106.63 515.283
1306 0 64.3875 12.7509 821 59.4616 1106.29 513.643
1307 0 65.1276 12.3143 802 60.9514 1105.85 514.696
1308 0 68.3603 13.9262 952 59.5399 1106.22 511.886
1309 0 70.2834 14.7972 1040 58.5548 1106.54 510.853
1310 0 70.1869 12.7659 896 61.1004 1106.14 509.292
1311 0 76.2836 14.6689 1119 58.2172 1105.66 508.158
1312 0 79.0811 14.1753 1121 59.1838 1106.54 506.638
1313 0 79.391 13.1249 1042 60.5614 1106 507.753
1314 0 83.2317 13.5525 1128 60.2332 1105.89 504.512
1315 1 44.2182 12.3026 544 60.3033 1105.93 524.467
1316 0 44.1144 11.3795 502 62.739 1106.12 523.699
1317 0 48.2477 10.7777 520 62.0096 1106.43 525.175
1318 0 51.3532 13.2611 681 60.1292 1105.64 521.903
1319 0 52.2199 13.4048 700 59.7557 1105.45 521.537
1320 0 52.1963 13.5642 708 59.8785 1105.71 521.394
1321 0 53.1657 11.3043 601 62.6389 1105.69 519.98
1322 0 53.1441 11.3277 602 63.4651 1106.7 518.454
1323 0 56.3808 12.6107 711 61.7145 1106.04 518.646
1324 0 58.3516 13.1445 767 61.0508 1106.2 518.051
1325 0 61.3918 13.5523 832 60.5397 1106.29 517.46
1326 0 63.2473 14.1982 898 59.1849 1105.51 517.689
1327 0 66.1783 12.285 813 61.3001 1105.59 515.364
1328 0 66.2823 14.0611 932 59.9592 1106.08 515.967
1329 0 68.1792 13.5378 923 60.3077 1106.17 515.032
1330 0 72.2898 13.5427 979 59.5189 1106.74 515.388
1331 0 74.3613 13.7975 1026 60.2729 1106.44 511.297
1332 0 75.3106 14.3937 1084 59.2279 1106.02 513.576
1333 0 77.1802 12.8789 994 61.1127 1106.49 513.166
1334 0 80.134 11.8052 946 63.1966 1106.11 507.957
1335 0 81.4366 13.9618 1137 61.4635 1107.13 505.635
1336 0 85.2449 14.2413 1214 61.2002 1105.7 507.595
1337 0 87.2043 13.176 1149 62.309 1106.27 505.93
1338 0 88.2527 13.0194 1149 62.9739 1106.11 504.479
1339 0 92.2513 11.6638 1076 63.6571 1105.48 504.545
1340 1 51.0955 12.7017 649 62.188 1106.01 524.564
1341 0 50.287 13.5423 681 62.0191 1106.39 523.361
1342 0 53.3002 13.302 709 62.3554 1105.54 523.279
1343 0 57.2341 11.9334 683 63.4363 1106.53 521.631
1344 0 58.212 14.241 829 60.9023 1106.1 521.703
1345 0 60.2035 13.1055 789 62.5716 1106.65 519.501
1346 0 61.2348 12.1173 742 63.7453 1106.22 520.961
1347 0 66.202 13.7307 909 61.385 1105.94 518.006
1348 0 65.3288 13.3173 870 62.3586 1106.21 518.94
1349 0 68.1685 13.1292 895 62.6346 1106.58 516.969
1350 0 71.3975 13.2498 946 62.5 1105.72 515.416
1351 0 73.3655 12.7035 932 63.8101 1105.54 511.387
1352 0 76.2599 13.5851 1036 62.9913 1105.57 510.565
1353 0 77.2054 13.5224 1044 62.4732 1106.27 512.604
1354 0 81.2499 13.5139 1098 63.0574 1106.45 508.473
1355 0 82.2517 13.9572 1148 62.7491 1105.97 510.519
1356 0 89.4104 13.3094 1190 62.9252 1105.78 507.276
1357 0 89.1367 14.5843 1300 62.3546 1105.55 508.945
1358 1 47.3811 11.6502 552 64.933 1105.53 526.511
1359 0 51.1273 13.7109 701 61.3923 1105.55 526.967
1360 0 52.2974 11.9891 627 63.74 1105.6 524.388
1361 0 51.1948 12.4622 638 64.6802 1105.82 523.97
1362 0 58.1133 14.9535 869 60.5846 1105.28 523.712
1363 0 57.2046 13.5304 774 62.6085 1106.16 522.93
1364 0 61.3316 14.1689 869 61.1208 1105.41 520.844
1365 0 61.261 12.0795 740 63.1716 1105.33 521.291
1366 0 65.1855 13.6533 890 61.0888 1106.12 518.072
1367 0 66.2796 13.0357 864 61.5382 1105.81 520.058
1368 0 68.2123 12.5637 857 62.2847 1105.96 516.097
1369 0 70.2321 11.9888 842 63.1413 1105.76 514.21
1370 0 72.2732 12.5358 906 62.8278 1104.83 513.86
1371 0 75.2902 11.0904 835 64.5796 1105.25 512.72
1372 0 77.1208 13.0834 1009 62.3409 1105.86 512.517
1373 0 80.2064 13.2533 1063 61.9793 1105.82 511.468
1374 0 84.1971 15.1193 1273 59.5028 1106.33 509.169
1375 1 41.1685 9.71616 400 65.21 1106.35 527.412
1376 0 46.2737 12.3396 571 61.6497 1105.66 526.762
1377 0 47.1924 12.8199 605 61.8099 1105.24 525.767
1378 0 50.3619 11.4571 577 63.1438 1105.91 525.064
1379 0 54.0644 15.3336 829 45.7479 1105.28 525.358
1380 0 54.2813 12.6195 685 61.7635 1105.75 525.012
1381 0 55.224 14.0157 774 60.7054 1106.17 524.208
1382 0 56.0792 13.053 732 61.679 1106.42 524.507
1383 0 58.2252 14.0489 818 60.879 1106.33 521.87
1384 0 60.3268 13.2942 802 61.697 1106.26 520.372
1385 0 58.1057 12.2535 712 63.5407 1105.65 521.729
1386 0 61.0438 12.3682 755 63.7113 1106.73 516.73
1387 0 63.1555 12.0496 761 63.64 1105.94 516.807
1388 0 68.3034 13.4693 920 61.4174 1106.24 515.596
1389 0 70.1823 12.496 877 62.3136 1106.87 513.99
1390 0 73.1464 11.8666 868 62.7684 1106.4 512.114
1391 0 73.1142 13.3353 975 61.0687 1106.19 510.998
1392 0 80.3964 13.6449 1097 60.2361 1105.13 510.086
1393 0 79.1001 11.2389 889 63.5793 1105.59 509.298
1394 0 84.2105 14.2738 1202 60.0208 1105.54 505.916
1395 0 86.3577 11.9619 1033 62.2333 1106.01 506.248
1396 0 88.1226 13.6514 1203 60.7822 1106.44 502.027
1397 0 91.2038 11.4579 1045 62.7474 1106.83 503.634
1398 1 48.0662 12.3372 593 61.5261 1106.78 522.497
1399 0 51.2542 11.5503 592 62.3936 1106.07 520.779
1400 0 53.2739 12.8393 684 60.3582 1106.22 521.93
1401 0 52.0809 11.8662 618 62.2443 1105.96 517.107
1402 0 55.1211 11.8104 651 61.5161 1107.09 518.445
1403 0 56.0904 12.5868 706 61.1785 1106.79 516.021
1404 0 58.1738 10.0389 584 63.6575 1107.2 515.815
1405 0 60.119 13.2737 798 59.7657 1106.73 513.83
1406 0 62.2917 10.9003 679 62.352 1105.74 513.834
1407 0 65.1437 13.1248 855 59.3743 1105.66 515.271
1408 0 70.1546 13.1709 924 58.8506 1105.22 512.606
1409 0 69.0862 11.3626 785 60.8573 1105.62 511.345
1410 0 72.1976 12.2165 882 59.8515 1106.22 509.616
1411 0 76.1378 13.1472 1001 58.3327 1107.63 509.51
1412 0 76.1899 11.6945 891 60.321 1106.81 504.848
1413 0 81.121 13.6709 1109 57.7674 1106.65 504.031
1414 0 83.1393 11.2221 933 60.0129 1106.62 504.958
1415 0 89.1766 14.4545 1289 56.2389 1106.67 501.487
1416 0 91.1421 14.3622 1309 48.8167 1106.15 498.442
1417 0 94.1478 13.7125 1291 57.0403 1106.68 499.226
1418 1 54.1004 12.1811 659 57.9818 1106.29 517.73
1419 0 56.0637 12.2896 689 58.09 1106.36 516.27
1420 0 55.0805 11.2018 617 59.3096 1106.94 515.788
1421 0 58.0656 12.6925 737 57.3161 1106.6 515.315
1422 0 61.0215 14.4048 879 55.7054 1107.21 512.622
1423 0 64.0479 13.4587 862 56.239 1107.34 512.398
1424 0 65.0963 11.9669 779 57.3556 1106.39 512.664
1425 0 66.0179 12.8147 846 57.0508 1106.43 508.235
1426 0 72.0479 11.4923 828 57.5362 1106.63 508.504
1427 0 73.2056 11.2287 822 57.9343 1107.11 507.012
1428 0 76.0535 11.768 895 57.4793 1107.02 506.905
1429 0 79.1501 14.6683 1161 54.3221 1106.98 505.724
1430 0 79.2735 11.8198 937 57.4184 1107.15 504.364
1431 0 83.1102 13.1512 1093 56.4657 1106.88 499.179
1432 0 86.0903 12.7657 1099 56.5523 1106.82 500.679
1433 1 44.0281 10.9021 480 59.0583 1106.66 518.935
1434 0 48.0627 11.0689 532 57.5771 1106.8 520.816
1435 0 47.04 10.5655 497 59.7264 1106.91 517.716
1436 0 51.0852 12.1757 622 57.6093 1106.79 516.572
1437 0 51.0419 10.795 551 58.706 1107.31 516.265
1438 0 53.0301 10.4846 556 59.6025 1107.3 515.655
1439 0 56.0615 11.4874 644 58.6242 1106.96 513.921
1440 0 57.0908 13.2246 755 56.6225 1106.73 512.474
1441 0 59.0466 14.1244 834 56.024 1106.21 512.153
1442 0 60.0841 12.0831 726 58.8099 1106.01 508.719
1443 0 63.0362 13.2146 833 57.4454 1106.02 509.215
1444 0 63.0522 11.0385 696 59.8491 1105.5 507.488
1445 0 68.0637 13.1935 898 56.9755 1105.85 507.788
1446 0 68.0568 12.8128 872 58.0333 1106.3 505.075
1447 0 74.0616 12.5436 929 57.3262 1106.64 503.199
1448 0 75.0625 12.8293 963 57.4382 1106.45 501.56
1449 0 80.1659 13.1976 1058 56.5492 1106.55 501.953
1450 0 80.0603 13.5898 1088 56.6893 1106.33 500.461
1451 0 85.1323 13.0738 1113 56.7889 1107.52 499.51
1452 0 84.1612 12.4642 1049 58.1478 1106.1 496.934
1453 0 88.1266 11.631 1025 58.7171 1105.84 494.528
1454 1 46.0309 12.3395 568 56.1901 1104.79 517.336
1455 0 48.0798 12.4377 598 56.8278 1105.79 515.589
1456 0 49.0223 13.2593 650 55.4815 1105.86 515.477
1457 0 51.037 12.0109 613 56.8108 1105.93 513.171
1458 0 52.0632 11.7934 614 57.1629 1105.66 511.783
1459 0 56.0784 13.1067 735 55.3973 1105.11 511.478
1460 0 58.0926 13.4613 782 54.4463 1105.84 509.529
1461 0 59.0333 12.0271 710 56.1634 1105.85 507.894
1462 0 61.0511 13.415 819 54.4603 1105.83 509.085
1463 0 63.1382 11.8629 749 56.474 1105.48 507.669
1464 0 66.0565 12.9737 857 55.2847 1105.85 504.12
1465 0 65.1104 13.7305 894 55.0145 1106.74 505.318
1466 0 70.1054 10.8408 760 56.9816 1106.21 504.411
1467 0 72.1257 12.4644 899 55.1846 1106.79 504.275
1468 0 74.0748 11.0429 818 56.6663 1106.36 502.655
1469 0 77.0781 13.3371 1028 54.2909 1106.23 501.584
1470 0 78.1201 11.3799 889 56.5647 1105.68 497.481
1471 0 82.106 11.6191 954 55.8491 1106.32 501.631
1472 1 43.0182 7.99662 344 57.6802 1106.37 519.985
1473 0 44.0496 9.03526 398 56.7638 1106.1 520.317
1474 0 47.0369 11.3953 536 55.2817 1106.31 516.754
1475 0 49.0418 11.4188 560 55.1821 1105.79 518.421
1476 0 51.0254 13.5031 689 53.8258 1105.51 517.289
1477 0 51.097 11.7619 601 55.8186 1105.16 515.742
1478 0 56.0974 13.3161 747 53.5475 1105.78 516.517
1479 0 54.052 11.9144 644 55.7127 1105.93 512.07
1480 0 56.1433 12.3078 691 55.6454 1105.42 514.111
1481 0 60.0867 11.3336 681 56.0734 1105.68 512.006
1482 0 62.0522 12.8924 800 54.2562 1105.34 513.101
1483 0 64.1098 12.7126 815 54.6515 1104.7 510.432
1484 0 65.0782 14.4288 939 53.3578 1105.89 509.969
1485 0 68.1074 14.8148 1009 52.6848 1105.67 509.397
1486 0 69.0906 11.8395 818 55.9303 1105.69 504.869
1487 0 73.0904 14.2837 1044 53.2299 1105.21 506.522
1488 0 72.0827 12.0001 865 55.7445 1106.16 506.584
1489 0 80.1366 12.616 1011 54.5025 1105.86 505.257
1490 0 79.1154 11.6539 922 55.9111 1106.12 504.232
1491 0 83.0998 12.9362 1075 54.8735 1105.1 502.212
1492 0 82.1265 10.216 839 58.2825 1104.94 497.076
1493 0 89.1052 13.1979 1176 54.8231 1104.29 500.242
1494 0 90.144 12.957 1168 55.2449 1104 500.667
1495 0 91.0475 12.1805 1109 55.9396 1104.29 499.83
1496 1 46.0708 9.63734 444 56.8041 1105.2 519.858
1497 0 47.03 11.9498 562 55.1388 1105.08 519.23
1498 0 49.0895 11.1633 548 55.6131 1104.8 518.432
1499 0 52.0626 10.3529 539 56.6531 1105.65 517.787
1500 0 54.0526 9.91626 536 56.7071 1105.79 517.34
1501 0 55.1644 10.1152 558 56.6685 1105.96 515.993
1502 0 56.0318 11.4756 643 56.112 1105.86 514.523
1503 0 59.097 12.3357 729 54.9726 1105.65 513.421
1504 0 59.0744 12.5943 744 54.5538 1105.56 515.485
1505 0 63.0502 12.7993 807 54.5167 1105.36 511.563
1506 0 63.1406 12.2267 772 55.6904 1105.27 507.785
1507 0 67.0968 11.3567 762 56.1116 1105.19 511.202
1508 0 67.0397 13.0967 878 55.3838 1104.65 508.458
1509 0 70.0954 12.968 909 55.2684 1105.69 506.843
1510 0 76.1438 12.6997 967 54.9907 1105.14 509.081
1511 0 78.1387 11.2876 882 56.8821 1105.48 505.433
1512 0 76.0705 12.5804 957 56.233 1106.04 503.641
1513 0 81.1015 13.7852 1118 55.2093 1105.62 503.521
1514 0 83.0848 12.9747 1078 55.9694 1105.55 504.289
1515 0 87.2075 13.0149 1135 56.4467 1105.69 502.205
1516 0 91.0681 14.4288 1314 55.6393 1105.72 499.284
1517 0 92.22 12.9581 1195 57.2728 1106.08 498.79
1518 1 48.2055 11.5754 558 58.5036 1106.01 519.742
1519 0 50.0946 12.157 609 57.867 1105.81 519.292
1520 0 52.3122 14.1076 738 56.1707 1105.25 517.843
1521 0 53.1015 13.0128 691 57.712 1104.73 517.889
1522 0 56.0612 12.8788 722 57.5166 1105.43 516.924
1523 0 55.0476 11.481 632 59.5206 1104.69 513.323
1524 0 58.2219 11.9371 695 58.5597 1105.43 516.675
1525 0 63.2152 12.9557 819 57.6447 1104.51 513.615
1526 0 63.0916 13.314 840 58.0107 1105.98 513.29
1527 0 64.0924 13.1841 845 58.1207 1105.61 511.859
1528 0 67.0925 13.4292 901 57.3219 1106.2 513.044
1529 0 70.1648 13.9244 977 56.9652 1106.04 512.084
1530 0 71.0489 13.2022 938 58.3198 1105.54 510.01
1531 0 73.1516 13.7249 1004 58.009 1105.54 508.153
1532 0 76.0586 14.2785 1086 57.7624 1105.6 509.24
1533 0 80.1884 14.4659 1160 56.4362 1106.29 511.247
1534 0 80.3871 14.1316 1136 57.9868 1105.8 507.868
1535 0 83.1187 14.1244 1174 58.3441 1104.92 505.452
1536 0 86.0672 12.9318 1113 59.7179 1105.46 502.19
1537 0 88.101 13.598 1198 59.6052 1105.52 500.293
1538 0 92.2121 13.5991 1254 59.8517 1105.85 500.602
1539 1 50.1183 13.109 657 58.3486 1106.14 523.825
1540 0 51.1344 14.8628 760 57.5816 1105.87 521.703
1541 0 49.1392 13.8586 681 59.0793 1105.47 518.993
1542 0 52.2285 12.9431 676 60.1287 1104.54 518.871
1543 0 55.2108 13.0409 720 59.2931 1105.47 519.479
1544 0 56.1371 13.8767 779 59.0745 1105.38 516.721
1545 0 57.1712 13.8356 791 59.0683 1105.25 517.621
1546 0 59.1731 12.4212 735 60.7347 1106.66 514.537
1547 0 60.1294 11.575 696 61.9195 1106.04 512.915
1548 0 64.0526 13.4577 862 58.7993 1105.29 514.132
1549 0 65.1202 15.5098 1010 57.1356 1105.42 514.394
1550 0 67.1764 13.7846 926 58.9978 1105.95 512.421
1551 0 70.0523 15.1315 1060 58.0642 1105.02 509.177
1552 0 74.0294 14.0079 1037 59.0704 1105.43 510.95
1553 0 75.1291 14.3619 1079 58.7739 1105.47 508.424
1554 0 77.0841 16.3328 1259 57.2319 1105.62 507.927
1555 0 81.1317 13.9033 1128 59.7057 1104.98 506.697
1556 0 84.3192 14.9551 1261 58.54 1105.09 504.983
1557 0 87.1412 14.3216 1248 59.4335 1104.38 505.695
1558 0 89.1389 11.6784 1041 61.5946 1104.34 505.945
1559 0 92.1657 13.1394 1211 61.0826 1104.3 501.034
1560 0 95.1291 14.2438 1355 60.0775 1104.94 499.515
1561 0 100.208 16.855 1689 56.8579 1105.07 498.607
1562 1 50.1535 12.1627 610 60.7918 1105.36 522.148
1563 0 55.0891 15.8834 875 56.9029 1105.2 521.227
1564 0 55.2782 11.6863 646 61.4288 1105.33 521.006
1565 0 55.082 12.9262 712 61.2949 1105.01 518.862
1566 0 60.1805 12.0969 728 60.4574 1105.38 520.266
1567 0 60.16 13.9794 841 60.176 1105.5 515.026
1568 0 62.0905 13.6575 848 60.4304 1104.97 514.074
1569 0 66.0755 15.0283 993 57.7472 1105.15 516.014
1570 0 69.1445 13.9852 967 58.7921 1104.71 513.687
1571 0 69.2359 12.5657 870 61.3448 1104.49 511.63
1572 0 76.2384 14.1267 1077 58.1495 1104.94 512.395
1573 0 75.187 14.843 1116 58.5063 1105.31 512.207
1574 0 79.0928 14.818 1172 58.0776 1104.75 510.485
1575 0 80.2783 15.1224 1214 57.9242 1104.25 508.741
1576 0 82.1856 10.7926 887 62.8467 1104.87 506.966
1577 0 86.2683 13.771 1188 60.1726 1104.78 502.684
1578 0 88.2117 13.4676 1188 60.3906 1105.09 506.382
1579 0 91.1674 12.6361 1152 62.0504 1104.93 501.497
1580 0 95.2767 12.0071 1144 62.3374 1104.21 498.688
1581 0 97.149 13.5771 1319 61.1994 1104.57 497.083
1582 0 100.233 12.9997 1303 61.0138 1104.48 500.463
1583 1 54.0501 11.9889 648 61.0602 1105.05 520.09
1584 0 55.1483 12.6386 697 61.1478 1104.14 518.211
1585 0 57.1217 12.4121 709 61.4584 1104.01 517.709
1586 0 59.3286 12.7932 759 60.9895 1105.03 516.165
1587 0 62.0811 13.5468 841 59.3008 1105.4 517.132
1588 0 61.2004 13.4803 825 60.2958 1104.88 514.422
1589 0 63.1301 13.6702 863 59.2549 1104.43 516.188
1590 0 66.1726 13.6612 904 59.135 1104.92 512.871
1591 0 68.1643 14.0543 958 58.9729 1105.08 512.451
1592 0 70.0638 13.0024 911 60.0538 1104.09 444.135
1593 0 71.0849 12.1826 866 61.1432 1104.92 445.374
1594 0 73.2108 12.3616 905 61.3624 1104.24 447.255
1595 0 75.1387 10.82 813 62.7774 1104.28 450.538
1596 0 80.1093 13.5315 1084 59.9327 1103.96 451.107
1597 0 82.1647 11.9759 984 61.5305 1103.54 454.671
1598 0 86.259 13.4131 1157 60.2014 1103.08 453.399
1599 0 86.0924 10.872 936 63.1464 1102.69 454.441
1600 0 90.1073 12.5406 1130 61.7752 1102.93 451.491
1601 0 93.1836 10.8817 1014 63.4527 1104.16 454.018
1602 0 99.2416 12.7366 1264 60.7563 1103.93 453.713
1603 0 100.09 12.4887 1250 61.3192 1104.19 451.657
1604 1 54.0466 9.82485 531 62.7646 1104.31 473.635
1605 0 58.0384 12.5951 731 59.8851 1104.04 476.802
1606 0 58.0941 12.6175 733 60.4448 1105.48 475.24
1607 0 60.1094 11.7619 707 61.1188 1105.04 474.799
1608 0 63.0325 12.8029 807 59.6691 1105.09 475.23
1609 0 65.0541 12.9892 845 59.9657 1105.25 472.986
1610 0 67.0876 12.5358 841 60.2164 1105.2 471.854
1611 0 69.0736 11.3792 786 61.8168 1105.89 472.107
1612 0 71.0924 11.6046 825 61.5479 1105.5 468.497
1613 0 75.0538 10.7256 805 61.2696 1105.2 474.036
1614 0 77.0965 11.8034 910 61.2923 1104.95 464.78
1615 1 64.0926 7.13031 457 66.8096 1105.13 456.278
1616 0 69.1807 7.19854 498 68.6787 1104.34 400.478
1617 0 71.069 4.36196 310 72.0226 1104.7 403.516
1618 1 120.184 4.64288 558 73.9444 1104.71 407.446
1619 0 124.089 2.41763 300 73.5933 1104.85 437.743
1620 1 3 3.66667 11 55.8182 1105.09 429.455
1621 1 55.0228 9.63237 530 65.4491 1104.24 455.194
1622 0 56.0313 8.1383 456 67.5 1105.47 455.32
1623 0 58.0992 12.3237 716 64.081 1104.82 453.677
1624 0 59.0815 9.34302 552 66.6685 1104.74 451.226
1625 0 63.0481 10.833 683 65.6501 1104.26 446.878
1626 1 88.128 6.83097 602 68.9535 1105.8 456.409
1627 0 86.1311 4.93434 425 71.6588 1104.81 447.468
1628 0 90.0939 2.88588 260 73.9538 1105.54 450.069
1629 1 73.0414 11.6099 848 64.8526 1104.07 435.475
1630 0 76.0253 11.7724 895 64.7609 1104.08 431.187
1631 0 75.0887 11.0536 830 66.5446 1104 426.19
1632 0 80.1459 10.3187 827 67.3168 1103.46 421.207
1633 0 71.0991 12.3911 881 59.4801 1104.95 497.009
1634 0 74.1357 13.5427 1004 57.7301 1104.95 499.081
1635 0 75.0842 13.4516 1010 58.7842 1105.41 493.524
1636 0 79.0942 12.4914 988 60.0071 1105.65 492.027
1637 0 83.2345 11.6298 968 60.9504 1105.21 491.653
1638 0 83.0835 12.349 1026 61.0712 1106.42 490.325
1639 0 86.0462 12.0517 1037 61.4908 1106.11 486.716
1640 0 91.1072 12.8969 1175 60.0511 1106.03 488.808
1641 1 51.0619 10.8692 555 60.0757 1106.73 507.886
1642 0 51.0833 10.6297 543 61.5157 1106.38 507.58
1643 0 52.0934 10.27 535 61.5608 1106.06 508.215
1644 0 56.0644 11.2728 632 60.5253 1106 505.38
1645 0 60.116 10.6461 640 60.7078 1106.37 506.095
1646 0 59.0243 11.4699 677 60.743 1106.73 502.855
1647 0 61.1939 12.1417 743 60.2732 1106.61 502.182
1648 0 62.0429 11.5243 715 61.5161 1106.51 502.011
1649 0 63.1285 11.1994 707 61.4003 1106.29 502.909
1650 0 67.0795 12.4777 837 60.3357 1107.1 497.811
1651 0 70.1241 12.2925 862 60.0139 1107.15 499.592
1652 0 72.1065 12.745 919 59.3112 1106.13 499.307
1653 0 73.142 12.8927 943 60.5822 1104.71 495.261
1654 0 75.1561 12.2412 920 60.9413 1104.75 498.171
1655 0 77.0856 12.298 948 61.6371 1104.76 494.722
1656 0 81.159 11.1386 904 62.8219 1105.08 493.165
1657 0 83.1254 11.2721 937 62.8741 1105.01 492.08
1658 0 87.1195 12.4312 1083 61.2742 1105.7 489.74
1659 0 87.2766 10.0256 875 64.1554 1105.65 489.902
1660 1 47.0858 12.1056 570 60.8333 1106.68 509.433
1661 0 49.2294 11.6597 574 60.7718 1105.99 508.937
1662 0 49.0637 9.80358 481 64.0998 1106.2 505.998
1663 0 52.0586 12.0057 625 61.008 1105.79 505.01
1664 0 54.0828 11.316 612 61.8742 1106.06 505.547
1665 0 54.0689 10.5791 572 62.7587 1104.91 505.052
1666 0 56.0865 11.0722 621 62.2721 1106.08 504.979
1667 0 57.1574 11.932 682 61.739 1105.95 503.158
1668 0 60.0816 13.1488 790 59.5481 1106.6 502.314
1669 0 60.0663 10.6382 639 62.457 1105.94 500.495
1670 0 64.0975 12.2158 783 60.8008 1105.86 496.037
1671 0 66.13 12.6267 835 59.6347 1104.98 494.814
1672 0 69.0762 13.5647 937 58.3479 1105.54 492.756
1673 0 67.1336 11.7527 789 60.9075 1105.63 493.577
1674 0 70.1168 11.0102 772 61.9171 1104.89 492.065
1675 0 74.0786 11.0423 818 61.5782 1105.37 492.619
1676 0 76.0998 12.8384 977 59.914 1105.06 490.403
1677 0 78.1093 10.7926 843 61.9395 1105.88 489.773
1678 0 82.1938 13.6628 1123 57.5886 1105.97 490.625
1679 0 84.1151 12.899 1085 59.259 1106.09 485.347
1680 0 88.1218 12.1082 1067 59.6532 1105.47 485.23
1681 0 90.3238 11.7909 1065 60.0225 1104.6 483.741
1682 0 92.2032 13.3509 1231 59.1722 1104.04 477.019
1683 0 97.2379 12.5774 1223 59.7392 1104.72 478.749
1684 1 46.126 10.558 487 60.3429 1105.26 504.226
1685 0 46.0846 8.57119 395 62.8481 1104.75 502.122
1686 0 48.1453 9.78289 471 60.9066 1105.48 502.308
1687 0 50.0873 11.0208 552 60.3152 1106.09 500.534
1688 0 53.0423 10.5576 560 60.4161 1105.36 500.332
1689 0 55.0723 12.7287 701 58.281 1105.1 495.659
1690 0 55.0405 11.2099 617 60.3047 1104.77 497.806
1691 0 55.1165 10.4687 577 61.5598 1105.48 496.189
1692 0 59.1525 12.1719 720 59.2708 1105.03 494.426
1693 0 61.0943 12.047 736 59.1848 1105.5 495.321
1694 0 63.0671 12.1141 764 59.1008 1104.77 495.013
1695 0 64.0958 12.5593 805 58.995 1105.26 494.693
1696 0 63.055 11.9895 756 60.4365 1105.2 494.05
1697 0 66.1224 13.354 883 58.8573 1105.55 492.395
1698 0 67.0766 10.6893 717 62.364 1104.9 492.478
1699 0 71.1062 13.8947 988 58.1376 1105.08 489.254
1700 0 72.107 13.1333 947 59.9345 1104.99 489.318
1701 0 76.1183 13.7286 1045 59.0842 1105.36 487.262
1702 0 78.1295 11.3913 890 61.6315 1105.65 489.52
1703 0 81.1715 13.6255 1106 59.5398 1105.87 485.7
1704 0 83.0941 12.9371 1075 60.0474 1105.38 486.497
1705 0 87.154 13.2983 1159 59.2856 1105.35 486.676
1706 0 88.1662 13.0322 1149 60.3499 1103.68 484.179
1707 0 90.1414 12.1698 1097 61.0228 1105.94 485.206
1708 0 93.1791 13.4043 1249 59.7886 1105.16 479.356
1709 0 97.2057 12.0158 1168 60.7902 1104.83 482.015
1710 1 52.1136 10.4771 546 60.489 1105.54 504.231
1711 0 53.1474 10.8942 579 60.8014 1105.66 502.651
1712 0 55.0775 10.9301 602 61.3455 1105.27 501.683
1713 0 56.1629 12.624 709 59.5346 1105.2 501.587
1714 0 57.0652 11.5657 660 61.0939 1105.38 500.115
1715 0 59.1198 11.2314 664 60.9021 1104.64 500.538
1716 0 62.1333 12.2479 761 60.6045 1104.08 497.572
1717 0 64.1439 13.08 839 59.3838 1105.74 498.415
1718 0 66.1164 12.0091 794 61.0856 1104.95 495.738
1719 0 69.1254 12.065 834 60.9964 1105.47 496.745
1720 0 69.1044 13.3421 922 60.4002 1104.92 492.661
1721 0 74.1207 14.8002 1097 58.0966 1104.65 494.392
1722 0 77.122 15.093 1164 57.6392 1104.76 494.171
1723 0 78.2547 12.7788 1000 61.328 1104.22 491.899
1724 0 82.1496 13.8406 1137 59.9789 1104.62 491.82
1725 0 84.1374 13.5968 1144 60.4519 1104.92 492.311
1726 0 85.1431 13.6124 1159 61.1372 1104.84 490.242
1727 0 87.1203 13.2461 1154 62.1551 1105.46 488.895
1728 0 89.1337 11.7464 1047 64.4632 1104.37 489.344
1729 0 93.1973 13.9596 1301 62.1576 1104.9 486.221
1730 0 98.2735 14.9786 1472 60.9837 1105.32 485.942
1731 1 51.0916 10.765 550 62.1291 1105.43 511.949
1732 0 52.0994 11.8811 619 62.3538 1105.68 507.758
1733 0 54.117 12.4545 674 62.3887 1106.27 506.049
1734 0 55.071 12.6382 696 62.1624 1106.09 507.036
1735 0 56.111 12.1545 682 63.6701 1105.95 504.988
1736 0 58.0566 12.5395 728 63.2115 1105.21 504.643
1737 0 60.1542 13.2991 800 61.9225 1105.44 503.678
1738 0 61.1253 12.5643 768 63.0911 1104.7 503.448
1739 0 62.0751 12.0016 745 63.2738 1106.01 504.954
1740 0 66.0903 12.256 810 63.6444 1105.94 502.431
1741 0 69.1277 13.1785 911 62.3019 1105.45 501.594
1742 0 68.1784 13.45 917 63.3032 1104.79 500.019
1743 0 70.224 12.8731 904 62.7942 1105.39 501.159
1744 0 74.1728 13.0102 965 63.0674 1105.83 499.265
1745 0 76.0963 12.4316 946 64.0423 1105.49 496.878
1746 0 79.137 12.0424 953 64.9129 1105.82 495.191
1747 0 80.148 12.0153 963 65.4714 1105.21 494.728
1748 0 83.1747 13.3214 1108 63.4088 1104.87 492.696
1749 0 83.1747 13.3214 1108 140.051 1103.87 492.769
1750 0 89.1445 12.9453 1154 64.5503 1105.03 490.127
1751 0 90.0679 11.1138 1001 66.972 1105.13 489.095
1752 1 50.1544 9.47075 475 65.9284 1106.4 510.282
1753 0 51.1526 10.6153 543 63.8066 1106.29 510.192
1754 0 53.1762 11.208 596 63.6208 1106.86 507.475
1755 0 53.1261 9.97627 530 66.2226 1105.92 507.102
1756 0 55.2914 10.5984 586 64.8976 1105.75 505.792
1757 0 58.1836 11.6871 680 62.7294 1105.85 506.381
1758 0 61.2019 10.8983 667 63.6657 1105.69 504.706
1759 0 61.2673 10.5113 644 64.6398 1105.09 502.135
1760 0 62.2318 9.65744 601 65.1398 1105.16 502.772
1761 0 64.2318 10.5399 677 64.4845 1105.29 498.651
1762 0 65.115 11.5949 755 63.0768 1104.79 499.897
1763 0 71.1138 10.8418 771 63.2218 1105.83 498.193
1764 0 72.1353 10.1476 732 64.9836 1106.32 494.988
1765 0 75.0392 11.5273 865 63.2289 1106.39 495.431
1766 0 76.0923 11.6963 890 63.782 1106.22 491.317
1767 0 76.1048 11.1294 847 64.68 1105.88 493.651
1768 0 81.1528 11.8788 964 63.6432 1105.26 491.56
1769 0 85.0856 11.083 943 64.8049 1105.71 489.96
1770 1 42.2175 9.52212 402 66.1841 1106.07 510.609
1771 0 42.1071 8.71587 367 68.1771 1106.38 509.744
1772 0 48.1074 12.4721 600 62.0717 1106.07 508.523
1773 0 48.178 9.11205 439 67.0729 1105.95 508.765
1774 0 50.1053 11.3561 569 64.0141 1106.95 507.603
1775 0 51.0789 10.8264 553 65.6148 1105.59 506.615
1776 0 53.044 11.9335 633 65.4455 1106.14 504.142
1777 0 55.0837 11.4008 628 65.25 1106.29 503.658
1778 0 55.0637 10.8965 600 67.6267 1105.34 501.04
1779 0 57.0834 11.8774 678 65.8127 1105.96 501.034
1780 0 60.0919 11.4491 688 65.5494 1106.53 500.533
1781 0 63.172 11.3183 715 65.1259 1106.17 500.978
1782 0 64.1146 12.3529 792 64.7992 1105.86 494.943
1783 0 64.1818 10.8909 699 66.5722 1104.97 493.113
1784 0 69.1883 12.1697 842 64.0582 1106.02 494.071
1785 0 71.0902 11.7175 833 64.4526 1105.73 495.263
1786 0 73.3284 12.0281 882 64.4921 1105.09 489.984
1787 0 75.0959 11.7583 883 65.2831 1105.6 488.255
1788 0 79.3036 13.5933 1078 61.423 1106 489.458
1789 0 82.2638 12.5693 1034 63.1857 1105.46 487.84
1790 0 83.1518 11.1122 924 65.3366 1105.06 483.552
1791 0 85.2342 11.9201 1016 64.689 1105.26 483.424
1792 0 90.1588 12.1896 1099 63.768 1104.66 483.218
1793 0 92.2132 11.8313 1091 64.6893 1104.43 482.428
1794 1 47.249 11.1537 527 65.0968 1104.37 501.48
1795 0 47.1436 10.7756 508 66.3681 1105.79 500.945
1796 0 55.1656 12.9428 714 61.5854 1105.83 502.322
1797 0 54.082 12.5735 680 63.2985 1105.88 500.615
1798 0 55.1083 12.0853 666 64.0015 1105.44 500.417
1799 0 56.092 11.8912 667 64.3538 1105.57 497.753
1800 0 59.0915 12.066 713 64.1445 1104.92 497.712
1801 0 61.0938 11.8506 724 64.3356 1104.48 498.006
1802 0 63.1554 12.0971 764 64.4437 1105.18 497.606
1803 0 65.1252 11.6084 756 65.0476 1105.49 496.765
1804 0 66.0681 13.6375 901 62.8313 1105.88 495.279
1805 0 69.1526 13.2461 916 62.9225 1105.71 495.545
1806 0 72.2263 14.0531 1015 61.7478 1105.87 493.623
1807 0 73.1279 12.4029 907 63.9735 1105.44 492.879
1808 0 74.0833 13.7143 1016 62.6211 1105.5 494.006
1809 0 75.106 11.8499 890 65.5742 1105.44 492.322
1810 0 79.1346 12.4092 982 65.058 1105.78 491.544
1811 0 80.0782 13.2371 1060 64.4226 1106.44 488.836
1812 0 82.0835 14.2903 1173 62.8832 1106.12 488.545
1813 0 85.125 12.9222 1100 64.8755 1105.4 490.17
1814 0 89.2705 12.927 1154 64.8102 1105.62 489.018
1815 0 90.1369 14.245 1284 63.9369 1105.15 486.017
1816 0 93.0856 14.7069 1369 63.2447 1105.18 484.747
1817 0 96.2208 13.6977 1318 64.7648 1104.61 483.724
1818 1 51.0725 11.3368 579 65.5389 1105.8 507.637
1819 0 53.0763 12.077 641 65.8112 1105.66 505.119
1820 0 54.1038 11.4225 618 66.8981 1106 503.364
1821 0 56.0728 11.8239 663 67.1056 1105.77 502.036
1822 0 57.0854 11.2638 643 67.619 1106.04 501.227
1823 0 58.0504 12.8164 744 66.0901 1105.06 500.847
1824 0 61.0817 11.7384 717 66.1269 1106.13 502.395
1825 0 64.0557 12.5828 806 65.2196 1105.76 499.036
1826 0 65.1819 12.3194 803 65.609 1105.51 497.677
1827 0 67.1367 13.6587 917 64.2301 1105.8 494.033
1828 0 69.1701 12.6066 872 65.3028 1105.77 494.549
1829 0 71.0825 12.2393 870 65.4851 1105.34 497.78
1830 0 73.1187 12.3908 906 66.0861 1104.79 494.948
1831 0 77.1115 12.7867 986 64.9615 1105.24 494.641
1832 0 78.0652 12.6689 989 65.2356 1105.85 494.589
1833 0 82.0684 12.9892 1066 65.1126 1105.15 493.027
1834 0 85.1118 12.0195 1023 65.8944 1104.96 493.154
1835 0 87.1794 13.9712 1218 64.252 1103.78 490.568
1836 0 87.1275 12.3038 1072 67.6744 1104.35 488.397
1837 1 48.1355 9.78488 471 68.8026 1104.36 507.792
1838 0 50.0898 11.16 559 66.6154 1105.55 508.497
1839 0 51.0683 12.0623 616 66.6494 1105.16 508.701
1840 0 54.0618 12.6337 683 65.3763 1105.49 508.426
1841 0 56.067 13.2877 745 64.0403 1105.33 507.431
1842 0 57.0502 13.5845 775 64.0968 1104.66 505.582
1843 0 57.1137 12.1862 696 66.4353 1104.64 505.027
1844 0 58.1161 12.0621 701 67.1854 1104.68 503.444
1845 0 59.1836 11.5573 684 68.0585 1104.52 504.431
1846 0 62.2172 12.81 797 66.1481 1104.72 502.604
1847 0 64.0689 12.6426 810 66.9235 1103.68 499.699
1848 0 67.1399 10.5452 708 69.2415 1103.5 501.017
1849 0 68.1541 13.1907 899 66.0901 1104.15 500.014
1850 0 70.1413 11.0634 776 69.5515 1104.32 499.161
1851 0 71.1007 11.7158 833 69.0312 1104.36 498.567
1852 0 75.1238 13.2847 998 65.6533 1104.58 499.285
1853 0 75.1794 11.1334 837 69.4086 1104.97 494.959
1854 0 79.1985 11.8689 940 68.8649 1104.18 493.765
1855 0 83.2329 12.2788 1022 67.7789 1104.78 494.019
1856 0 85.2418 12.1889 1039 67.9682 1104.18 494.479
1857 0 86.428 12.1836 1053 68.5252 1104.34 492.518
1858 1 43.0364 9.15504 394 70.1142 1105.3 515.114
1859 0 46.0695 10.0717 464 68.5539 1104.85 512.963
1860 0 45.0432 10.0792 454 70.163 1104.86 512.143
1861 0 49.0473 11.8457 581 67.0706 1104.05 511.554
1862 0 49.0705 11.8197 580 68.2345 1104.98 509.019
1863 0 53.0852 12.1126 643 66.9829 1105.35 510.485
1864 0 54.0659 12.5403 678 66.1254 1105.81 507.975
1865 0 56.1306 12.079 678 66.5487 1105.18 506.857
1866 0 58.1206 12.5257 728 65.5398 1105.19 509.493
1867 0 60.1436 12.387 745 65.6094 1105.37 507.961
1868 0 61.1024 10.687 653 67.7427 1104.39 506.986
1869 0 62.132 11.8136 734 66.5913 1104.55 504.164
1870 0 67.1253 12.0372 808 65.3515 1105.47 503.776
1871 0 69.2442 13.3585 925 63.2757 1105.28 502.666
1872 0 68.1392 11.7847 803 66.6339 1105.03 499.375
1873 0 71.0786 11.7053 832 66.4123 1105.68 496.725
1874 0 73.0645 12.4684 911 65.5038 1105.26 494.864
1875 0 75.102 10.6788 802 67.5711 1105.24 495.43
1876 0 79.1661 11.6211 920 66.1728 1104.72 491.822
1877 0 80.0537 13.6533 1093 63.9341 1104.91 489.225
1878 1 38.0227 8.20562 312 70.9519 1104.76 508.468
1879 0 40.0323 8.44318 338 69.9172 1105.92 510.932
1880 0 43.0122 10.7644 463 67.067 1105.92 509.49
1881 0 45.0221 9.48424 427 69.2529 1105.41 506.941
1882 0 40.0322 4.37149 175 75.7829 1105.53 502.829
1883 0 38.0299 4.39128 167 73.7186 1105.83 497.437
1884 0 35.023 8.13752 285 72.0807 1105.91 499.028
1885 0 39.0089 7.63928 298 72.1879 1105.55 498.463
1886 1 52.0223 10.7838 561 68.1408 1104.7 452.442
1887 0 56.0625 11.398 639 67.7136 1104.25 446.599
1888 0 57.0344 9.52058 543 69.8711 1103.91 442.976
1889 0 58.0783 10.6925 621 68.3607 1104.71 440.594
1890 0 61.0685 11.7082 715 66.579 1104.56 437.648
1891 0 63.0502 10.563 666 67.8889 1103.77 435.845
1892 0 66.1138 12.1004 800 65.4688 1103.59 432.631
1893 0 55.1456 7.18099 396 72.7677 1104.25 429.177
1894 0 59.137 8.57332 507 71.357 1105.03 429.734
1895 0 54.0307 7.47723 404 72.3663 1104.75 427.663
1896 0 51.0159 7.13503 364 70.5659 1104.54 431.541
1897 1 40.0661 7.21308 289 70.955 1105.43 464.374
1898 0 44.0656 9.50855 419 68.7232 1104.91 465.126
1899 0 44.0267 7.74531 341 70.8651 1104.43 460.516
1900 0 46.1044 10.8233 499 66.026 1105.84 507.439
1901 0 48.0907 11.4159 549 65.8506 1105.73 504.8
1902 0 50.0511 11.8279 592 64.9189 1105.62 504.159
1903 0 51.0412 11.8532 605 65.2975 1104.9 503.19
1904 0 53.0762 13.4147 712 62.6924 1104.29 502.093
1905 0 54.1115 12.9362 700 63.1914 1104.5 503.611
1906 0 58.0526 12.9538 752 62.137 1104.82 502.568
1907 0 60.0419 14.5565 874 60.2815 1105.09 500.442
1908 0 59.131 11.1786 661 65.3601 1105.41 499.619
1909 0 59.0865 11.5086 680 64.8529 1104.65 497.912
1910 0 64.0865 12.9669 831 62.5921 1104.84 496.462
1911 0 66.1045 13.5694 897 60.9554 1104.57 497.293
1912 0 67.0424 11.9924 804 63.2711 1104.54 493.433
1913 0 69.0809 13.1585 909 61.8801 1104.51 494.829
1914 0 74.1641 12.5802 933 61.7749 1104.62 493.614
1915 0 73.1571 12.2203 894 63.0168 1104.99 491.224
1916 0 79.0992 12.5159 990 61.3394 1105.77 492.766
1917 0 80.1053 13.5696 1087 60.5373 1105.8 492.509
1918 0 84.0965 14.412 1212 59.2186 1104.98 488.672
1919 0 87.0851 14.4456 1258 59.1534 1105.49 488.95
1920 1 43.0489 10.4997 452 63.9823 1106 507.571
1921 0 45.0562 10.6756 481 63.3846 1105.32 507.306
1922 0 48.1156 11.4308 550 62.2891 1105.13 506.069
1923 0 51.0573 11.9278 609 62.2036 1105.43 504.552
1924 0 49.0712 11.575 568 63.7535 1105.31 504.887
1925 0 53.1044 13.1439 698 61.2564 1105.9 503.652
1926 0 55.1083 11.2143 618 63.8528 1105.37 504.207
1927 0 57.0721 12.125 692 61.5506 1104.94 506.027
1928 0 58.0479 11.8695 689 63.3425 1105.25 502.202
1929 0 61.1001 15.9083 972 57.5895 1105.43 501.639
1930 0 62.0579 13.6163 845 60.7538 1104.82 501.849
1931 0 64.1595 11.9078 764 63.0628 1104.71 500.107
1932 0 62.1033 11.4809 713 63.9215 1104.31 500.017
1933 0 67.0499 12.7219 853 62.2474 1105.69 498.692
1934 0 68.039 12.5957 857 62.224 1104.61 499.519
1935 0 69.0862 13.7944 953 61.3137 1105.02 498.304
1936 0 73.0355 14.2533 1041 60.1086 1105.32 497.105
1937 0 76.1369 13.7778 1049 60.2479 1104.91 497.046
1938 0 76.073 12.7115 967 62.3712 1104.35 496.734
1939 0 81.2163 12.4975 1015 62.1911 1104.58 494.146
1940 0 82.1719 13.2405 1088 61.6415 1104.18 493.976
1941 0 83.1407 11.6549 969 64.3457 1104.8 491.352
1942 0 89.102 12.4464 1109 62.8215 1104.11 491.998
1943 0 92.0622 12.1657 1120 63.2625 1103.64 492.578
1944 1 49.1197 12.0318 591 63.1269 1103.89 511.604
1945 0 49.0552 11.5176 565 64.1805 1103.41 510.522
1946 0 51.0657 11.7887 602 64.3804 1103.21 509.865
1947 0 56.0525 12.3456 692 62.7153 1103.55 508.851
1948 0 54.017 11.7185 633 64.6509 1103.11 507.376
1949 0 56.0701 11.6105 651 64.9862 1102.94 506.889
1950 0 58.0496 12.4893 725 62.9324 1103 507.407
1951 0 58.1359 12.316 716 64.9749 1102.02 503.102
1952 0 61.1572 11.6912 715 64.6797 1102.08 503.912
1953 0 63.1389 11.8469 748 64.8048 1101.28 501.155
1954 0 65.1116 11.5033 749 64.9733 1102.69 502.737
1955 0 69.1188 13.3683 924 62.1364 1102.66 501.723
1956 0 69.0782 12.5944 870 63.8402 1102.86 499.098
1957 0 73.062 13.7554 1005 62.2119 1102.5 497.872
1958 0 72.0852 12.9291 932 64.1749 1102.29 495.082
1959 0 76.1053 14.0463 1069 62.5547 1101.9 496.489
1960 0 80.1105 13.6436 1093 62.731 1102.89 492.27
1961 0 81.0796 12.6542 1026 64.2534 1103.16 493.264
1962 0 82.1127 11.7156 962 65.6518 1102.71 491.828
1963 0 86.0912 14.9493 1287 61.9464 1102.95 488.364
1964 0 89.1043 12.9736 1156 63.9585 1103.07 489.056
1965 0 90.0993 12.4529 1122 65.3218 1103.02 483.579
1966 0 94.1072 12.762 1201 64.8676 1103.47 485.575
1967 1 48.0369 10.6377 511 65.8865 1104.2 506.166
1968 0 52.0623 10.0072 521 65.5662 1104.31 506.44
1969 0 50.0368 10.7121 536 65.6063 1104.58 506.957
1970 0 51.0994 10.5481 539 66.4063 1104.7 505.627
1971 0 52.0427 10.3569 539 66.9035 1104.91 503.952
1972 0 56.0354 11.4035 639 65.3208 1104.52 502.52
1973 0 57.0538 11.3928 650 65.8431 1103.75 501.058
1974 0 60.0343 12.8593 772 63.1399 1104.66 501.495
1975 0 64.1153 11.9472 766 63.6371 1104.5 500.804
1976 0 64.1079 11.3246 726 64.9435 1104.41 498.916
1977 0 64.0398 10.6028 679 66.6171 1104.47 497.097
1978 0 68.1147 11.7302 799 64.5494 1104.4 496.976
1979 0 71.1833 12.2079 869 64.0541 1104.81 494.898
1980 0 73.1257 11.8426 866 64.4261 1105.26 493.517
1981 0 78.1195 12.7241 994 63.1066 1104.96 491.631
1982 0 77.0556 12.0952 932 64.7103 1104.46 491.543
1983 0 82.0768 13 1067 62.9428 1105.27 490.177
1984 0 84.1562 12.5006 1052 64.0903 1104.41 486.466
1985 1 40.0253 10.9181 437 62.6133 1105.65 509.503
1986 0 43.0562 11.2179 483 61.9979 1105.36 508.81
1987 0 44.0413 10.5129 463 63.946 1105.68 506.844
1988 0 44.0678 10.0981 445 64.4944 1105.19 505.665
1989 0 49.0517 10.1933 500 63.468 1105.21 505.104
1990 0 49.0874 10.4915 515 63.1049 1106.41 504.61
1991 0 50.1024 11.3567 569 62.8559 1105.55 503.689
1992 0 52.0991 12.4954 651 61.7972 1105.56 502.786
1993 0 52.0628 10.7754 561 63.5615 1105.77 503.791
1994 0 53.0737 10.6267 564 63.156 1106.47 502.507
1995 0 56.1523 12.7154 714 61.056 1106.45 501.361
1996 0 56.0648 10.7376 602 64.2924 1105.1 498.877
1997 0 60.2113 12.4063 747 61.083 1104.99 499.042
1998 0 60.1755 10.835 652 63.7193 1104.69 497.586
1999 0 64.0825 11.8285 758 61.9261 1105.51 496.108
2000 0 65.0572 14.1414 920 59.6098 1105.43 493.947
2001 0 66.128 10.4948 694 63.8314 1104.81 494.118
2002 0 70.1165 11.8232 829 61.6321 1104.88 495.894
2003 0 72.0791 11.3209 816 62.6409 1103.99 491.587
2004 1 36.0255 7.99433 288 65.6632 1104.6 509.969
2005 0 40.1689 11.2276 451 59.2816 1106.05 513.162
2006 0 40.1015 11.446 459 60.9564 1105.61 510.135
2007 0 41.1717 11.6342 479 60.5261 1105.57 509.434
2008 0 43.3112 10.921 473 61.2981 1105.56 509.355
2009 0 43.0917 10.3964 448 62.4688 1105.42 508.996
2010 0 43.181 10.7455 464 62.334 1104.88 508.688
2011 0 47.1515 10.1587 479 62.9687 1104.26 507.392
2012 0 48.1136 11.0156 530 62.1736 1103.15 507.583
2013 0 50.3967 9.94112 501 62.9321 1104.02 506.339
2014 0 50.2598 12.3956 623 60.3066 1104.18 505.101
2015 0 52.1485 10.6043 553 62.0705 1103.96 506.374
2016 0 54.2387 10.97 595 61.3395 1104.45 505.292
2017 0 53.1927 9.92617 528 63.8352 1103.2 503.941
2018 0 56.1833 12.0321 676 60.8092 1102.97 502.754
2019 0 58.152 12.2782 714 60.5798 1103.47 501.535
2020 0 57.1345 9.66141 552 64.317 1103.93 502.551
2021 0 63.0926 12.6798 800 59.8475 1104.03 501.149
2022 0 63.0963 10.4127 657 63.3699 1104.31 498.843
2023 0 66.112 11.4049 754 61.866 1104.02 499.265
2024 0 68.0955 10.5734 720 62.9097 1103.9 496.899
2025 0 70.1586 12.8993 905 59.7812 1104.1 496.686
2026 1 36.083 9.92158 358 61.4944 1105.68 516.006
2027 0 35.1491 9.50237 334 63.3832 1105.24 515.686
2028 0 36.0385 9.76734 352 63.446 1104.63 515.074
2029 0 37.0801 10.6796 396 62.4419 1104.63 513.806
2030 0 41.1357 13.3704 550 58 1105.23 513.065
2031 0 39.1264 10.9134 427 62.5902 1104.97 513.543
2032 0 41.046 9.2579 380 64.721 1104.58 512.729
2033 0 45.0493 11.2321 506 61.1087 1104.61 512.405
2034 0 42.0979 10.2855 433 63.5497 1104.39 511.275
2035 0 46.1843 11.151 515 62.3068 1104.73 510.379
2036 0 46.1844 10.7829 498 62.4859 1102.95 509.833
2037 0 47.08 10.7264 505 63 1103.09 510.891
2038 0 48.1776 11.084 534 63.1124 1103.85 508.03
2039 0 50.0729 10.305 516 63.8392 1104.8 509.085
2040 0 52.2414 12.1934 637 61.7912 1104.49 507.061
2041 0 53.079 12.9995 690 61.3609 1104.44 506.703
2042 0 55.1107 11.9577 659 62.4173 1104.73 506.709
2043 0 55.108 10.7607 593 64.5312 1104.7 504.98
2044 0 57.1632 11.4059 652 63.3512 1104.37 504.554
2045 0 60.0568 13.9368 837 59.988 1104.22 501.691
2046 0 60.117 10.9287 657 64.1507 1103.19 501.711
2047 0 62.0552 11.9732 743 62.5545 1104.4 502.608
2048 0 65.1135 11.3955 742 63.221 1104.57 500.206
2049 0 65.0686 11.0038 716 64.3785 1104.54 498.676
2050 0 67.1398 10.7388 721 64.6144 1104.48 496.802
2051 1 35.135 9.07927 319 62.3793 1105.1 517.636
2052 0 37.099 11.3211 420 61.3595 1104.84 515.21
2053 0 37.054 10.7411 398 62.5854 1104.96 515.058
2054 0 39.0179 13.7117 535 58.7122 1104.19 513.434
2055 0 39.0263 10.5826 413 62.4068 1103.65 513.944
2056 0 38.0399 10.5679 402 63.7637 1104.85 511.988
2057 0 41.0396 9.94162 408 63.2598 1104 510.978
2058 0 43.0804 12.8597 554 59.5271 1104.41 509.038
2059 0 46.0863 11.9558 551 59.6661 1103.84 509.521
2060 0 46.0615 12.0708 556 61.7698 1103.89 507.858
2061 0 48.0705 11.5871 557 62.0395 1103.3 508.616
2062 0 48.0651 11.3804 547 62.9269 1103.04 507.038
2063 0 48.1404 11.8819 572 61.8024 1102.42 507.815
2064 0 52.1089 10.478 546 63.2784 1103.51 505.716
2065 0 54.0391 12.2319 661 60.82 1103.72 505.263
2066 0 54.0344 11.7518 635 61.9433 1103.47 503.313
2067 0 54.1459 12.2816 665 61.4436 1103.69 503.328
2068 0 59.0957 11.5745 684 60.9649 1103.73 502.659
2069 0 60.1493 12.1864 733 60.5921 1103.87 502.344
2070 0 61.1382 13.0851 800 60.05 1103.13 498.929
2071 0 63.0812 13.0308 822 59.5389 1103.66 498.585
2072 0 64.1548 11.5346 740 61.3581 1102.68 498.778
2073 0 67.1269 13.0946 879 59.7884 1102.63 495.837
2074 0 71.134 12.4132 883 60.0192 1102.71 496.642
2075 0 71.2886 12.1057 863 60.956 1102.43 492.309
2076 0 74.0981 14.7372 1092 57.6529 1102.21 493.342
2077 1 38.0222 11.7563 447 59.6331 1102.87 511.738
2078 0 40.0245 10.9433 438 59.7237 1103.1 511.521
2079 0 37.0299 12.0983 448 60.0067 1102.72 511.58
2080 0 42.048 12.8187 539 58.6623 1103.13 510.933
2081 0 43.0845 11.0713 477 61.2537 1103.26 509.713
2082 0 43.0222 11.9706 515 60.8932 1104.13 507.394
2083 0 46.0926 13.6247 628 58.2134 1104.34 508.49
2084 0 46.051 12.421 572 60.2972 1103.72 508.78
2085 0 45.0485 11.2323 506 62.4466 1103.96 507.451
2086 0 49.1429 14.6918 722 57.6427 1103.69 505.555
2087 0 50.0422 13.5685 679 58.9367 1103.28 505.831
2088 0 52.0723 13.4236 699 59.123 1103.52 503.365
2089 0 53.1215 12.4808 663 60.0136 1103.46 504.137
2090 0 55.0886 11.0368 608 62.1826 1104.22 502.91
2091 0 56.1447 11.7197 658 60.5806 1103.86 504.644
2092 0 59.2011 11.3342 671 60.6796 1103.05 504.34
2093 0 61.1224 11.8287 723 60.6459 1103.33 502.176
2094 0 61.0715 13.4433 821 59.1754 1102.29 502.685
2095 0 62.0966 10.0811 626 63.4744 1103.36 501.072
2096 0 68.1172 11.2306 765 60.7229 1103.4 502.101
2097 0 68.086 12.822 873 60.0011 1103.18 499.337
2098 0 67.1857 10.9994 739 62.9391 1103.44 496.604
2099 1 38.0669 10.7442 409 60.868 1102.99 513.308
2100 0 40.1514 11.5812 465 59.8086 1104.39 513.591
2101 0 41.1326 11.4265 470 59.4574 1103.47 513.843
2102 0 42.0817 12.7371 536 58.6343 1104.09 511.901
2103 0 43.0768 11.259 485 60.3546 1103.81 511.812
2104 0 42.1428 10.2271 431 62.8585 1103.75 509.557
2105 0 45.074 11.1816 504 60.4464 1103.3 509.885
2106 0 49.1243 10.565 519 61.2852 1103.29 507.958
2107 0 51.1833 12.5432 642 58.2508 1104.18 507.769
2108 0 52.1519 11.0638 577 60.4957 1103.32 506.619
2109 0 54.2126 12.8199 695 58.3453 1102.86 507.43
2110 0 55.1369 11.1903 617 60.5219 1102.85 506.318
2111 0 58.1533 11.3837 662 60.3489 1102.71 503.841
2112 0 61.2834 13.3315 817 57.4737 1103.42 503.437
2113 0 61.1316 11.0417 675 60.3748 1101.99 504.582
2114 0 62.2051 11.0923 690 60.5217 1101.99 503.429
2115 0 65.0971 9.8622 642 61.7601 1102.81 501.031
2116 0 67.1077 11.787 791 59.2389 1103.75 503.609
2117 0 72.099 11.9142 859 58.7264 1103.62 501.729
2118 0 74.1631 12.9849 963 57.81 1103.18 499.145
2119 0 74.1913 12.953 961 58.666 1102.58 496.334
2120 1 43.1444 9.897 427 59.5831 1102.76 513.763
2121 0 43.1345 11.3135 488 58 1103.77 514.141
2122 0 43.1196 9.90269 427 60.2412 1103.95 513.194
2123 0 46.0938 11.1946 516 58.5271 1103.67 510.713
2124 0 47.0729 10.4944 494 59.4696 1104.11 511.958
2125 0 46.0893 9.76366 450 61.2467 1103.6 509.916
2126 0 49.1078 11.3831 559 59.0125 1103.92 510.002
2127 0 50.0562 10.7879 540 59.5611 1104.07 508.957
2128 0 53.0802 11.5486 613 58.9429 1103.31 505.502
2129 0 54.1875 10.9435 593 59.7589 1103.28 504.093
2130 0 58.1539 11.0913 645 58.8713 1103.53 506.383
2131 0 58.1741 10.8124 629 59.725 1103.38 505.103
2132 0 58.2491 10.3693 604 60.5248 1102.79 504.702
2133 0 64.2737 12.229 786 57.4313 1103.4 503.752
2134 0 66.1579 11.4877 760 59.004 1103.1 501.205
2135 0 67.1616 11.6436 782 58.757 1103.01 501.182
2136 0 70.1695 10.3464 726 59.6749 1104.09 502.037
2137 0 72.0881 10.3901 749 59.8438 1104.01 503.203
2138 0 74.2279 13.0813 971 56.587 1104.78 499.746
2139 0 78.1429 12.4643 974 57.3172 1104.35 498.244
2140 1 39.0871 11.0011 430 57.9814 1104.41 517.581
2141 0 39.0711 7.95985 311 61.6463 1103.58 516.688
2142 0 43.04 10.2695 442 59.4593 1104.61 514.477
2143 0 43.0637 12.2377 527 57.852 1105.54 512.552
2144 0 44.0431 11.3071 498 58.8494 1104.94 511.608
2145 0 46.0131 10.6709 491 59.5662 1104.48 512.287
2146 0 48.1383 10.7607 518 59.3147 1104.62 510.33
2147 0 49.076 11.146 547 58.6819 1104.06 510.625
2148 0 49.0413 12.1122 594 58.6229 1102.98 509.094
2149 0 52.0517 11.6807 608 59.2007 1102.35 508.497
2150 0 56.1426 12.1833 684 57.4196 1102.9 508.687
2151 0 55.109 11.1234 613 58.6623 1102.96 508.858
2152 0 56.0783 10.0217 562 61.5196 1102.3 503.749
2153 0 61.118 13.0076 795 57.2013 1102.25 505.425
2154 0 61.076 10.6752 652 60.5092 1103.34 503.844
2155 0 63.0825 11.7148 739 59.0054 1103.21 503.746
2156 0 66.0463 11.1891 739 59.0325 1103.37 501.403
2157 0 67.0443 12.2009 818 58.5134 1103.74 497.806
2158 0 68.2276 12.2091 833 58.6375 1103.06 499.234
2159 0 70.2017 12.5923 884 58.81 1103.2 498.2
2160 0 73.154 13.0136 952 58.2983 1103.51 496.799
2161 0 76.1173 12.1917 928 58.8728 1103.92 497.893
2162 0 78.3499 12.2017 956 59.2887 1103.27 494.028
2163 0 82.1063 14.1037 1158 56.6295 1102.95 493.09
2164 0 83.0888 12.276 1020 58.6 1102.93 493.892
2165 1 42.1402 10.0379 423 59.9787 1103.18 512.44
2166 0 43.0492 9.77951 421 60.3753 1103.2 513.572
2167 0 47.1439 11.0937 523 59.2294 1102.71 510.166
2168 0 48.0832 12.9359 622 57.709 1103.96 506.965
2169 0 48.0411 11.5526 555 59.2595 1103.06 509.15
2170 0 50.097 11.6773 585 58.8427 1103.41 508.22
2171 0 50.0554 11.4473 573 60.0698 1102.97 507.754
2172 0 54.0751 12.6676 685 58.3518 1102.49 503.257
2173 0 54.107 11.8839 643 59.1773 1102.96 505.313
2174 0 56.1718 11.9455 671 59.9016 1103.17 502.657
2175 0 57.1409 12.0054 686 59.9738 1103.2 502.386
2176 0 59.0718 12.0531 712 59.7865 1102.56 501.608
2177 0 62.0684 13.5657 842 58.3088 1103.14 499.982
2178 0 64.1229 11.1505 715 60.8322 1102.73 500.838
2179 0 63.0622 11.782 743 60.7941 1102.6 496.386
2180 0 67.138 12.4222 834 59.5707 1102.77 499.445
2181 0 68.2586 12.3647 844 59.9123 1102.52 497.718
2182 0 72.0815 12.5275 903 59.5493 1102.55 496.219
2183 0 69.0584 10.9907 759 62.5007 1102.6 493.154
2184 0 77.1705 12.3363 952 59.9212 1103.08 494.69
2185 0 80.1192 13.7545 1102 57.9955 1102.92 496.315
2186 1 41.0492 11.133 457 60.919 1103.06 512.777
2187 0 40.0242 9.69414 388 63.3247 1102.47 513.665
2188 0 41.0365 11.6969 480 61.3375 1103.17 512.552
2189 0 44.1372 11.7814 520 61.2788 1103.08 509.931
2190 0 46.1934 11.5817 535 61.4561 1103.61 508.202
2191 0 47.1072 11.5269 543 61.8269 1103.65 509.155
2192 0 49.1372 13.2893 653 59.5283 1103.09 508.348
2193 0 50.1 11.8962 596 61.6628 1103.13 507.329
2194 0 52.1087 11.476 598 61.3077 1103.12 508.017
2195 0 54.1268 11.0112 596 62.1728 1103.16 506.218
2196 0 55.0552 12.9325 712 60.5407 1103.15 503.629
2197 0 58.0723 13.8276 803 58.9328 1102.81 504.041
2198 0 59.0766 11.9337 705 61.0142 1102.82 503.574
2199 0 61.1005 11.9639 731 61.3666 1102.54 501.35
2200 0 65.1213 12.0698 786 60.631 1102.63 500.938
2201 0 65.1196 12.4847 813 60.5609 1102.48 498.132
2202 0 68.063 12.841 874 60.3192 1103.09 498.272
2203 0 71.1398 13.4664 958 59.1712 1103.65 496.968
2204 0 71.1572 12.2686 873 60.9943 1103.05 497.079
2205 0 75.0886 12.6517 950 60.5337 1102.49 494.423
2206 0 75.1489 12.3222 926 61.6976 1102.43 493.319
2207 0 80.1163 13.2682 1063 60.397 1102.96 493.281
2208 0 82.1321 13.1617 1081 60.1452 1102.62 494.192
2209 0 86.0788 11.6637 1004 61.9183 1102.73 492.281
2210 0 89.0716 14.0337 1250 59.388 1102.89 488.618
2211 0 90.1204 11.3071 1019 62.7448 1102.75 490.852
2212 1 49.0326 10.5236 516 62.3973 1103.32 509.405
2213 0 49.1643 13.0583 642 59.6558 1103.69 509.657
2214 0 52.0653 12.6572 659 60.0455 1103.4 509.44
2215 0 53.0265 11.1831 593 61.7909 1103.3 509.595
2216 0 54.0563 11.1365 602 61.9967 1102.87 510.349
2217 0 55.0367 11.3742 626 62.0144 1102.28 507.288
2218 0 59.027 12.1809 719 60.6746 1102.53 505.714
2219 0 60.1265 11.6255 699 61.6438 1102.73 504.881
2220 0 63.0589 11.5765 730 61.3616 1102.04 503.444
2221 0 64.052 12.7865 819 59.5629 1102.33 502.814
2222 0 66.022 11.1781 738 61.3116 1103.41 503.008
2223 0 70.0516 13.1332 920 58.8467 1102.51 499.859
2224 0 72.1136 13.3401 962 58.4595 1102.63 500
2225 0 74.1228 11.4 845 60.8402 1102.63 500.492
2226 0 77.0999 12.1401 936 60.6357 1102.99 497.922
2227 0 79.1658 11.3685 900 61.4033 1103.05 497.084
2228 0 81.1359 11.7827 956 61.296 1103.18 493.098
2229 0 86.2153 11.2509 970 61.2773 1102.3 494.479
2230 1 45.018 13.0392 587 58.4753 1103.15 513.56
2231 0 46.0126 10.9535 504 62.0853 1102.44 510.772
2232 0 48.0327 11.1591 536 61.3638 1103.42 510.123
2233 0 49.1072 12.2996 604 60.2417 1103.7 509.081
2234 0 51.0461 11.3623 580 61.4483 1104.03 508.028
2235 0 52.11 10.9 568 61.9648 1103.98 508.088
2236 0 54.0541 12.7465 689 60.4122 1102.97 504.794
2237 0 55.0415 10.2105 562 62.9537 1102.63 503.649
2238 0 57.0804 11.5451 659 61.1578 1102.95 503.437
2239 0 57.0622 11.1633 637 61.9812 1103.39 503.83
2240 0 61.0683 11.3971 696 61.125 1103.28 503.399
2241 0 62.1254 11.2675 700 61.5871 1103.05 501.887
2242 0 64.0688 11.0662 709 61.6488 1103.91 500.894
2243 0 66.0332 12.9935 858 59.19 1103.86 500.054
2244 0 67.1081 11.9062 799 60.831 1104.2 497.847
2245 0 71.0868 12.4355 884 59.741 1104.24 498.597
2246 0 73.0822 10.9466 800 61.37 1104.03 495.021
2247 0 73.0762 10.8791 795 61.4289 1103.21 497.199
2248 0 78.1328 12.1588 950 60.101 1103.35 493.032
2249 0 81.1697 12.1597 987 59.5279 1103.16 494.525
2250 0 83.0669 12.4839 1037 59.2449 1103.82 492.485
2251 1 45.0241 11.8159 532 57.9774 1103.9 512.718
2252 0 44.0502 12.0998 533 58.3734 1104.22 510.796
2253 0 46.0999 10.282 474 60.0316 1104 511.42
2254 0 48.072 9.90181 476 60.75 1102.89 509.191
2255 0 48.0388 10.4291 501 60.8204 1104.24 508.333
2256 0 53.0711 11.7013 621 58.4541 1103.83 506.564
2257 0 54.0737 11.9282 645 57.8279 1105.18 507.811
2258 0 55.0836 12.4538 686 58.2405 1104.65 504.462
2259 0 58.0789 11.3811 661 59.0454 1104.36 503.737
2260 0 60.1423 11.0239 663 59.0679 1103.1 503.726
2261 0 61.0611 11.6441 711 58.5232 1104.12 501.872
2262 0 65.0454 12.5451 816 57.1348 1104.46 501.555
2263 0 65.0419 12.1153 788 58.0939 1103.78 500.608
2264 0 65.1591 11.6484 759 59.0975 1103.71 499.486
2265 0 70.0696 12.3591 866 57.7252 1104.28 499.259
2266 0 70.0721 12.2303 857 58.3991 1104.29 495.948
2267 0 75.193 12.6209 949 57.4331 1103.92 496.406
2268 0 76.1538 12.0414 917 58.3021 1103.32 495.137
2269 0 77.1345 11.6809 901 59.1942 1103.51 492.218
2270 0 82.07 10.9906 902 59.6641 1103.39 492.758
2271 1 42.0516 9.55969 402 60.194 1104.48 512.677
2272 0 43.0628 13.4222 578 56.2145 1103.79 511.81
2273 0 46.098 12.3867 571 57.0718 1104.44 511.326
2274 0 46.0776 10.9815 506 59.1937 1104.63 510.208
2275 0 48.1111 11.0369 531 58.8192 1103.91 510.765
2276 0 50.0805 10.7627 539 59.1577 1103.35 508.928
2277 0 51.1966 11.6609 597 58.3635 1102.98 507.405
2278 0 51.212 12.9071 661 56.6475 1103.78 509.62
2279 0 52.0713 9.65983 503 60.7316 1103.46 507.559
2280 0 57.1076 11.7322 670 58.2836 1103.46 504.367
2281 0 57.0803 11.6678 666 58.1862 1104.34 506.62
2282 0 60.1228 12.7905 769 57.1678 1103.71 504.51
2283 0 61.0963 10.8026 660 59.2576 1103.65 501.945
2284 0 65.1005 12.5652 818 56.7445 1103.79 502.85
2285 0 65.2076 12.0538 786 57.813 1104.24 500.858
2286 0 65.0549 10.8831 708 59.161 1103.82 498.959
2287 0 69.1283 11.1387 770 58.5468 1103.89 497.461
2288 0 71.0666 11.3696 808 58.2698 1103.91 495.991
2289 0 74.1048 11.7266 869 57.2704 1103.57 498.17
2290 0 75.1202 11.7811 885 57.8192 1104.29 494.638
2291 0 78.066 11.913 930 57.5516 1103.96 496.163
2292 0 79.0972 12.1117 958 57.6253 1104.39 492.613
2293 0 83.1483 11.6659 970 58.0928 1104.42 486.857
2294 0 87.1893 11.6757 1018 58.001 1104.14 491.46
2295 1 46.0438 11.3805 524 57.3015 1104.82 511.639
2296 0 48.0902 10.6259 511 58.1174 1105.39 510.838
2297 0 48.0823 10.378 499 58.5731 1104.86 510.744
2298 0 50.0713 11.6434 583 57.1029 1104.34 510.904
2299 0 51.0694 11.455 585 58.0205 1104.68 508.079
2300 0 50.0598 10.8071 541 58.2569 1104.68 506.22
2301 0 54.0663 12.1702 658 56.5897 1104.2 504.936
2302 0 56.0481 10.0985 566 58.3269 1104.61 503.825
2303 0 58.0791 12.8101 744 55.5134 1105.23 505.866
2304 0 57.0847 11.8771 678 57.2625 1105.37 502.425
2305 0 61.0875 10.6569 651 58.1244 1104.78 503.16
2306 0 64.1104 13.0088 834 55.9125 1105.06 500.06
2307 0 63.1504 11.7656 743 57.825 1104.34 498.814
2308 0 68.0574 14.6788 999 53.964 1105.11 497.027
2309 0 68.0716 11.6054 790 57.8987 1105.1 496.944
2310 0 70.153 11.8741 833 57.9976 1104.86 497.065
2311 0 73.1324 14.6036 1068 55.0075 1104.72 493.336
2312 0 78.1564 12.4878 976 56.3289 1104.33 495.346
2313 0 80.2772 13.0174 1045 56.401 1103.97 494.603
2314 0 81.2288 12.5817 1022 57.456 1104.23 490.621
2315 0 83.204 11.4778 955 59.0314 1104.58 489.64
2316 0 86.1393 12.1431 1046 58.1855 1105.44 490.955
2317 0 89.1273 14.1034 1257 56.2705 1104.8 483.519
2318 0 94.2136 13.3208 1255 56.8502 1104.8 486.95
2319 0 96.1163 13.5253 1300 56.7954 1104.44 483.274
2320 1 48.0504 11.3839 547 59.0219 1105.02 506.232
2321 0 53.0413 11.5382 612 58.2516 1104.96 505.438
2322 0 53.0924 12.3935 658 57.003 1104.41 505.12
2323 0 56.1098 12.5825 706 56.3555 1105.39 505.044
2324 0 58.2185 13.9646 813 54.9606 1104.07 504.514
2325 0 57.1042 9.82415 561 60.0713 1104.23 504.631
2326 0 61.1379 11.4495 700 58.2214 1103.96 501.964
2327 0 62.1439 12.7607 793 56.7541 1104.58 503.41
2328 0 64.1934 12.4156 797 57.7905 1104.81 500.332
2329 0 68.1704 13.0555 890 56.4854 1104.09 501.801
2330 0 70.1903 11.8107 829 57.807 1104.44 499.491
2331 0 71.2004 11.9241 849 58.0412 1103.94 499.364
2332 0 73.0739 11.7415 858 58.7121 1104.02 497.024
2333 0 76.1189 11.6397 886 58.5598 1104.9 497.431
2334 0 78.1415 11.7607 919 58.6975 1104.26 495.516
2335 0 80.105 11.822 947 58.0855 1104.51 496.653
2336 0 84.0719 13.0008 1093 57.0622 1105.32 496.061
2337 0 86.1299 12.8875 1110 57.3496 1104.52 493.973
2338 0 90.2653 12.4522 1124 57.8843 1103.97 492.94
2339 0 92.2148 11.5274 1063 58.9134 1104.18 493.377
2340 0 94.1834 11.3608 1070 59.5991 1103.82 491.339
2341 1 51.0455 10.1086 516 59.7248 1104.06 511.326
2342 0 51.0576 10.4392 533 59.985 1105.08 511.398
2343 0 53.0658 11.1936 594 59.0034 1105.21 507.557
2344 0 54.0502 10.4162 563 60.8259 1105.46 506.064
2345 0 56.0765 11.4308 641 59.2621 1105.82 506.309
2346 0 58.0604 11.5397 670 58.7582 1105.8 505.558
2347 0 59.0194 12.6738 748 57.8075 1105.2 501.329
2348 0 64.0392 11.696 749 58.2043 1104.95 500.784
2349 0 64.0542 10.819 693 59.2987 1105.23 496.801
2350 0 68.0647 13.8839 945 50.4 1104.77 500.139
2351 0 68.0741 11.4287 778 52.5193 1104.88 496.438
2352 0 72.1662 12.5821 908 51.0308 1105.06 494.494
2353 0 74.1235 11.7776 873 51.1054 1104.68 497.208
2354 0 76.1506 14.3925 1096 49.6049 1104.22 492.405
2355 0 80.0477 11.9179 954 51.6614 1103.9 489.999
2356 0 79.1679 11.4567 907 52.1544 1104.36 491.766
2357 0 84.155 12.9523 1090 50.5349 1104.41 488.235
2358 0 87.2256 12.3129 1074 51.3948 1104.07 484.611
2359 0 89.2253 11.0395 985 52.3533 1104.05 486.649
2360 0 91.168 10.2339 933 53.6399 1104.53 482.326
2361 0 94.1665 10.3859 978 53.774 1104.56 482.483
2362 0 99.1602 11.7588 1166 52.3602 1103.92 480.193
2363 0 100.08 11.1511 1116 53.4265 1104.35 476.415
2364 0 106.167 12.1789 1293 52.0155 1105.5 479.531
2365 1 54.0199 9.47799 512 53.4648 1104.98 504.408
2366 0 56.0584 10.4534 586 53.6416 1105.17 500.311
2367 0 59.0615 9.87106 583 54.1424 1105.25 499.933
2368 0 64.0613 12.3475 791 51.7332 1104.81 499.035
2369 0 63.1506 11.9239 753 52.3705 1105.21 497.669
2370 0 69.0406 10.4866 724 52.8646 1104.38 497.511
2371 0 68.1918 13.0954 893 50.9877 1104.09 494.477
2372 0 69.0967 10.7096 740 53.2838 1103.79 492.87
2373 0 69.1194 10.6916 739 53.6563 1104.22 493.422
2374 0 73.1132 10.9146 798 52.614 1104.9 496.123
2375 0 76.0935 11.4859 874 52.5206 1104.51 492.178
2376 0 80.1409 11.3425 909 51.9142 1104.24 493.799
2377 0 81.1273 12.2277 992 51.8054 1103.18 489.815
2378 0 86.1603 12.0821 1041 51.4111 1104.26 490.348
2379 0 89.2602 13.8136 1233 49.9927 1104.08 484.076
2380 0 93.3462 11.3127 1056 52.0511 1104.12 484.571
2381 0 94.1175 11.5069 1083 51.6565 1104.62 485.116
2382 1 48.02 13.182 633 50.0632 1105.38 506.092
2383 0 47.1147 8.44747 398 52.7739 1103.71 508.264
2384 0 50.0341 11.3722 569 51.1511 1104.39 505.826
2385 0 52.0571 10.7574 560 51.6518 1104.83 504.023
2386 0 55.0578 12.8592 708 49.3206 1104.82 502.774
2387 0 52.0597 9.31623 485 53.5052 1104.81 501.99
2388 0 58.0899 12.3257 716 49.9567 1105.46 502.228
2389 0 57.0762 11.2656 643 51.1788 1106 497.594
2390 0 60.0444 9.89267 594 52.0572 1106.56 499.921
2391 0 63.0695 11.5745 730 50.6274 1106.75 497.529
2392 0 64.1177 14.4422 926 48.2927 1106.51 496.026
2393 0 62.113 9.80471 609 52.6617 1106.66 492.787
2394 0 67.0402 12.4851 837 50.2198 1107.38 490.796
2395 0 70.0961 13.2247 927 49.7713 1107.57 489.278
2396 0 72.0574 11.5602 833 51.2461 1107.78 489.54
2397 0 72.1144 11.0935 800 51.8762 1107.47 488.141
2398 0 77.1311 12.2648 946 50.2082 1107 489.78
2399 0 77.0424 11.0718 853 51.8136 1107.21 486.13
2400 0 84.2088 11.5546 973 50.8684 1106.8 489.246
2401 0 84.0589 9.80265 824 52.4005 1106.4 488.636
2402 0 87.0611 10.3835 904 52.2268 1106.11 485.846
2403 1 45.0298 10.3487 466 51.4785 1105.3 501.944
2404 0 47.0592 10.0299 472 51.2394 1106.2 505.576
2405 0 48.0867 13.1637 633 49.3791 1106.56 501.899
2406 0 53.0734 10.4195 553 50.745 1106.52 504.351
2407 0 52.0243 11.6676 607 50.4761 1106.58 501.259
2408 0 56.0894 11.4104 640 50.3297 1106.16 499.708
2409 0 59.0676 11.563 683 50.2225 1106.8 498.682
2410 0 59.0322 11.2312 663 50.4615 1106.01 497.852
2411 0 59.08 10.6635 630 51.2016 1105.99 496.402
2412 0 61.1858 9.15245 560 52.1304 1105.87 493.102
2413 0 65.062 11.0049 716 50.5405 1106.63 492.457
2414 0 67.2754 10.8807 732 50.9331 1106.25 492.689
2415 0 68.0948 10.1476 691 51.7959 1106.08 489.538
2416 0 73.2106 11.5557 846 50.3806 1106.34 489.043
2417 0 74.1694 11.8512 879 50.1502 1105.58 489.328
2418 0 77.0928 10.4549 806 50.9777 1105.64 490.711
2419 0 82.201 12.1045 995 49.4603 1105.69 489.515
2420 0 82.1785 11.5845 952 50.3571 1105.48 486.451
2421 1 44.1021 10.2716 453 51.0309 1105.68 502.728
2422 0 45.0533 10.3433 466 51.2618 1105.91 504.773
2423 0 46.0864 10.3718 478 50.841 1105.86 507.169
2424 0 49.1487 12.2892 604 49.7748 1105.4 501.977
2425 0 50.1776 11.1803 561 51.1622 1106.01 503.296
2426 0 51.0987 11.3506 580 50.9914 1105.74 501.986
2427 0 53.0944 10.9051 579 51.563 1105.44 501.204
2428 0 55.0724 10.4045 573 51.9791 1105.2 498.506
2429 0 56.1001 10.3387 580 52.0379 1105.32 499.572
2430 0 58.131 12.317 716 50.2584 1105.47 496.022
2431 0 60.0576 11.2059 673 51.1278 1107.03 499.226
2432 0 61.1184 12.2385 748 50.762 1105.7 495.083
2433 0 61.0467 9.77939 597 53.7186 1105.53 494.253
2434 0 66.2853 12.3557 819 50.7631 1105.94 492.769
2435 0 68.077 10.5469 718 52.1838 1105.57 491.843
2436 0 71.1239 10.8402 771 51.9689 1105.17 494.175
2437 0 70.122 9.75443 684 52.9386 1105.07 494.515
2438 0 74.1041 12.3745 917 50.5671 1105.43 491.107
2439 0 77.1216 12.2793 947 50.7254 1105.67 490.206
2440 0 77.0961 12.8671 992 50.9708 1106.2 490.242
2441 0 79.0796 10.6854 845 53.2272 1105.46 486.44
2442 0 85.1536 12.9883 1106 50.6835 1105.61 488.168
2443 0 87.2272 17.3684 1515 47.2073 1105.81 487.602
2444 1 48.0892 10.8756 523 50.8222 1105.8 507.855
2445 0 50.0864 10.5218 527 52.5977 1105.24 504.863
2446 0 51.0448 11.3821 581 51.5112 1105.23 505.575
2447 0 51.0399 10.913 557 52.763 1105.92 503.329
2448 0 54.0937 12.238 662 51.4517 1105.83 503.677
2449 0 57.1142 11.4507 654 51.7294 1105.98 505.543
2450 0 58.0328 12.6136 732 51.1243 1105.94 503.016
2451 0 58.0669 12.2962 714 51.8627 1105.86 503.053
2452 0 60.027 12.561 754 52.0027 1106.21 499.519
2453 0 62.0731 12.3564 767 51.9348 1106.03 499.121
2454 0 63.0655 10.5287 664 53.9488 1105.12 499.262
2455 0 68.0755 12.3686 842 51.5059 1106.4 497.006
2456 0 69.0731 11.6543 805 52.5565 1105.46 495.957
2457 0 68.0994 10.5728 720 53.7889 1105.73 492.408
2458 0 72.1612 11.1279 803 52.7709 1104.71 496.091
2459 0 73.0572 10.8271 791 54.2705 1105.59 491.422
2460 0 78.079 11.5012 898 52.431 1105.23 494.52
2461 0 81.111 11.5397 936 52.5716 1105.37 491.218
2462 0 81.0546 11.4614 929 53.5597 1105.48 489.578
2463 0 87.1235 11.6616 1016 52.1211 1105.44 493.102
2464 1 48.0994 12.2039 587 51.3646 1105.45 509.79
2465 0 49.0881 11.9377 586 51.5119 1105.76 508.768
2466 0 49.0426 10.3991 510 54.4804 1105.55 504.614
2467 0 49.0399 10.7871 529 54.051 1105.58 503.355
2468 0 53.132 12.1396 645 52.4217 1105.46 504.122
2469 0 52.0436 12.1821 634 53.4369 1105.22 501.487
2470 0 54.0452 9.88062 534 54.9663 1105.91 501.556
2471 0 58.0883 10.9833 638 53.6661 1104.81 499.074
2472 0 59.0919 11.7783 696 52.9899 1105.39 498.843
2473 0 60.0794 10.4861 630 54.3587 1104.79 499.23
2474 0 63.0942 12.3783 781 52.2804 1106.35 499.415
2475 0 66.1061 10.5285 696 53.8707 1104.92 496.254
2476 0 65.0782 11.6475 758 52.9301 1105.36 493.441
2477 0 67.0671 13.1063 879 51.8862 1105.67 494.932
2478 0 67.0671 13.1063 879 110.151 1105.67 494.932
2479 0 72.1607 9.47884 684 55.0219 1105.31 494.692
2480 0 75.1669 11.1884 841 53.7836 1104.26 488.593
2481 0 79.1251 10.7551 851 53.8273 1103.83 487.27
2482 0 81.159 11.2126 910 53.4286 1105.15 486.673
2483 0 85.1219 11.8771 1011 52.5391 1104.93 483.248
2484 0 85.0601 10.4514 889 53.6288 1104.95 487.204
2485 1 43.0294 12.0383 518 52.5792 1105.02 505.461
2486 0 48.0194 11.4329 549 52.2987 1105.47 506.399
2487 0 50.0193 11.2756 564 52.4965 1104.74 504.525
2488 0 50.0665 10.8056 541 52.8392 1105.22 507.094
2489 0 53.0852 11.3591 603 52.4544 1105.58 505.018
2490 0 54.0581 12.3941 670 51.9328 1105.17 501.628
2491 0 56.112 11.4592 643 52.563 1105.17 501.764
2492 0 59.0649 10.5477 623 53.4848 1105.12 499.644
2493 0 57.0239 12.8893 735 52.1388 1105.03 500.103
2494 0 58.0351 11.7515 682 52.868 1104.83 501.211
2495 0 63.1624 11.8583 749 52.8665 1104.78 498.594
2496 0 65.1725 12.2444 798 52.3847 1105.03 499.075
2497 0 68.1016 12.9365 881 51.3644 1104.88 497.574
2498 0 69.0839 12.2894 849 52.5889 1104.41 493.861
2499 0 69.2646 13.6722 947 51.4974 1105.4 495.935
2500 0 74.0464 12.4246 920 52.1533 1105.43 494.374
2501 0 76.1787 12.3132 938 52.2431 1106.4 491.746
2502 0 79.0694 10.0165 792 54.5871 1105.97 492.462
2503 0 81.3511 15.1565 1233 50.4144 1106.31 487
2504 1 42.0554 9.27349 390 54.859 1106.22 508.4
2505 0 44.0422 12.5788 554 51.0144 1105.65 509.551
2506 0 44.0529 11.1457 491 53.1181 1106.38 507.786
2507 0 48.0444 10.1781 489 53.5378 1107.26 508.196
2508 0 47.0577 11.0078 518 53.3108 1105.86 507.183
2509 0 47.105 11.1241 524 53.8779 1106.24 505.136
2510 0 49.1104 9.52956 468 55.0897 1105.5 504.562
2511 0 50.1182 10.4752 525 54.4171 1105.72 503.808
2512 0 54.0656 11.9854 648 52.7593 1105.41 500.548
2513 0 55.1274 10.4848 578 54 1105.66 499.4
2514 0 56.1134 11.2629 632 53.549 1106.16 496.489
2515 0 58.0719 11.7441 682 53.0264 1105.43 497.608
2516 0 58.1205 10.0653 585 54.8 1105.12 496.21
2517 0 61.1325 10.2237 625 54.6736 1105.12 493.87
2518 0 67.1334 14.1658 951 50.285 1105.47 495.536
2519 0 66.1747 11.5301 763 53.464 1105.29 492.452
2520 0 69.0448 9.96454 688 54.4608 1105.24 490.051
2521 0 70.1211 13.1344 921 51.9859 1104.96 488.609
2522 0 73.1042 11.0254 806 53.6911 1104.4 490.47
2523 0 77.0739 9.08219 700 55.1014 1103.73 487.609
2524 1 42.0478 11.3205 476 53.2269 1104.8 503.273
2525 0 44.0308 10.1747 448 54.154 1105.23 501.938
2526 0 47.1165 12.1401 572 52.9336 1105.9 502.643
2527 0 48.05 11.4048 548 54.0584 1105.55 501.969
2528 0 50.0442 12.2492 613 52.9918 1105.68 500.52
2529 0 50.084 11.9998 601 53.8236 1105.44 497.725
2530 0 53.0402 13.3672 709 52.5331 1105.94 497.269
2531 0 54.05 10.6753 577 55.3848 1104.93 497.964
2532 0 57.0905 12.6115 720 53.2806 1105.23 497.221
2533 0 59.117 11.1981 662 54.6254 1105.51 497.036
2534 0 60.104 11.6298 699 54.5122 1105.74 495.066
2535 0 64.0204 13.9643 894 52.0727 1106.01 493.37
2536 0 66.0276 11.4649 757 53.852 1106.13 494.863
2537 0 68.1038 11.0567 753 54.7384 1106.47 489.696
2538 0 69.0753 11.3065 781 54.539 1106.65 488.857
2539 0 73.0726 12.3713 904 53.0907 1106.85 488.096
2540 0 73.1117 12.7339 931 53.2481 1106.76 486.931
2541 0 79.0577 12.4593 985 52.8325 1106.1 488.836
2542 0 79.1868 11.8833 941 53.5484 1105.22 489.997
2543 0 83.2198 11.8121 983 54.0478 1105.28 482.741
2544 0 86.1044 11.5093 991 54.1574 1105.81 484.75
2545 0 87.1419 11.5559 1007 54.716 1105.42 481.311
2546 0 92.1403 12.2965 1133 53.4104 1105.89 481.926
2547 1 52.0831 12.6337 658 51.7736 1106.59 500.1
2548 0 55.0852 11.3642 626 53.0639 1106.65 499.581
2549 0 56.1646 12.2853 690 52.5986 1106.04 498.313
2550 0 55.1029 11.1246 613 54.0163 1106.09 497.718
2551 0 57.0926 12.8388 733 52.2292 1105.99 498.237
2552 0 60.243 12.4828 752 52.387 1106.13 495.18
2553 0 61.0271 11.8472 723 52.834 1106.3 495.462
2554 0 65.0494 12.4213 808 51.9554 1105.88 497.667
2555 0 62.1153 10.561 656 54.5351 1105.42 494.184
2556 0 67.1959 12.7984 860 51.7674 1106.75 493.029
2557 0 70.097 13.5669 951 51.1188 1106.75 492.934
2558 0 70.1036 10.513 737 53.9471 1106.08 492.236
2559 0 74.0714 11.2864 836 53.329 1105.78 489.837
2560 0 77.1583 11.0034 849 53.7373 1106.06 488.366
2561 0 78.191 12.981 1015 52.2089 1106.29 484.1
2562 0 79.1771 10.7859 854 54.1405 1105.9 486.749
2563 0 83.1172 14.7503 1226 50.5595 1105.91 483.063
2564 0 86.1392 13.7684 1186 51.4663 1105.04 485.969
2565 0 90.1519 13.3109 1200 51.945 1105.7 484.612
2566 0 93.1667 11.8712 1106 53.7315 1105.77 485.423
2567 0 96.098 12.123 1165 53.8549 1105.9 479.415
2568 0 98.1548 12.7146 1248 53.5809 1106.7 478.155
2569 0 101.095 12.0876 1222 54.4272 1106.15 481.081
2570 1 54.0375 12.3433 667 53.042 1105.78 502.921
2571 0 54.0463 10.713 579 54.7064 1105.75 505.356
2572 0 54.0301 12.7522 689 53.344 1105.37 504.119
2573 0 56.0858 11.5894 650 55.3462 1105.48 501.517
2574 0 61.2881 13.9342 854 52.2869 1106.34 500.185
2575 0 60.0965 13.8777 834 53.3429 1105.67 499.556
2576 0 61.0432 14.7273 899 52.1591 1105.42 499.126
2577 0 65.1108 13.1008 853 53.6823 1105.58 497.469
2578 0 68.1136 13.2132 900 53.5322 1105.69 495.924
2579 0 67.085 12.0444 808 54.5965 1105.4 494.955
2580 0 71.0655 14.156 1006 52.4314 1104.97 492.894
2581 0 71.0893 12.7445 906 53.6104 1104.65 490.977
2582 0 76.0836 13.3537 1016 52.9459 1104.77 490.254
2583 0 78.1284 12.0315 940 54.25 1105.78 489.886
2584 0 80.0769 13.3996 1073 52.713 1105.23 488.242
2585 0 82.0586 13.2466 1087 53.0948 1104.83 485.506
2586 0 86.1044 12.6823 1092 53.4414 1104.9 486.008
2587 0 89.1967 11.626 1037 54.6191 1103.97 487.43
2588 0 91.1514 12.9894 1184 53.6149 1104.97 482.253
2589 0 91.1301 13.6289 1242 52.3647 1104.33 486.648
2590 0 97.1024 13.6557 1326 53.3326 1104.58 481.09
2591 0 98.1135 12.5671 1233 54.3074 1105.1 478.985
2592 0 104.321 13.3051 1388 53.9438 1104.67 476.829
2593 0 106.058 11.786 1250 55.3416 1104.99 472.854
2594 1 58.1042 10.1542 590 56.5203 1105.35 498.602
2595 0 62.0874 11.9187 740 54.927 1104.84 497.414
2596 0 62.0481 12.4581 773 54.5317 1105.25 496.184
2597 0 67.1378 15.4011 1034 51.2921 1104.62 495.948
2598 0 65.0458 11.0384 718 55.4401 1106 496.318
2599 0 71.1156 12.8804 916 52.6321 1106.63 495.462
2600 0 71.0804 13.5621 964 53.611 1107.19 490.683
2601 0 71.0705 12.6494 899 54.7864 1105.76 491.235
2602 0 77.0846 12.6355 974 54.2526 1105.31 487.724
2603 0 79.1386 14.3672 1137 52.6139 1105.44 487.176
2604 0 81.089 13.0844 1061 53.2686 1105.64 486.546
2605 0 85.1293 11.9113 1014 54.4596 1105.19 485.044
2606 0 87.0847 14.3883 1253 51.996 1105.17 483.142
2607 0 88.1991 11.0885 978 55.2648 1105.45 481.745
2608 0 92.1287 12.0158 1107 54.4426 1105.73 481.398
2609 0 96.3128 15.4185 1485 51.4566 1105.07 480.139
2610 0 98.0782 13.6218 1336 53.1909 1105.22 475.019
2611 1 54.0323 10.1051 546 54.7766 1105.66 499.623
2612 0 55.1387 10.1381 559 54.5975 1107.03 501.411
2613 0 59.0697 10.9362 646 54.2848 1105.75 498.41
2614 0 59.1032 10.4563 618 55.2184 1105.82 497.144
2615 0 59.055 11.0913 655 55.0977 1104.99 494.913
2616 0 62.0431 9.83188 610 55.6738 1105.46 496.679
2617 0 65.0876 12.368 805 53.8472 1105.01 493.819
2618 0 66.0666 11.8517 783 54.4444 1105.3 493.226
2619 0 69.1941 13.0213 901 52.5727 1106.08 495.158
2620 0 72.3373 12.5661 909 53.5688 1106.48 492.933
2621 0 70.1483 13.0866 918 53.9619 1106.1 490.782
2622 0 74.0806 11.6495 863 54.9212 1105.6 489.877
2623 0 75.1023 11.5442 867 55.0796 1106.22 489.027
2624 0 81.1379 12.4233 1008 54.0585 1106.25 487.854
2625 0 82.0705 15.1211 1241 51.6736 1106.07 488.717
2626 0 84.1095 13.6013 1144 53.4414 1105.17 485.751
2627 0 86.0982 13.5543 1167 54.2365 1105.83 481.134
2628 0 90.2593 13.3393 1204 54.402 1105.66 480.247
2629 0 93.2383 14.1573 1320 53.775 1104.2 479.512
2630 0 97.2175 12.3949 1205 55.517 1104.17 477.115
2631 0 100.44 13.2617 1332 54.5871 1104.19 479.188
2632 0 101.284 11.7689 1192 56.8716 1104.84 477.615
2633 0 106.256 13.7969 1466 54.3499 1105.44 477.196
2634 1 57.2128 13.511 773 53.7477 1105.5 500.894
2635 0 59.3689 12.3802 735 54.4912 1105.35 501.739
2636 0 60.0981 12.6793 762 54.7769 1105.3 498.843
2637 0 59.198 10.997 651 56.5315 1104.94 501.124
2638 0 61.0639 10.4972 641 57.4977 1104.28 496.644
2639 0 65.1945 14.3264 934 53.5246 1104.55 495.52
2640 0 66.1168 14.3988 952 53.1071 1105.84 497.919
2641 0 67.1025 12.1307 814 55.93 1105.49 494.644
2642 0 71.0762 12.0856 859 55.2969 1105.7 495.934
2643 0 75.1089 13.4072 1007 53.85 1105.94 494.35
2644 0 74.0487 14.9091 1104 53.3976 1105.58 490.894
2645 0 82.0635 13.3068 1092 53.891 1105.31 493.372
2646 0 82.0783 12.8901 1058 55.2807 1105.78 491.689
2647 0 85.1649 14.4073 1227 53.5485 1105.83 487.967
2648 0 88.1121 14.5156 1279 53.8702 1105.68 487.479
2649 0 89.166 13.1216 1170 55.3547 1105.25 485.643
2650 0 91.169 13.294 1212 55.5487 1106.14 486.197
2651 0 93.0744 12.6565 1178 56.3667 1105.56 485.861
2652 1 47.0647 12.5784 592 55.1334 1106.35 508.39
2653 0 48.0858 12.8104 616 55.8734 1106.21 507.177
2654 0 52.0634 13.9638 727 53.9408 1105.99 507.684
2655 0 54.1271 11.7132 634 56.5741 1105.03 505.659
2656 0 53.1212 12.8386 682 56.0528 1105.41 505.566
2657 0 54.0694 11.3743 615 58.2146 1105.99 506.22
2658 0 57.0787 12.6842 724 55.7762 1106.46 505.25
2659 0 56.1024 12.4237 697 57.0459 1105.85 500.931
2660 0 59.0524 11.9724 707 57.0905 1106.63 500.177
2661 0 63.1617 15.1199 955 53.9319 1106.76 499.889
2662 0 65.1436 10.2543 668 57.9805 1106.7 503.091
2663 0 63.0822 13.8391 873 55.7984 1106.59 499.621
2664 0 67.0526 12.4976 838 57.3449 1105.69 499.659
2665 0 70.0506 12.5909 882 57.1406 1106.12 496.939
2666 0 73.1138 13.0618 955 56.8168 1106.32 494.785
2667 0 73.2076 11.242 823 58.0608 1106.39 499.686
2668 0 78.4119 13.4418 1054 55.5797 1106.63 497.764
2669 0 81.2626 12.4658 1013 56.7157 1105.9 494.962
2670 0 83.0613 12.8219 1065 56.8347 1106.25 490.951
2671 0 84.0863 13.8429 1164 56.4863 1105.72 492.316
2672 0 87.1665 12.4474 1085 58.1014 1105.43 490.147
2673 1 46.0968 11.606 535 57.9701 1105.8 510.52
2674 0 49.0485 12.0493 591 57.4738 1105.76 509.7
2675 0 51.0791 13.0778 668 57.4207 1106.06 507.43
2676 0 52.1143 12.0888 630 57.9936 1105.96 505.938
2677 0 53.1333 11.6876 621 58.4412 1106.23 506.823
2678 0 55.209 12.5523 693 57.8081 1106.1 504.203
2679 0 58.0522 13.0572 758 57.2916 1105.59 502.637
2680 0 60.0925 10.3507 622 59.1174 1105.36 504.805
2681 0 63.192 12.8814 814 57.1548 1105.55 503.677
2682 0 63.0639 13.1137 827 56.6602 1105.91 504.112
2683 0 68.0384 12.537 853 57.1712 1106.27 501.483
2684 0 70.1103 12.3662 867 57.1142 1105.76 500.256
2685 0 73.1071 12.598 921 57.2747 1104.98 497.401
2686 0 76.1199 14.1356 1076 55.3764 1105.69 498.771
2687 0 77.1184 14.6009 1126 55.4014 1104.98 497.084
2688 0 81.1122 12.6245 1024 56.8604 1106 496.201
2689 0 81.2236 13.0996 1064 57.3252 1105.31 494.536
2690 0 85.2786 12.8637 1097 57.2808 1104.5 491.496
2691 0 86.1647 12.685 1093 57.5114 1105.27 493.177
2692 0 91.134 11.9275 1087 58.0626 1105.55 487.431
2693 0 92.1186 12.2559 1129 58.8583 1105.32 485.81
2694 0 99.2019 14.0522 1394 56.378 1105.67 486.845
2695 1 52.3371 13.0691 684 57.9415 1106.15 508.789
2696 0 54.0332 12.8254 693 58.1472 1105.47 509.473
2697 0 57.1226 12.7095 726 57.4848 1105.55 508.176
2698 0 58.0534 13.5909 789 57.2864 1105.97 504.105
2699 0 59.1115 13.1446 777 57.8301 1105.98 503.864
2700 0 61.1115 12.1254 741 59.0135 1107.27 504.549
2701 0 64.0695 12.346 791 58.4842 1106.22 501.951
2702 0 63.0527 11.1494 703 60.0213 1106.14 501.169
2703 0 69.0621 13.6978 946 57.075 1105.63 498.341
2704 0 71.1626 15.1765 1080 55.2454 1105.81 495.766
2705 0 74.1234 12.5601 931 57.6488 1106.19 496.016
2706 0 76.3231 14.4124 1100 56.0418 1105.89 492.432
2707 0 77.0719 13.3641 1030 57.2194 1105.6 495.277
2708 0 82.0812 12.3049 1010 57.8465 1105.97 493.035
2709 0 82.1325 12.2363 1005 58.5512 1105.72 489.78
2710 0 90.2102 13.2025 1191 56.4332 1105.33 493.779
2711 0 88.1645 12.3292 1087 58.0405 1105.56 492.273
2712 1 47.1315 12.5182 590 56.961 1106.78 512.653
2713 0 51.0305 12.7375 650 56.7354 1106.82 511.571
2714 0 51.081 12.8423 656 57.6204 1107.05 507.706
2715 0 51.0553 11.5561 590 58.3881 1106.58 510.154
2716 0 53.055 12.0818 641 58.053 1105.52 508.716
2717 0 54.0681 12.6137 682 57.7478 1105.78 507.657
2718 0 54.0348 11.363 614 59.5977 1106.78 504.578
2719 0 60.123 13.6553 821 55.8965 1106.74 505.111
2720 0 61.0691 11.3642 694 58.2349 1106.98 505.213
2721 0 64.1218 12.9753 832 55.9567 1107.17 506.7
2722 0 66.0998 14.7504 975 54.4226 1107.25 501.519
2723 0 67.1157 13.1713 884 56.8914 1107.03 498.94
2724 0 69.0278 14.4 994 55.1429 1106.81 501.653
2725 0 72.1748 14.6034 1054 54.9763 1106.6 500.722
2726 0 71.0905 11.8441 842 57.6805 1106.18 500.629
2727 0 74.0533 12.653 937 57.5048 1106.17 496.519
2728 0 77.1291 12.33 951 57.633 1106.23 495.079
2729 0 81.0602 14.4831 1174 54.9148 1106.36 494.591
2730 0 83.0677 14.4822 1203 55.2352 1106.59 494.472
2731 0 86.0593 12.9097 1111 56.8497 1106.96 490.812
2732 0 92.1776 12.3023 1134 56.5132 1107.42 495.195
2733 0 95.3321 14.5491 1387 54.7138 1106.75 489.173
2734 0 96.1187 12.006 1154 57.4714 1105.84 488.754
2735 0 100.262 14.3724 1441 55.2019 1105.39 484.49
2736 0 105.155 13.7416 1445 55.4851 1105.77 485.947
2737 0 104.089 13.3924 1394 56.764 1105.87 483.142
2738 1 55.0351 11.6108 639 57.2629 1106.64 507.54
2739 0 58.0557 10.8172 628 58.2532 1106 504.615
2740 0 58.0415 12.0603 700 57.7786 1106.11 502.661
2741 0 62.1671 13.0133 809 55.7515 1105.23 503.81
2742 0 64.0499 13.0679 837 55.7491 1105.5 504.352
2743 0 63.1027 10.9029 688 58.4288 1106.1 503.626
2744 0 68.0479 13.079 890 56.1292 1105.95 500.134
2745 0 69.0293 12.0384 831 57.0686 1105.84 500.723
2746 0 72.0741 12.1542 876 56.8961 1105.98 498.396
2747 0 76.134 13.2924 1012 55.3014 1106.02 496.233
2748 0 76.0833 12.9595 986 55.8083 1106.17 498.539
2749 0 80.409 11.7897 948 57.1688 1105.47 493.359
2750 0 83.1689 13.4425 1118 55.2424 1105.47 494.827
2751 0 84.0531 11.9924 1008 57.1081 1105.93 493.353
2752 0 89.1072 13.3996 1194 55.8425 1105.85 490.801
2753 1 44.17 11.8859 525 57.3486 1107.07 510.781
2754 0 45.1128 9.99717 451 59.3082 1106.53 512.109
2755 0 46.0517 11.5739 533 57.9024 1106.44 510.128
2756 0 48.1113 11.0161 530 58.4189 1106 509.243
2757 0 48.0865 9.29575 447 59.962 1106.25 509.4
2758 0 51.1409 11.263 576 58.224 1106.23 509.536
2759 0 55.1308 13.2775 732 55.3825 1106.59 507.105
2760 0 56.2041 13.3442 750 55.4413 1106.12 506.928
2761 0 56.0434 12.3476 692 56.9436 1106.48 506.419
2762 0 57.0981 12.2771 701 57.2368 1106.8 506.566
2763 0 61.0575 12.7749 780 56.1205 1105.77 504.342
2764 0 63.0901 12.6169 796 56.0214 1105.68 503.171
2765 0 63.0939 14.0109 884 55.0747 1106.67 501.446
2766 0 66.1324 11.8399 783 57.5211 1106.19 500.203
2767 0 68.0534 11.2999 769 57.9688 1105.65 498.723
2768 0 68.0761 11.4431 779 57.6675 1106.24 499.945
2769 0 73.0553 11.7445 858 57.6655 1106.25 495.552
2770 0 73.0702 12.8096 936 57.2147 1107.06 495.68
2771 0 79.0857 12.0629 954 56.7537 1106.9 494.455
2772 0 83.0347 14.4879 1203 54.0956 1106.48 493.54
2773 0 86.0721 13.0007 1119 54.8266 1106.82 493.658
2774 0 89.2544 13.7248 1225 54.4106 1106.88 488.799
2775 0 90.1135 11.996 1081 56.0407 1107.45 490.884
2776 0 92.1532 12.7939 1179 56.1357 1106.73 487.988
2777 0 95.098 13.912 1323 54.8481 1107.17 487.635
2778 0 99.2052 13.0134 1291 55.6181 1107.14 484.766
2779 0 102.101 12.2624 1252 56.2835 1106.42 482.475
2780 0 99.1248 10.1993 1011 58.5925 1106.26 478.646
2781 1 56.0857 12.1065 679 55.3284 1106.54 507.561
2782 0 54.1336 11.8965 644 56.8245 1105.99 504.967
2783 0 56.0818 11.7329 658 56.8298 1106.55 507.698
2784 0 60.2052 13.4706 811 54.6054 1106.54 505.15
2785 0 58.1295 12.9882 755 55.6596 1106.94 506.074
2786 0 61.1014 13.3548 816 55.435 1106.7 503.064
2787 0 66.0464 10.6895 706 56.8074 1107.21 503.785
2788 0 67.1251 13.9292 935 54.3668 1106.47 498.385
2789 0 69.1178 12.8766 890 55.6326 1107 499.208
2790 0 72.0529 13.5872 979 54.6548 1106.13 495.439
2791 0 74.2373 13.2278 982 55.0906 1106.25 498.511
2792 0 77.1327 13.4703 1039 54.7103 1107.39 493.848
2793 0 80.1482 12.7264 1020 55.0892 1107.92 498.516
2794 0 84.1039 12.9483 1089 54.9963 1107.43 495.537
2795 0 86.125 12.9811 1118 54.8918 1107.01 495.007
2796 1 47.0897 11.4462 539 56.4453 1106.84 512.351
2797 0 48.0771 12.4799 600 55.5783 1106.37 511.337
2798 0 49.2198 13.6937 674 54.23 1107.54 512.617
2799 0 51.0652 12.2393 625 56.2752 1106.48 509.842
2800 0 53.0474 12.7245 675 55.6563 1106.91 510.267
2801 0 55.0329 12.8287 706 55.8952 1107.47 509.337
2802 0 56.1099 12.2617 688 56.6294 1107.15 507.296
2803 0 59.0827 13.845 818 54.7726 1106.92 507.506
2804 0 59.0302 12.4512 735 56.5973 1106.99 506.703
2805 0 62.1451 14.3535 892 54.2478 1107.46 504.654
2806 0 62.2446 11.6958 728 57.0261 1106.88 506.023
2807 0 65.0245 13.1643 856 55.7033 1106.64 504.317
2808 0 68.1712 16.0185 1092 52.3352 1107.09 504.613
2809 0 68.0679 13.3102 906 55.6711 1107.23 503.682
2810 0 70.1156 12.893 904 56.406 1107.25 498.01
2811 0 74.1157 14.8551 1101 53.7611 1106.82 498.035
2812 0 76.188 14.3592 1094 53.968 1107.17 496.354
2813 0 76.0619 12.2137 929 56.5501 1107.32 496.745
2814 0 80.1161 13.5803 1088 54.659 1107.62 494.914
2815 1 43.115 9.81098 423 56.6501 1107.88 515.241
2816 0 44.0906 12.3156 543 55.2689 1107.76 511.547
2817 0 43.0907 9.53802 411 57.8321 1107.07 511.949
2818 0 46.1199 11.0798 511 55.6517 1107.56 513.376
2819 0 49.1265 14.1064 693 52.6263 1107.46 512.67
2820 0 50.0133 12.9166 646 53.5124 1107.38 512.31
2821 0 52.152 11.1597 582 54.6718 1107.6 510.871
2822 0 51.091 10.6672 545 56.2477 1108.04 507.339
2823 0 55.0861 11.4003 628 55.2038 1107.93 506.559
2824 0 56.2782 12.3494 695 54.1352 1107.44 506.986
2825 0 59.1022 11.5732 684 54.4854 1108.31 506.351
2826 0 59.1969 10.9634 649 54.755 1108.63 507.294
2827 0 62.1636 12.1936 758 53.781 1107.89 503.836
2828 0 62.1748 11.5159 716 54.6788 1107.69 502.288
2829 0 63.0654 12.384 781 54.0115 1107.49 499.498
2830 0 67.1222 12.1122 813 53.8991 1108.19 500.027
2831 0 69.2473 11.4084 790 54.0886 1107.99 501.146
2832 0 72.1268 12.2839 886 53.3815 1108.04 501.579
2833 0 73.1624 12.5611 919 53.5811 1107.78 497.831
2834 0 77.1623 13.517 1043 52.1965 1107.62 496.573
2835 0 77.1029 11.3874 878 53.8599 1107.57 497.961
2836 0 80.187 12.1715 976 53.9334 1107.24 493.933
2837 0 83.1035 9.91534 824 55.5534 1107.76 495.447
2838 0 83.1035 9.99958 831 115.25 1107.74 495.386
2839 1 43.1455 7.83395 338 58.1095 1108.2 511.837
2840 0 43.0288 9.15666 394 57.4264 1107.93 509.132
2841 0 44.1135 12.2638 541 54.8595 1108.4 508.774
2842 0 47.0379 11.4376 538 55.2639 1108.86 507.9
2843 0 48.1409 10.0746 485 56.3856 1108.42 508.561
2844 0 50.0931 13.435 673 53.2585 1108.11 506.227
2845 0 54.0515 9.30594 503 56.9205 1108.86 504.769
2846 0 55.036 12.2102 672 53.9122 1107.98 504.131
2847 0 58.1031 10.9805 638 55.0157 1107.2 502.241
2848 0 58.0586 12.7974 743 53.354 1107.22 501.622
2849 0 60.1703 10.5866 637 55.1036 1107.86 498.229
2850 0 63.0773 12.7621 805 53.2124 1107.95 499.13
2851 0 63.059 9.32459 588 56.267 1107.65 498.594
2852 0 67.0535 11.722 786 53.7086 1108.04 496.614
2853 0 70.1947 10.9837 771 53.8418 1107.59 497.305
2854 0 73.1008 9.57582 700 55.1729 1108.66 495.716
2855 0 73.0607 9.80008 716 54.6131 1108.25 498.274
2856 0 78.1052 10.6011 828 54.2947 1108.33 491.972
2857 1 34.0494 8.28208 282 56.617 1108.13 512.567
2858 0 39.1126 10.9939 430 53.5977 1108.84 511.46
2859 0 37.0472 8.3677 310 56.871 1108.91 511.003
2860 0 45.1245 11.7896 532 52.6617 1109.22 510.957
2861 0 42.0583 11.389 479 53.9102 1107.58 509.62
2862 0 46.2027 11.4063 527 52.9715 1107.14 511.249
2863 0 45.0745 10.9374 493 54.217 1107.32 509.868
2864 0 46.239 11.4406 529 54.2987 1107.55 507.97
2865 0 50.1109 10.9557 549 53.7632 1107.67 508.33
2866 0 51.0583 12.946 661 52.2148 1108.8 508.26
2867 0 52.0676 11.7732 613 53.6101 1108.65 508.465
2868 0 51.0561 11.5363 589 54.6503 1108.43 505.166
2869 0 53.1282 11.5193 612 54.2075 1107.85 504.609
2870 0 57.0634 10.9002 622 54.4502 1108 503.534
2871 0 59.0585 13.4782 796 52.1307 1108.85 505.803
2872 0 61.1328 12.3665 756 53.1442 1108.98 502.511
2873 0 62.1443 12.9376 804 52.3607 1108.2 501.294
2874 0 66.0832 12.7869 845 52.2876 1108.19 500.032
2875 0 67.028 12.4724 836 53.3445 1107.69 499.25
2876 0 69.2236 13.3625 925 52.0605 1107.49 497.812
2877 0 70.1738 10.9015 765 54.651 1107.23 495.707
2878 0 73.3559 11.4374 839 54.1311 1107.35 495.81
2879 0 77.059 12.5748 969 52.6037 1108.12 497.426
2880 0 79.4539 10.5596 839 54.8725 1108.4 497.293
2881 0 83.1144 13.1866 1096 51.906 1107.99 497.165
2882 0 86.1846 11.7886 1016 53.503 1107.64 493.387
2883 1 45.0562 13.6718 616 51.6883 1108.2 514.13
2884 0 43.2561 11.536 499 54.978 1108.17 510.469
2885 0 45.068 11.2053 505 54.7723 1108.04 512.061
2886 0 48.1232 10.2861 495 55.4162 1107.48 510.501
2887 0 50.1945 12.6309 634 53.2082 1107.4 510.885
2888 0 54.247 11.079 601 53.7454 1108.19 511.817
2889 0 55.0883 12.7976 705 52.705 1108.92 505.908
2890 0 56.0577 13.9678 783 51.6641 1107.77 506.968
2891 0 59.2542 13.0455 773 52.0841 1108.08 507.185
2892 0 61.2653 12.4704 764 52.7212 1108.08 504.959
2893 0 59.201 11.8072 699 54.0429 1107.89 503.95
2894 0 65.1152 15.4342 1005 50.2289 1108.53 503.981
2895 0 63.075 11.2564 710 54.4521 1107.88 502.572
2896 0 64.1863 12.2924 789 53.474 1107.74 503.071
2897 0 68.29 12.8862 880 52.4693 1107.43 499.966
2898 0 70.305 13.3134 936 51.9359 1107.91 499.394
2899 0 71.0644 12.0595 857 52.8985 1108.6 498.789
2900 0 75.3324 13.9249 1049 51.081 1107.9 497.491
2901 0 77.0493 11.9144 918 52.4434 1107.87 501.074
2902 0 79.1882 12.9312 1024 52.4043 1107.76 494.916
2903 0 84.2006 12.8384 1081 52.2081 1107.83 492.792
2904 1 41.1152 11.5043 473 53.9767 1108.42 512.954
2905 0 41.0547 11.8379 486 53.7222 1108.25 513.377
2906 0 42.0935 11.5457 486 54.2634 1108.31 510.749
2907 0 45.0246 13.4149 604 52.803 1108.01 511.088
2908 0 46.0912 12.8224 591 53.4687 1108.01 509.274
2909 0 49.1486 12.3706 608 53.3388 1107.83 510.614
2910 0 50.0709 13.3611 669 52.8595 1107.86 509.345
2911 0 51.1076 11.9356 610 54.3705 1107.68 507.303
2912 0 53.0464 12.6116 669 53.5366 1108.32 507.163
2913 0 54.0772 11.2617 609 54.7192 1107.92 507.488
2914 0 57.112 12.3442 705 53.6539 1107.59 504.465
2915 0 59.1468 14.016 829 52.2147 1107.87 506.391
2916 0 60.1238 12.8235 771 53.952 1107.82 503.032
2917 0 63.3131 11.3563 719 55.0501 1107.38 504.363
2918 0 63.0348 11.5968 731 55.4227 1108.28 500.109
2919 0 66.1003 13.5552 896 53.8069 1108.27 499.848
2920 0 69.0687 12.4803 862 54.2146 1108.37 500.114
2921 0 72.1449 13.4036 967 53.5367 1108.5 495.006
2922 0 73.0825 13.0948 957 53.9686 1108.21 496.916
2923 0 77.2752 12.8243 991 53.8779 1108.51 495.38
2924 0 79.0971 13.2748 1050 53.7314 1108.51 492.996
2925 0 86.1324 14.2339 1226 52.6289 1108.57 494.71
2926 1 42.1772 11.2146 473 53.7061 1109.14 514.727
2927 0 42.021 11.0659 465 55.9957 1108.88 510.097
2928 0 44.0284 12.7872 563 54.0906 1108.83 511.4
2929 0 44.117 10.6988 472 55.9343 1108.77 511.627
2930 0 48.1307 10.9078 525 55.4076 1107.75 510.01
2931 0 47.09 12.7416 600 54.2533 1107.83 507.77
2932 0 51.1278 12.6741 648 53.966 1107.59 507.281
2933 0 50.1718 12.9953 652 54.2807 1108.6 508.068
2934 0 51.0773 10.6309 543 57.1805 1108.51 505.315
2935 0 55.1055 13.4288 740 53.7027 1108.66 508.059
2936 0 54.2729 11.3869 618 56.1942 1108.86 504.862
2937 0 58.2257 12.3485 719 54.8999 1108.43 503.245
2938 0 59.0887 12.2866 726 54.8898 1108.44 503.652
2939 0 61.0559 12.6278 771 54.4501 1109.03 501.25
2940 0 63.0447 14.228 897 53.0858 1108.3 500.962
2941 0 64.0226 11.1679 715 55.9455 1109.14 498.81
2942 0 67.1747 11.3584 763 55.4024 1107.56 501.202
2943 0 72.2102 12.3805 894 53.7438 1108.27 497.578
2944 0 75.195 12.4875 939 53.4026 1108.2 497.166
2945 0 77.1481 12.1195 935 53.3444 1108.18 496.813
2946 0 79.0948 12.2891 972 53.5103 1108.13 492.32
2947 0 87.3404 13.4646 1176 51.199 1108.52 495.601
2948 0 84.2113 11.388 959 53.9124 1107.53 491.794
2949 1 47.2119 12.6239 596 51.5453 1108.28 512.648
2950 0 44.1654 10.4833 463 55.2117 1107.87 509.477
2951 0 47.0465 10.3089 485 54.7093 1107.98 510.961
2952 0 52.0793 12.3081 641 51.6193 1108.54 509.754
2953 0 49.0447 12.6415 620 52.3581 1108.11 508.502
2954 0 51.2428 11.2992 579 53.6667 1108.41 506.895
2955 0 55.2379 11.0612 611 52.6187 1107.56 508.313
2956 0 56.2542 11.1103 625 53.3152 1107.92 505.848
2957 0 59.108 11.1829 661 53.239 1108.33 505.033
2958 0 60.0614 14.1022 847 50.8961 1107.76 502.344
2959 0 62.0926 13.1256 815 51.1558 1107.46 502.332
2960 0 63.1763 14.3725 908 50.4042 1106.91 500.439
2961 0 64.1039 12.6045 808 52.375 1107.73 498.608
2962 0 69.0897 10.4791 724 53.0856 1107.64 502.318
2963 0 70.1872 10.6715 749 53.8278 1107.2 497.372
2964 0 74.2256 10.8184 803 53.4321 1108.59 500.471
2965 0 78.2352 11.8361 926 52.932 1107.76 495.935
2966 0 78.1711 13.2914 1039 52.0135 1107.74 493.455
2967 0 80.1996 10.8355 869 54.3809 1107.24 493.346
2968 0 85.1652 13.7145 1168 51.6806 1107.31 487.583
2969 1 42.037 10.9427 460 53.763 1107.59 512.78
2970 0 43.0261 12.5273 539 53.6456 1107.96 510.091
2971 0 44.3165 13.7872 611 52.5385 1107.77 508.851
2972 0 47.1263 12.371 583 53.8422 1107.74 509.823
2973 0 48.1152 15.255 734 50.5654 1108.4 510.956
2974 0 51.1031 13.189 674 52.3709 1107.87 507.328
2975 0 51.0397 13.5973 694 52.4769 1108.05 506.709
2976 0 52.0955 12.6498 659 53.5721 1107.97 507.223
2977 0 53.1148 13.8003 733 52.8022 1108.26 505.108
2978 0 56.1432 12.6284 709 53.7518 1108.1 504.179
2979 0 60.1217 14.77 888 51.0214 1108.42 504.855
2980 0 61.1118 13.4017 819 52.5104 1108.29 500.769
2981 0 62.2111 12.9559 806 52.9864 1108.42 497.908
2982 0 66.2685 15.075 999 50.8919 1108.59 498.838
2983 0 67.2316 12.7321 856 52.8178 1108.71 498.03
2984 0 70.1451 12.6737 889 52.6502 1108.25 499.535
2985 0 69.1223 12.2247 845 53.9728 1107.38 496.252
2986 0 75.2085 12.4321 935 53.3241 1107.75 493.93
2987 0 75.0923 13.57 1019 52.6948 1108.07 493.754
2988 0 80.1727 12.8597 1031 52.5199 1107.56 495.665
2989 0 82.156 12.2328 1005 53.1632 1107.63 495.013
2990 0 85.1866 13.8872 1183 52.2249 1107.82 487.84
2991 0 91.1881 15.638 1426 50.1893 1107.49 489.791
2992 1 46.1316 9.64632 445 54.0921 1108.53 512.537
2993 0 48.0942 13.7647 662 51.3822 1108.63 510.855
2994 0 47.0356 11.8846 559 54.6512 1108.92 507.519
2995 0 49.1137 13.7436 675 52.2889 1110.09 506.474
2996 0 50.0934 10.9994 551 55.049 1109.22 507.526
2997 0 52.1369 11.7959 615 53.9837 1109.86 508.545
2998 0 52.1533 11.3128 590 55.0017 1109.08 505.678
2999 0 56.19 12.173 684 53.7924 1108 504.029
3000 0 57.0689 12.0206 686 53.7245 1108.42 503.952
3001 0 59.1354 13.951 825 52.1721 1108.68 500.613
3002 0 60.1204 14.0718 846 52.4882 1108.49 498.729
3003 0 62.2273 12.5829 783 53.6079 1108.71 498.25
3004 0 65.1437 14.8134 965 51.4694 1109.02 499.073
3005 0 66.1139 13.4767 891 52.8866 1107.93 496.804
3006 0 68.0608 11.8717 808 53.9852 1108.47 498.504
3007 0 69.1082 12.343 853 54.2837 1108.11 493.397
3008 0 72.169 12.637 912 53.1831 1107.97 495.034
3009 0 75.1601 11.1096 835 54.8275 1107.98 494.604
3010 0 76.0732 13.4739 1025 53.2488 1108.86 491.027
3011 1 35.0643 8.58422 301 56.2625 1108.68 509.744
3012 0 39.0524 8.29654 324 54.6574 1108.89 513.364
3013 0 40.1017 11.8199 474 54.0338 1107.84 511.646
3014 0 42.1123 11.9443 503 53.161 1107.72 510.549
3015 0 41.0528 11.4974 472 54.3199 1108.67 510.534
3016 0 44.0257 10.7664 474 54.6857 1109.08 507.736
3017 0 47.0191 11.6974 550 53.6127 1109.43 508.178
3018 0 48.0525 11.7996 567 53.649 1109 508.577
3019 0 46.0795 12.8691 593 53.2091 1108.36 506.578
3020 0 51.062 10.8691 555 54.7405 1109.21 505.645
3021 0 51.123 12.6166 645 52.3488 1108.41 508.05
3022 0 53.131 12.0081 638 53.2743 1109.09 503.567
3023 0 54.097 11.96 647 53.8145 1109.18 506.323
3024 0 54.1981 11.3288 614 54.6433 1109.23 502.679
3025 0 57.1249 11.8862 679 53.7806 1109.56 503.445
3026 0 57.0461 9.29073 530 56.717 1109.82 501.13
3027 0 61.0565 12.8733 786 52.8244 1109.68 500.943
3028 0 62.1402 11.812 734 53.7234 1110.12 499.302
3029 0 67.1576 13.1184 881 52.412 1109.71 497.815
3030 0 67.1493 11.8393 795 53.7849 1108.83 496.863
3031 0 70.0714 13.001 911 52.7783 1110.3 494.032
3032 0 75.1499 11.9628 899 53.0645 1109.17 494.93
3033 0 76.0784 9.54279 726 55.2562 1109.87 493.477
3034 0 80.2388 12.3382 990 52.5192 1109.89 490.358
3035 0 79.1194 10.5916 838 54.7494 1109.7 488.39
3036 0 84.0806 13.5108 1136 51.4093 1109.64 490.407
3037 1 43.1051 10.4628 451 53.4856 1108.98 509.776
3038 0 43.0232 9.62271 414 54.6111 1109.1 508.604
3039 0 46.0652 12.0264 554 52.0704 1110.31 507.458
3040 0 46.0671 11.1794 515 53.5243 1110.72 506.078
3041 0 48.0416 12.1353 583 51.6724 1110.2 506.69
3042 0 50.0937 11.6781 585 52.2342 1109.48 504.745
3043 0 52.0893 10.8468 565 52.3681 1108.85 505.384
3044 0 55.0569 12.8231 706 50.4235 1110.02 502.715
3045 0 53.1043 11.1855 594 52.633 1109.32 500.739
3046 0 54.0796 11.668 631 52.1315 1109.57 502.204
3047 0 60.0506 11.7734 707 51.4498 1109.45 499.495
3048 0 63.0919 13.4883 851 49.913 1108.54 497.535
3049 0 63.0888 12.5537 792 51.0896 1107.96 493.253
3050 0 63.0687 10.7185 676 53.1317 1108.76 495.898
3051 0 67.0861 13.356 896 50.3527 1108.7 493.919
3052 0 72.1379 14.1119 1018 49.5756 1108.57 493.777
3053 0 74.1136 12.5888 933 51.3237 1108.42 491.802
3054 0 78.0922 15.6994 1226 48.2333 1108.28 489.943
3055 0 82.1316 12.6139 1036 50.8639 1108.48 488.279
3056 0 80.0497 11.2305 899 52.5473 1108.55 486.367
3057 1 41.1187 11.2601 463 52.5551 1109.7 508.181
3058 0 42.1214 12.5352 528 51.3295 1109.2 508.161
3059 0 42.0377 10.6571 448 54.0268 1108.78 505.029
3060 0 44.0316 12.7408 561 51.7665 1108.98 502.66
3061 0 48.0166 10.8088 519 53.0674 1109.14 507.545
3062 0 47.083 11.8939 560 52.5446 1109.11 506.591
3063 0 51.0555 12.9271 660 51.6788 1108.86 505.224
3064 0 52.1195 11.3969 594 53.0825 1108.71 502.3
3065 0 52.0651 11.7161 610 53.6197 1108.6 501.415
3066 0 54.0419 12.1202 655 52.9038 1108.34 501.87
3067 0 55.1383 11.7341 647 53.7218 1108.34 499.42
3068 0 57.2263 11.638 666 53.8559 1108.61 498.449
3069 0 61.1353 12.3987 758 52.7929 1108.69 498.129
3070 0 63.215 13.5253 855 51.6795 1108.93 498.14
3071 0 63.1007 11.0617 698 54.2393 1108.77 493.426
3072 0 68.0316 12.4207 845 52.8142 1108.57 491.94
3073 0 68.0545 14.1945 966 51.7919 1108.61 492.258
3074 0 72.0793 14.9003 1074 50.838 1108.95 491.163
3075 0 73.1552 10.2522 750 55.1947 1108.44 488.744
3076 0 76.1206 12.4539 948 53.4684 1109.16 488.61
3077 1 36.0167 7.60758 274 57.2372 1109.53 508.73
3078 0 41.0359 10.3811 426 54.5047 1109.34 508.23
3079 0 42.1246 12.3681 521 51.8695 1109.12 508.605
3080 0 48.0355 12.0744 580 51.1448 1109.37 508.645
3081 0 48.1108 11.328 545 52.6037 1109.66 506.072
3082 0 46.0867 12.6284 582 51.8522 1109.45 507.46
3083 0 50.0914 12.5171 627 51.8644 1109.46 504.33
3084 0 52.0569 11.6603 607 52.4563 1110.15 500.684
3085 0 52.2141 13.0999 684 51.1199 1110.22 503.753
3086 0 54.0377 13.2685 717 50.6346 1109.54 502.516
3087 0 54.0647 12.559 679 51.8277 1109.35 503.457
3088 0 58.0795 10.6406 618 53.2104 1109.42 501.021
3089 0 59.1033 13.874 820 50.3915 1109.54 501.89
3090 0 59.0693 11.8844 702 51.688 1110.02 501.744
3091 0 60.0937 11.9813 720 52.3306 1110.03 494.658
3092 0 64.038 11.665 747 51.8005 1110.56 498.621
3093 0 66.0867 11.4698 758 52.2546 1109.36 498.032
3094 0 68.1921 11.0863 756 52.6627 1109.12 493.029
3095 0 72.0829 11.1954 807 52.2441 1108.78 492.024
3096 0 72.0705 10.0735 726 53.6708 1108.53 490.775
3097 1 41.0147 10.7279 440 52.1977 1109.3 508.652
3098 0 44.0366 13.8975 612 48.8023 1108.54 511.528
3099 0 47.1333 11.2871 532 50.4831 1108.76 511.212
3100 0 50.172 13.1348 659 48.8877 1110.1 511.472
3101 0 49.0896 10.5521 518 52.2452 1109.87 507.012
3102 0 49.1055 9.93778 488 52.9898 1109.5 508.016
3103 0 51.0836 12.7242 650 50.6277 1110.43 507.474
3104 0 53.1414 13.7746 732 49.6284 1109.17 508.287
3105 0 57.0892 12.0688 689 50.8055 1109.24 506.53
3106 0 55.2107 13.0409 720 51.0583 1109.8 504.392
3107 0 51.0629 11.2019 572 53.6521 1109.45 503.191
3108 0 55.0516 11.8434 652 52.4463 1108.93 504.239
3109 0 58.0694 11.4862 667 53.1604 1109.11 499.357
3110 0 60.0414 10.8758 653 53.5513 1109.62 499.658
3111 0 64.087 12.8887 826 50.5702 1109.62 503.28
3112 0 62.0522 15.1324 939 49.3738 1111 502.075
3113 0 65.0957 13.196 859 51.2293 1110.02 499.831
3114 0 68.2133 12.5049 853 52.32 1108.99 496.866
3115 0 66.1803 12.2997 814 52.8784 1109.75 493.726
3116 0 70.1324 12.291 862 53.0186 1109.31 493.481
3117 0 79.204 10.9717 869 53.0403 1109.7 492.54
3118 0 76.1273 10.8765 828 54.5821 1109.4 488.236
3119 1 40.1372 10.4392 419 52.9714 1109.86 509.73
3120 0 39.0142 11.8162 461 53.7137 1109.27 506.193
3121 0 40.0339 9.76673 391 55.9898 1110.09 505.859
3122 0 43.0451 13.451 579 52.2522 1110.48 505.534
3123 0 52.1812 12.974 677 51.1329 1109.04 507.318
3124 0 53.0204 10.3545 549 53.6193 1109.38 503.72
3125 0 54.0925 10.5375 570 53.5018 1110.15 505.093
3126 0 57.2169 13.2828 760 50.75 1110.06 503.111
3127 0 51.0369 9.99277 510 55.0176 1109.48 501.682
3128 0 58.0749 11.4507 665 53.4045 1109.58 500.582
3129 0 61.1097 10.1784 622 54.2444 1109.34 500.563
3130 0 63.1471 12.2096 771 52.3632 1109.17 498.437
3131 0 52.061 10.4685 545 56.7321 1108.76 494.501
3132 1 65.1694 10.818 705 54.4028 1109.28 496.698
3133 0 69.1702 10.3947 719 54.6551 1109.48 497.107
3134 0 70.1423 12.0184 843 53.0641 1110.46 496.624
3135 0 74.4241 10.3461 770 54.5545 1109.05 493.977
3136 0 75.1622 10.1248 761 55.1012 1108.63 494.206
3137 0 75.2025 8.72311 656 56.7957 1108.95 489.107
3138 0 78.2515 11.642 911 53.9791 1108.6 489.609
3139 0 85.1693 12.1288 1033 52.638 1108.7 494.562
3140 0 88.1995 13.6282 1202 51.4917 1108.67 489.848
3141 0 88.126 8.37437 738 57.0732 1109.57 488.909
3142 1 50.0997 10.6787 535 53.9888 1110.3 508.421
3143 0 50.1574 9.58982 481 55.7027 1110.58 506.859
3144 0 54.2065 11.5115 624 52.7628 1109.52 508.112
3145 0 56.2317 9.90545 557 54.8905 1109.02 501.194
3146 0 58.146 11.7635 684 53.2866 1109.47 505.542
3147 0 60.106 12.9604 779 52.1528 1109.23 505.203
3148 0 59.1483 11.3444 671 54.5797 1109.3 502.937
3149 0 62.2666 12.1735 758 53.157 1108.86 504.212
3150 0 66.424 10.3125 685 54.9328 1108.93 502.874
3151 0 69.2079 12.4408 861 52.8269 1108.36 502.654
3152 0 72.3826 12.6273 914 52.3632 1108.8 502.496
3153 0 71.1331 12.09 860 53.6791 1107.86 497.372
3154 0 74.2882 11.9534 888 53.518 1108.34 498.758
3155 0 76.2663 10.424 795 55.1811 1108.78 498.191
3156 0 78.1941 14.1954 1110 51.918 1108.24 494.511
3157 0 82.1988 12.8469 1056 53.2026 1108.32 496.276
3158 0 83.3799 12.8568 1072 53.3358 1108.01 493.921
3159 0 86.1735 12.9158 1113 53.3414 1108.12 493.895
3160 0 89.3794 11.2442 1005 54.9015 1106.49 489.74
3161 0 92.3281 13.9178 1285 52.3066 1107.3 490.991
3162 0 93.5846 11.9144 1115 54.0987 1107.36 491.06
3163 0 97.2465 12.7408 1239 53.9314 1107.35 486.016
3164 1 53.3956 7.60362 406 58.3005 1107.22 506.281
3165 1 14.0018 11.2842 158 44.8228 1109.21 527.918
3166 0 15.0092 9.92725 149 46.2349 1108.99 527.772
3167 0 13.0048 5.61329 73 49.1507 1109.41 527.274
3168 0 16.0106 5.68375 91 48.4066 1109.41 526.89
3169 0 15.0032 8.86478 133 46.3985 1109.06 527.391
3170 0 15.0043 6.13156 92 47.5217 1109.32 529.706
3171 0 17.0285 9.80708 167 45.0479 1109.86 527.24
3172 0 14.0251 4.99106 70 48.9857 1109.66 527.8
3173 0 16.0063 8.24674 132 47.3409 1109.69 527.182
3174 0 16.0244 10.4216 167 44.9641 1109.58 526.898
3175 0 18.0145 7.27193 131 46.7939 1109.13 528.145
3176 0 22.2374 8.58915 191 43.5654 1108.6 530.01
3177 0 19.0179 9.30701 177 45.4859 1108.69 527.48
3178 0 20.0575 11.9656 240 43.3792 1109.35 527.633
3179 0 16.0045 7.43542 119 47.7647 1109.3 526.765
3180 0 19.0595 10.336 197 44.7411 1109.8 528.147
3181 0 20.1147 6.81094 137 47.0438 1109.28 528.131
3182 0 19.037 9.14011 174 46.1724 1109.36 526.988
3183 0 21.1689 8.73922 185 46.2649 1109.09 528.557
3184 0 19.0465 7.45544 142 46.9225 1109.13 529.246
3185 0 19.0639 10.8582 207 46.6715 1108.27 525.242
3186 0 20.0834 10.6058 213 45.4977 1109.26 527.775
3187 0 17.0277 5.57914 95 50.5684 1108.68 526.116
3188 0 19.0021 6.31509 120 49.8583 1109.68 527.842
3189 0 19.0025 5.36773 102 50.0784 1110.36 527.314
3190 0 22.0758 10.4186 230 46.2783 1110.2 525.452
3191 0 19.0163 5.31124 101 50.4554 1109.58 526.634
3192 0 22.019 7.53893 166 48.8554 1108.86 524.313
3193 0 22.0314 11.0751 244 45.8115 1109.8 526.775
3194 0 23.0353 12.2855 283 45.5583 1109.68 524.721
3195 0 24.07 10.3448 249 46.8715 1109.86 524.859
3196 0 23.0462 8.15754 188 48.8883 1109.64 524.048
3197 0 22.0376 7.71407 170 49.6941 1109.91 524.647
3198 0 22.0545 10.7461 237 47.2869 1109.27 525.274
3199 0 23.0681 8.36652 193 48.4974 1109.89 525.389
3200 0 21.1551 11.203 237 47.7215 1108.92 525.08
3201 0 22.0223 11.1705 246 48.4959 1108.27 522.752
3202 0 25.0611 11.053 277 48.148 1109.52 523.744
3203 0 23.1476 6.52336 151 51.4967 1109.56 525.576
3204 0 25.0634 10.0146 251 48.9602 1109.56 524.618
3205 0 26.0577 11.5129 300 48.11 1109.22 521
3206 0 26.0954 8.92877 233 50.0043 1109.51 524.695
3207 0 24.1062 10.5782 255 49.4118 1109.4 522.98
3208 0 26.0726 11.1995 292 49.3459 1109.9 523.421
3209 0 26.1222 10.4509 273 50.2967 1109.27 522.245
3210 0 24.0922 8.592 207 52.8164 1110.05 522.14
3211 0 26.0943 9.61896 251 51.2191 1110.56 521.586
3212 0 27.1449 9.06249 246 51.561 1109.75 523.402
3213 0 28.2235 9.56649 270 51.3296 1109.84 523.6
3214 0 28.0825 10.1487 285 51.4912 1109.24 522.888
3215 0 29.1188 9.68446 282 52.4645 1109.28 521.245
3216 0 27.1156 9.33043 253 53.3755 1109.51 522.648
3217 0 29.0467 11.4643 333 51.5465 1109.84 521.835
3218 0 29.0389 10.2277 297 54.3872 1110.32 521.273
3219 0 32.029 12.1452 389 52.4344 1109.91 520.326
3220 0 32.1586 11.35 365 52.8493 1110.61 522.447
3221 0 34.2125 13.6792 468 51.8504 1109.95 519.989
3222 0 34.1729 11.3248 387 54.0129 1109.03 519.602
3223 0 35.193 9.77467 344 55.7645 1109.22 520.785
3224 0 34.244 10.396 356 56.2556 1109.03 520.14
3225 0 35.1596 10.7794 379 55.9367 1108.79 519.828
3226 0 37.3762 12.6551 473 54.2579 1108.5 519.425
3227 0 36.1276 12.5943 455 55.5143 1109.18 518.69
3228 0 38.3422 10.6149 407 57.0835 1109.05 518.902
3229 0 39.2525 10.4452 410 58.0634 1109.81 518.205
3230 0 40.2954 10.6464 429 57.8345 1109.93 517.921
3231 0 40.2581 11.9479 481 57.4574 1109.59 516.632
3232 0 41.1395 11.6676 480 58.4167 1109.5 516.481
3233 0 40.1334 8.17274 328 61.6707 1109.41 517.287
3234 0 42.2037 10.9469 462 59.4675 1109.13 514.81
3235 0 44.2402 11.0081 487 58.8049 1108.77 516.538
3236 0 43.1654 9.59102 414 61.1449 1109.93 516.408
3237 0 46.2225 11.4663 530 58.7604 1109.85 513.975
3238 0 46.2442 10.8338 501 60.1317 1110.02 513.477
3239 0 48.3466 11.1487 539 59.692 1109.61 514.551
3240 0 49.2531 11.7556 579 59.2625 1109.31 514.75
3241 0 49.2531 11.7759 580 130.528 1110.31 514.712
3242 0 50.2417 9.97179 501 61.6527 1108.69 512.794
3243 0 51.2052 10.4286 534 59.927 1108.54 515.212
3244 0 53.3838 10.2091 545 60.655 1108.74 513.292
3245 0 54.2782 12.0675 655 58.7969 1109 512.866
3246 0 55.4099 12.2541 679 58.8866 1109.51 511.384
3247 0 55.2143 11.4463 632 59.9161 1108.72 509.709
3248 0 57.4998 12.2261 703 59.2233 1108.17 508.583
3249 0 58.4572 10.6403 622 60.3762 1108.44 510.862
3250 0 57.3438 8.05667 462 63.4307 1109.31 510.55
3251 0 59.318 11.4468 679 60.246 1108.19 506.82
3252 0 59.318 11.4468 679 115.601 1107.19 506.82
3253 0 60.234 11.1897 674 60.9436 1108.21 505.049
3254 0 62.3375 10.9886 685 60.946 1108.99 507.66
3255 0 64.4446 10.5362 679 61.4919 1108.16 507.604
3256 0 65.3883 10.0935 660 61.7348 1107.62 508.794
3257 0 62.3152 10.6716 665 62.5684 1108.67 507.15
3258 0 62.3416 11.052 689 62.3077 1107.91 507.126
3259 0 62.39 10.0016 624 63.4712 1107.17 507.873
3260 0 66.2465 11.5931 768 61.5651 1106.87 507.087
3261 0 65.3966 10.1076 661 63.3116 1106.76 507.053
3262 0 65.4246 9.38485 614 65.0912 1106.53 506.533
3263 0 69.2918 11.1701 774 62.3036 1106.77 507.09
3264 0 68.4603 9.47995 649 64.0031 1106.32 508.823
3265 0 70.5351 10.392 733 63.7517 1105.94 505.172
3266 0 72.4762 10.7346 778 63.644 1106.02 505.202
3267 0 75.5468 12.1911 921 61.7535 1105.89 504.8
3268 0 75.4341 11.3609 857 62.5449 1105.96 502.587
3269 0 75.653 11.1694 845 62.8178 1106.29 503.212
3270 0 77.4401 10.4855 812 64.1552 1105.98 503.548
3271 0 80.7189 11.1498 900 64.4611 1106.32 501.412
3272 0 82.6512 10.5867 875 64.7589 1105.88 500.866
3273 0 80.4833 9.30627 749 66.8518 1105.32 500.31
3274 0 84.6804 12.0925 1024 63.6221 1106.08 501.933
3275 0 85.6462 13.0887 1121 62.959 1106.84 501.399
3276 0 86.5911 11.7333 1016 64.8691 1105.69 502.105
3277 0 86.6871 10.7398 931 66.5081 1105.74 502.217
3278 0 87.4093 12.2298 1069 65.0318 1104.83 501.316
3279 0 88.5188 11.5004 1018 67.002 1104.14 499.188
3280 0 90.6795 11.9983 1088 65.6884 1104.02 499.663
3281 0 90.7159 11.5636 1049 67.0238 1103.9 500.102
3282 0 91.7336 12.2747 1126 66.4094 1103.84 502.529
3283 0 92.599 13.1535 1218 65.8087 1104.34 497.094
3284 0 95.9871 12.6475 1214 66.1071 1105.45 498.94
3285 0 95.6626 11.0388 1056 67.9148 1104.87 499.81
3286 0 98.6425 11.8407 1168 67.4786 1104.16 497.467
3287 0 98.8046 11.4266 1129 67.7502 1105.37 498.164
3288 0 99.6492 10.0452 1001 69.7972 1105.12 498.525
3289 0 101.721 11.9346 1214 67.7158 1105.13 496.506
3290 0 100.618 10.833 1090 69.5908 1104.61 495.99
3291 0 103.916 11.9038 1237 67.8019 1105.42 498.795
3292 0 105.76 11.7152 1239 68.063 1105.55 497.904
3293 0 105.714 12.4203 1313 67.8264 1105.73 494.849
3294 0 106.543 13.6564 1455 65.9794 1105.35 495.92
3295 0 107.851 12.2205 1318 68.6692 1105.46 492.395
3296 0 111.729 11.1519 1246 69.073 1105.49 496.199
3297 0 112.075 11.4388 1282 69.4696 1105.68 490.023
3298 0 113.842 10.9977 1252 69.9912 1105.5 491.364
3299 0 113.741 12.2471 1393 68.1307 1105.24 494.371
3300 0 117.705 11.7242 1380 69.0348 1105.37 491.992
3301 0 118.156 11.9841 1416 69.5374 1105.92 487.215
3302 0 120.035 11.4883 1379 69.3727 1106.25 489.215
3303 0 121.652 12.2563 1491 69.389 1106.31 483.995
3304 0 124.02 11.9013 1476 69.5406 1106.84 485.242
3305 1 56.3859 9.18669 518 70.3417 1108.11 517.539
3306 0 55.2776 10.6734 590 68.1729 1107.64 517.081
