time division length width area intensity CMx CMy
0 0 60.0882 12.1821 732 66.1776 766.066 508.906
1 0 63.1032 13.1847 832 63.756 765.738 508.196
2 0 64.0978 13.183 845 63.6118 765.921 508.654
3 0 66.0645 13.4717 890 63.0427 765.944 507.785
4 0 70.0654 14.3866 1008 60.6339 765.038 509.044
5 0 71.059 14.115 1003 61.0917 765.623 508.287
6 0 71.0462 14.3287 1018 61.4342 765.299 506.53
7 0 74.1136 14.4643 1072 60.4935 764.77 507.575
8 0 75.1684 13.9287 1047 61.4976 764.51 503.601
9 0 77.2131 12.3036 950 63.2558 765.478 504.768
10 0 81.1557 13.9731 1134 60.7081 764.738 504.386
11 0 83.1973 14.2793 1188 60.4217 765.073 500.028
12 0 85.1925 14.3322 1221 60.7895 765.068 498.338
13 0 90.1083 15.2483 1374 58.7089 764.772 499.187
14 0 90.0766 11.0351 994 63.8189 763.898 499.004
15 0 94.082 14.1898 1335 60.4614 764.553 498.713
16 0 96.0989 13.2572 1274 61.9906 764.423 496.393
17 0 99.0536 13.7905 1366 61.5505 764.264 494.261
18 1 51.0407 10.0704 514 65.1673 764.549 518.136
19 0 53.1054 12.2586 651 62.2934 764.155 516.902
20 0 55.0568 13.6586 752 60.887 764.556 516.192
21 0 57.0478 12.1477 693 62.4762 764.307 516.747
22 0 56.2074 12.3471 694 62.7493 764.487 515.091
23 0 58.0256 12.2187 709 63.1946 764.55 512.688
24 0 61.1207 12.3526 755 62.755 764.864 512.885
25 0 63.0836 12.4597 786 62.5827 764.912 513.464
26 0 64.0836 12.6554 811 63.0802 764.983 510.901
27 0 68.0303 13.7292 934 62.1874 764.805 509.586
28 0 68.1312 11.7421 800 64.635 764.72 510.728
29 0 70.1033 12.2533 859 64.9872 764.854 509.366
30 0 74.0674 12.6776 939 64.6826 764.708 507.268
31 0 77.0807 13.0642 1007 63.9265 765.516 507.299
32 0 77.067 12.846 990 65.4778 764.639 504.806
33 0 78.1517 12.9492 1012 66.1413 765.124 503.562
34 0 83.2243 12.5925 1048 66.4151 766.277 502.357
35 0 87.0878 13.4577 1172 65.6826 766.358 501.535
36 0 89.2112 12.4872 1114 67.1867 766.467 500.526
37 1 47.0583 10.2639 483 67.4762 766.393 519.594
38 0 48.0518 12.1119 582 65.1907 766.852 520.624
39 0 49.0803 11.3895 559 66.9678 766.199 520.356
40 0 51.0196 12.3678 631 66.5151 766.816 517.902
41 0 53.1097 12.3706 657 66.8143 766.405 517.344
42 0 52.0442 11.8745 618 67.9223 766.68 518.181
43 0 56.1103 11.2813 633 68.5182 766.995 515.243
44 0 56.0934 10.7856 605 69.5471 766.689 516.152
45 0 58.0719 10.0909 586 70.2696 766.72 514.177
46 0 61.0671 11.3154 691 68.4573 766.686 514.926
47 0 62.0796 10.3255 641 70.1342 766.785 513.471
48 0 65.2353 11.7421 766 68.7859 767.277 511.346
49 0 68.0901 11.6023 790 69.1481 766.618 510.799
50 0 69.1108 11.4599 792 70.8068 766.569 506.46
51 0 72.0633 10.8932 785 70.6879 767.042 509.873
52 0 76.1675 11.4747 874 69.4279 766.4 508.487
53 0 76.0925 11.5649 880 70.5818 766.573 505.062
54 0 80.0516 10.6681 854 71.6522 766.697 503.561
55 1 41.0233 10.8962 447 68.2081 767.166 521.682
56 0 44.0443 11.1706 492 67.7378 767.356 522.25
57 0 44.049 12.4407 548 66.2828 767.701 521.569
58 0 44.0519 11.5092 507 68.8935 767.114 519.955
59 0 48.0551 12.0279 578 67.083 767.299 519.405
60 0 50.0288 11.4334 572 67.5962 767.15 518.941
61 0 51.1133 11.3669 581 67.5077 767.036 519.757
62 0 52.0343 11.6077 604 68.3378 767.285 517.21
63 0 53.0249 11.5795 614 67.9788 766.546 517.98
64 0 56.0643 12.0219 674 67.408 766.859 516.797
65 0 57.0664 12.1437 693 67.5931 767.11 515.629
66 0 56.0618 11.0592 620 70.1032 766.698 514.279
67 0 61.1024 11.7344 717 67.9888 767.071 513.918
68 0 62.0784 10.8895 676 69.0902 766.891 514.615
69 0 63.1323 10.8502 685 69.5723 766.79 512.74
70 0 65.0509 10.7762 701 69.8031 767.047 511.017
71 0 67.0874 12.0589 809 68.1459 766.452 509.393
72 0 67.0882 9.28628 623 71.4944 766.86 509.014
73 0 71.0471 11.8091 839 67.4565 766.715 508.461
74 0 73.0736 11.3174 827 68.4946 766.422 506.966
75 0 76.0769 11.2123 853 67.939 766.129 506.354
76 0 77.1591 11.1847 863 69.0058 766.474 502.455
77 0 81.0978 11.5046 933 67.7385 766.19 502.907
78 0 83.0607 11.0401 917 66.3555 765.763 504.924
79 0 85.2308 11.4513 976 68.9396 766.342 498.144
80 0 86.128 10.7863 929 70.5727 766.361 497.72
81 0 89.1035 11.6943 1042 69.0595 766.625 498.007
82 1 48.0446 11.9472 574 65.6045 767.418 518.847
83 0 50.0547 11.5074 576 66.4496 767.592 517.378
84 0 50.0744 11.9822 600 66.5967 766.725 515.092
85 0 52.0477 10.9515 570 67.521 766.996 515.819
86 0 51.1023 8.61018 440 70.1682 766.552 516.391
87 0 55.0514 10.6083 584 67.9675 767.416 514.132
88 0 57.0713 12.7034 725 64.7848 766.586 513.073
89 0 58.177 11.5338 671 66.0745 766.894 513.899
90 0 60.0829 10.835 651 67.0492 767.049 512.985
91 0 62.0976 12.4643 774 64.7933 767.662 514.238
92 0 61.0644 12.757 779 65.5071 767.032 508.996
93 0 63.257 11.0818 701 67.8688 767.064 508.702
94 0 66.1433 10.8099 715 68.1301 767.304 507.673
95 0 70.1185 12.8639 902 64.6419 767.481 508.358
96 0 71.0872 11.3663 808 67.4369 767.421 508.484
97 0 74.1664 12.5529 931 65.7325 767.057 507.208
98 0 76.1803 11.7222 893 66.9082 767.218 507.662
99 0 77.1213 12.1886 940 66.9904 766.45 504.508
100 0 80.0893 12.0116 962 67.3711 767.026 502.21
101 0 80.1374 10.9811 880 69.625 766.983 501.499
102 0 83.1096 12.7663 1061 66.9604 766.465 502.91
103 1 42.012 9.14024 384 69.3438 767.625 519.995
104 0 45.0544 10.454 471 68.0955 768.168 518.837
105 0 46.0219 11.4945 529 66.5198 767.163 519.87
106 0 48.0286 11.0976 533 68.0769 766.756 516.126
107 0 49.0212 12.9332 634 64.8659 767.341 517.694
108 0 51.0297 11.1308 568 67.25 767.122 516.616
109 0 53.0484 12.63 670 65.491 767.49 515.84
110 0 53.0629 10.9493 581 68.0516 767.604 514.759
111 0 55.056 11.679 643 66.6547 767.11 515.403
112 0 54.0701 10.5234 569 69.2953 766.907 512.244
113 0 57.086 11.8418 676 67.5296 767.178 511.698
114 0 59.0403 11.5176 680 67.7382 767.037 512.257
115 0 60.0772 12.3841 744 67.2352 766.651 510.543
116 0 61.1432 12.7896 782 66.3197 766.829 509.62
117 0 65.1207 12.2388 797 67.1455 767.289 508.206
118 0 66.1572 10.7018 708 69.3757 767.47 508.424
119 0 67.1328 11.8422 795 68.6792 767.187 504.356
120 0 73.1914 12.9387 947 65.5312 767.328 507.137
121 0 70.1714 10.1323 711 70.7243 767.43 505.248
122 0 75.0658 11.6698 876 67.2648 766.143 505.903
123 1 40.0645 10.9573 439 66.2301 767.497 520.738
124 0 41.0472 9.74488 400 68.3725 767.325 519.995
125 0 44.0696 11.5953 511 65.092 767.325 519.303
126 0 44.1161 12.2178 539 65.1076 767.046 518.462
127 0 47.1346 11.6899 551 65.4882 767.456 517.688
128 0 46.187 12.2329 565 65.7345 767.134 515.317
129 0 50.1357 11.7481 589 65.7572 766.779 515.491
130 0 49.0403 11.9697 587 66.4344 766.646 513.179
131 0 50.0771 10.2841 515 68.6718 766.763 513.268
132 0 53.0893 11.3206 601 66.4742 766.238 512.609
133 0 53.1671 10.6081 564 67.5213 766.09 512.677
134 0 57.0982 11.3839 650 66.2662 766.718 510.415
135 0 59.0578 12.2084 721 65.1026 767.454 509.775
136 0 61.1098 11.1602 682 66.3064 766.903 507.604
137 0 62.103 10.9818 682 66.2038 767.286 507.852
138 0 63.1715 11.0176 696 65.898 767.22 509.036
139 0 68.0986 11.8358 806 64.16 767.067 506.605
140 0 69.1459 11.1937 774 64.655 766.814 507.416
141 0 71.105 11.4479 814 65.0258 767.087 503.294
142 0 73.3461 10.8527 796 65.1608 767.378 504.015
143 0 78.3282 11.8603 929 63.7438 767.173 500.749
144 0 80.2397 11.2662 904 64.4757 767.541 500.829
145 0 82.2817 12.2871 1011 63.1088 767.002 499.435
146 1 43.0632 9.35835 403 63.737 767.821 519.806
147 0 43.1003 10.9512 472 62.8941 767.905 518.659
148 0 43.0692 9.17129 395 65.2051 767.504 518.711
149 0 44.0975 9.00277 397 66.0705 768.224 516.972
150 0 48.1114 10.6628 513 63.6394 769.906 515.404
151 0 48.0532 12.6943 610 61.8 769.154 513.643
152 0 51.0168 11.9176 608 62.8273 769.204 513.451
153 0 51.0511 11.1065 567 64.3686 768.87 514.139
154 0 52.137 11.067 577 64.7314 767.979 513.045
155 0 54.1377 9.90067 536 65.5504 768.858 512.03
156 0 54.2006 9.76004 529 66.6673 768.73 509.866
157 0 58.1307 9.96031 579 65.9292 768.686 509.451
158 0 59.0574 12.0391 711 63.5063 767.983 507.858
159 0 61.0779 12.8033 782 62.8977 767.849 505.674
160 0 65.1556 11.7411 765 63.8771 768.792 505.101
161 0 64.1658 11.9534 767 64.9257 768.035 503.205
162 0 67.0646 10.4526 701 65.8188 767.156 505.669
163 0 69.163 11.8561 820 64.3439 767.509 504.356
164 0 73.0898 10.6855 781 65.4571 768.118 504.027
165 0 75.1182 10.3836 780 66.2705 768.287 502.199
166 0 76.2048 10.0125 763 67.7772 767.497 497.796
167 0 79.1574 11.1045 879 65.9579 767.983 500.42
168 1 40.0846 9.25543 371 65.8679 768.399 518.518
169 0 42.0729 8.4615 356 66.9522 768.163 517.489
170 0 43.1588 10.3571 447 64.8546 768.092 517.843
171 0 43.0988 9.44341 407 66.2187 768.248 515.027
172 0 47.0906 9.06763 427 65.5667 767.808 515.059
173 0 47.0602 10.7097 504 64.6786 768.067 515.405
174 0 48.142 10.9883 529 65.259 768.276 512.042
175 0 50.0696 11.5639 579 64.0708 768.397 511.915
176 0 52.056 10.1813 530 65.9924 769.281 511.153
177 0 52.0314 10.3207 537 66.5642 768.752 511.169
178 0 53.0558 10.8 573 65.7051 769.056 510.038
179 0 54.0148 10.1824 550 67.5582 768.833 508.002
180 0 60.1121 11.9444 718 63.4234 767.889 509.631
181 0 60.0554 10.7567 646 65.5325 767.994 509.33
182 0 63.0706 13.2391 835 61.3425 767.024 509.545
183 0 63.0546 11.498 725 64.4869 766.846 507.208
184 0 65.0541 11.1599 726 64.2135 766.948 506.865
185 0 67.0625 10.7512 721 64.4008 766.264 506.179
186 0 69.0472 11.1228 768 63.8776 766.176 501.754
187 0 69.0768 10.51 726 64.6102 766.103 503.247
188 0 74.061 12.2332 906 62.021 766.085 501.7
189 0 75.0939 12.0249 903 62.6146 764.485 500.937
190 0 79.0854 12.4675 986 61.3458 764.684 503.739
191 0 80.1836 11.8603 951 62.6709 764.388 500.631
192 0 80.0624 11.7408 940 63.3064 763.831 498.058
193 0 85.2507 11.0615 943 63.175 764.206 501.462
194 0 88.1461 12.6154 1112 61.3606 764.255 498.431
195 0 87.1491 11.4402 997 63.6851 764.057 496.344
196 0 93.2847 12.5637 1172 61.9514 763.52 498.794
197 0 95.138 13.2229 1258 60.7981 764.367 499.5
198 1 49.1027 11.2417 552 63.0127 764.087 517.721
199 0 49.1183 10.7903 530 62.5717 763.162 520.743
200 0 50.0933 9.98138 500 64.058 763.556 520.038
201 0 53.1528 10.0089 532 63.6523 763.66 519.449
202 0 54.0778 12.482 675 61.043 763.4 518.219
203 0 55.1349 12.279 677 60.8316 763.34 518.623
204 0 58.1305 10.8033 628 62.7102 762.748 518.541
205 0 59.1158 12.9407 765 60.4614 762.774 516.047
206 0 62.0437 12.0882 750 60.7813 762.356 516.895
207 0 61.1106 11.9783 732 61.5 763.083 515.779
208 0 60.0796 12.6998 763 61.3604 762.539 513.163
209 0 66.1549 12.6672 838 60.6981 762.715 513.743
210 0 67.1509 13.3133 894 59.9318 763.176 513.833
211 0 67.0979 13.8156 927 59.9838 762.654 511.237
212 0 71.1799 13.0233 927 60.521 762.332 512.398
213 0 74.1603 12.473 925 61.12 761.996 511.046
214 0 73.105 12.1879 891 61.8418 762.141 512.846
215 0 75.0955 12.0247 903 61.9291 761.694 511.487
216 0 79.0836 10.6722 844 63.2026 761.623 508.231
217 0 81.1174 11.2306 911 63.079 761.124 508.352
218 0 83.1123 11.6228 966 63.4896 760.951 502.251
219 1 41.0159 6.65596 273 64.8388 761.172 528.396
220 0 41.0261 10.2618 421 62.6342 761.287 524.052
221 0 43.0392 10.1768 438 62.2694 761.374 522.724
222 0 44.0377 10.6954 471 62.2484 760.841 521.975
223 0 46.0226 11.8855 547 61.0731 760.982 521.645
224 0 48.06 12.63 607 59.9061 761.15 520.348
225 0 48.0493 11.7588 565 61.4442 761.025 519.616
226 0 52.0888 12.3059 641 58.9688 760.92 521.384
227 0 53.0851 12.7343 676 58.4941 761.025 521.195
228 0 52.2258 11.0865 579 62.228 760.72 516.767
229 0 54.0581 11.7836 637 61.0738 761.033 516.334
230 0 56.0382 11.4208 640 60.4766 761.402 517.65
231 0 56.0477 12.6856 711 59.9902 761.401 515.409
232 0 58.0484 12.2829 713 61.122 761.297 514.116
233 0 61.0879 10.5422 644 62.6584 761.658 513.559
234 0 61.0448 12.3024 751 61.257 761.479 513.273
235 0 62.0837 12.6281 784 60.9809 760.815 512.823
236 0 66.1376 11.8541 784 61.2296 761.144 513.111
237 0 63.093 10.4766 661 63.062 761.575 510.262
238 0 69.0988 12.7643 882 60.7143 760.841 508.466
239 0 72.093 12.2203 881 60.9728 761.731 509.345
240 0 72.0996 12.5521 905 61.9779 762.252 507.423
241 0 74.3633 12.1969 907 62.0353 762.259 506.275
242 0 77.057 12.6919 978 62.2515 761.879 504.493
243 0 77.0331 12.4752 961 62.2622 761.819 506.38
244 0 80.0855 12.3993 993 63.2729 761.868 504.099
245 0 83.053 11.4264 949 64.3351 762.105 501.172
246 0 87.0834 11.5751 1008 63.7857 762.45 502.013
247 0 88.1638 13.8832 1224 61.973 762.099 499.784
248 0 89.064 11.823 1053 65.0332 762.186 498.692
249 0 92.2703 10.8377 1000 66.108 762.982 499.757
250 1 50.0472 12.1285 607 63.5288 762.56 518.827
251 0 52.0305 10.859 565 64.6142 762.352 519.703
252 0 55.0394 11.5735 637 63.8273 761.909 517.537
253 0 56.0535 11.7923 661 63.6218 762.637 518.424
254 0 54.0354 12.1217 655 64.7527 762.383 515.003
255 0 58.0667 12.7956 743 63.0646 762.646 515.283
256 0 61.0808 11.0509 675 64.6059 762.456 514.967
257 0 60.126 11.3262 681 64.3979 762.261 516.579
258 0 65.0693 12.9862 845 62.3976 763.034 514.409
259 0 65.0951 12.0132 782 63.9962 762.763 513.88
260 0 67.1724 14.5298 976 61.4918 762.55 511.026
261 0 69.0508 11.2236 775 64.7613 762.222 512.854
262 0 71.1392 13.818 983 62.2818 762.209 511.31
263 0 73.1171 12.4868 913 63.7689 761.746 509.764
264 0 76.1172 11.1801 851 64.7732 761.971 511.894
265 0 78.066 11.8233 923 64.7768 761.757 509.585
266 0 82.0804 11.4887 943 65.1771 761.726 508.018
267 0 84.1008 13.1866 1109 63.6348 762.036 506.774
268 0 87.1268 12.6367 1101 64.6521 761.359 505.827
269 0 90.1714 11.4227 1030 66.8049 761.505 504.223
270 0 91.1174 11.8858 1083 66.6408 761.325 501.188
271 1 47.0333 11.2261 528 65.0928 761.098 523.424
272 0 46.0562 10.1832 469 66.6439 761.403 523.67
273 0 48.0788 12.2507 589 64.9304 760.732 522.542
274 0 50.0775 11.3424 568 66.0035 760.458 522.72
275 0 51.041 11.4222 583 66.3362 760.439 520.185
276 0 53.067 11.4949 610 65.741 760.375 521.523
277 0 55.0938 12.4152 684 65.2398 760.596 519.328
278 0 55.0345 10.6842 588 67.5425 760.391 518.949
279 0 58.0647 12.0211 698 66.1905 760.312 518.049
280 0 59.1309 10.8742 643 68.0202 760.263 518.12
281 0 62.0895 13.0135 808 65.3045 759.988 518.757
282 0 65.0594 12.65 823 66.2491 760.137 516.916
283 0 67.2033 11.7851 792 67.5543 760.505 516.319
284 0 68.0863 13.1451 895 66.8168 760.14 513.534
285 0 72.2704 12.4394 899 66.7586 759.438 515.531
286 0 74.0834 12.8099 949 67.2023 758.993 512.795
287 0 75.1338 13.1099 985 67.4071 759.16 511.004
288 0 77.1087 11.1142 857 70.2812 759.573 509.495
289 0 81.1055 13.4886 1094 67.8355 759.322 507.682
290 1 44.0527 11.1004 489 69.3027 758.575 525.014
291 0 45.0527 12.2301 551 68.6225 758.818 525.058
292 0 46.0343 12.2517 564 69.3918 758.943 522.594
293 0 47.115 12.3103 580 69.2948 759.441 522.926
294 0 49.0756 11.6147 570 69.3386 759.925 525.209
295 0 50.094 13.0155 652 69.0414 760.301 521.463
296 0 52.0422 12.8165 667 68.4258 760.226 521.622
297 0 53.0349 12.8595 682 69.346 759.317 517.688
298 0 54.1172 11.4751 621 71.5072 759.404 516.783
299 0 56.0351 11.814 662 70.716 759.192 517.705
300 0 58.0718 10.9347 635 71.9134 759.644 516.184
301 0 61.0735 11.8054 721 71.2483 759.595 514.503
302 0 61.1274 12.2531 749 71.0294 758.864 514.116
303 0 62.0497 11.7325 728 72.6346 758.837 510.974
304 0 66.0552 11.3996 753 71.8579 758.91 512.082
305 0 68.0953 11.4252 778 72.1414 759.373 509.819
306 0 67.0952 11.2079 752 73.6902 759.226 507.505
307 0 73.0866 12.191 891 71.7385 758.464 508.538
308 0 75.1519 12.3217 926 72.0799 758.76 506.782
309 0 75.1925 11.0782 833 74.5462 758.457 507.893
310 0 76.0418 10.4022 791 75.56 758.793 503.809
311 0 81.0848 11.1118 901 74.8779 758.989 504.239
312 0 85.2035 11.4314 974 74.2146 759.006 501.059
313 0 85.218 10.7372 915 75.6208 759.384 499.654
314 1 44.0426 9.51352 419 74.2864 759.298 521.057
315 0 46.0528 9.7714 450 74.1444 758.476 521.018
316 0 46.0299 10.7104 493 73.4219 758.738 519.548
317 0 48.126 9.47513 456 75.0899 759.329 519.305
318 0 47.086 8.11281 382 77.4084 758.589 517.366
319 0 50.0238 9.6754 484 75.0888 759 516.165
320 0 51.0718 10.965 560 73.2071 759.157 514.954
321 0 52.0313 10.4552 544 74.3732 759.235 516.256
322 0 51.0579 12.3781 632 72.4415 759.473 513.717
323 0 53.0869 11.4718 609 73.5123 759.087 510.66
324 0 59.0508 10.1099 597 74.4338 759.335 512
325 0 57.1086 8.73774 499 77.5752 758.964 510.557
326 0 64.174 11.4221 733 72.824 759.645 510.671
327 0 68.1291 11.5222 785 72.7363 758.931 510.316
328 0 68.0655 10.8131 736 74.0054 759.383 510.876
329 0 69.1183 11.2271 776 75.0206 759.04 507.35
330 0 74.1803 12.2539 909 73.3355 758.739 506.791
331 0 74.1802 9.44996 701 77.0785 759.146 507.703
332 0 75.1444 9.58155 720 78.2639 759.243 500.943
333 0 78.1413 11.0057 860 76.464 758.915 499.613
334 0 81.1082 9.71542 788 78.1815 759.019 497.058
335 1 41.063 7.76855 319 77.2069 760.414 522.828
336 0 44.0684 10.461 461 80.0239 758.716 475.247
337 0 45.0157 10.3075 464 80.9957 758.886 472.597
338 0 46.082 11.1323 513 79.8674 758.719 472.805
339 0 45.0367 9.72541 438 82.7009 759.338 470.482
340 0 48.0466 10.2817 494 80.9899 759.073 469.383
341 0 52.1103 10.8808 567 79.7249 758.914 465.393
342 0 53.0373 10.0307 532 81.1372 758.857 462.024
343 0 58.1165 10.5994 616 73.0617 759.321 515.906
344 0 61.0736 11.6581 712 71.2008 759.315 513.993
345 0 62.2038 11.2373 699 72.3262 760.441 513.64
346 0 64.0508 10.6946 685 73.4744 759.638 511.86
347 0 66.1709 11.4854 760 71.971 760.297 511.128
348 0 65.2009 11.3649 741 73.1215 760.229 508.808
349 0 68.1879 9.95778 679 73.8689 760.336 509.697
350 0 73.1399 12.8521 940 70.5479 760.2 507.444
351 0 73.1721 11.3158 828 72.4239 760.245 506.767
352 0 78.084 12.1408 948 70.981 760.331 504.69
353 0 81.1615 12.5799 1021 70.142 760.153 502.506
354 0 83.1063 11.2146 932 71.8337 760.509 504.023
355 0 85.1722 12.1871 1038 70.262 760.078 502.377
356 0 89.2609 12.5475 1120 69.8652 759.988 498.946
357 1 43.0471 10.1517 437 69.3249 760.298 520.055
358 1 29.0725 6.3978 186 75.8656 760.156 512.688
359 0 34.0092 4.46937 152 77.204 760.559 514.77
360 0 39.0353 7.07052 276 74.1667 760.728 516.359
361 0 32.0864 7.44864 239 74.2134 759.95 511.192
362 1 43.0736 8.28814 357 72.3585 760.26 512.695
363 0 35.0212 4.45445 156 77.4808 759.795 512.045
364 0 39.1526 6.94718 272 74.1985 759.552 509.184
365 0 43.0359 9.10868 392 71.3852 760.003 510.097
366 0 47.027 8.56954 403 71.9826 759.578 510.005
367 0 47.1817 7.33336 346 73.5289 759.321 510.948
368 0 59.0942 11.2024 662 66.5514 759.989 514.779
369 0 60.0838 10.0027 601 68.0216 760.025 515.602
370 0 60.0832 10.9515 658 68.0456 759.503 511.743
371 0 64.0991 12.0282 771 66.4708 760.082 509.894
372 0 65.0502 12.3136 801 66.5968 759.735 510.604
373 0 64.0991 10.2342 656 69.7652 759.465 509.575
374 0 67.1716 11.8354 795 68.1333 759.798 508.839
375 0 70.0769 12.0867 847 68.0142 760.024 509.371
376 0 71.0561 11.4276 812 69.0727 760.182 508.754
377 0 76.0462 12.5713 956 66.8797 760.122 509.165
378 0 75.0518 11.0857 832 70.5589 759.55 504.838
379 0 79.0487 11.8282 935 69.5914 759.61 505.133
380 0 83.041 13.0418 1083 67.7008 759.707 503.498
381 0 83.072 12.8924 1071 68.9085 759.316 503.697
382 1 42.0264 11.0407 464 69.2543 759.756 523.002
383 0 43.0462 10.3842 447 69.7808 759.656 523.331
384 0 44.0312 9.69767 427 71.0726 759.41 521.738
385 0 45.0376 10.2803 463 71.1512 759.464 520.41
386 0 46.0545 9.2499 426 72.2394 759.662 521.587
387 0 47.0882 10.045 473 70.8161 760.169 521.129
388 0 49.2536 11.6134 572 69.75 759.832 518.341
389 0 52.1216 11.5691 603 69.1874 759.488 518.184
390 0 54.1028 11.663 631 69.1537 760.089 518.372
391 0 54.0881 10.5568 571 71.2995 759.347 516.741
392 0 55.0828 13.1983 727 67.8652 759.769 515.52
393 0 58.1076 11.668 678 69.3289 759.705 516.549
394 0 60.1204 11.4437 688 70.6439 759.91 515.706
395 0 62.0668 12.2127 758 69.1781 759.972 514.459
396 0 61.1254 10.4539 639 72.266 759.909 513.987
397 0 66.0752 12.2436 809 69.0915 759.773 511.415
398 0 65.1213 11.5323 751 70.6232 760.533 512.434
399 0 69.053 11.9908 828 70.2186 760.028 510.529
400 0 71.0656 12.8614 914 68.3457 759.957 510.79
401 0 75.0946 13.716 1030 66.7301 759.99 509.606
402 0 76.074 11.8437 901 69.7714 760.457 508.368
403 0 79.0819 12.4428 984 68.3476 759.788 507.992
404 0 83.1174 12.7049 1056 67.9744 760.613 505.157
405 1 42.0444 10.037 422 69.1706 760.047 523.666
406 0 44.0296 9.01666 397 70.3703 760.647 522.582
407 0 45.0911 10.7338 484 68.4649 760.866 522.674
408 0 49.1287 10.6048 521 68.0576 760.407 522.369
409 0 49.0404 12.296 603 66.1227 760.594 520.222
410 0 50.1402 13.8811 696 64.7859 759.784 520.177
411 0 52.1545 10.814 564 68.1702 759.736 521.163
412 0 53.1202 11.5022 611 67.9738 760.466 518.779
413 0 56.1115 11.691 656 66.7424 760.2 519.181
414 0 56.1906 12.3864 696 67.1724 759.993 515.162
415 0 56.0841 12.3029 690 66.4217 759.019 516.436
416 0 61.0385 12.8444 784 65.398 759.612 516.346
417 0 60.0452 11.991 720 67.1028 759.944 516.107
418 0 60.0869 12.199 733 67.2974 759.801 513.975
419 0 63.0466 10.9443 690 68.913 759.923 513.975
420 0 64.0988 11.9971 769 68.1313 759.606 510.882
421 0 70.0577 13.0749 916 65.6004 760.227 511.191
422 0 69.1426 11.5558 799 69.3254 759.666 508.446
423 0 72.1478 12.3912 894 68.0839 758.905 510.252
424 0 73.1072 12.3654 904 68.552 759.093 508.7
425 0 76.1022 12.654 963 68.1298 759.106 507.808
426 0 78.1081 11.0488 863 70.5852 759.343 507.812
427 0 81.0806 12.2471 993 69.6908 759.383 503.797
428 0 84.1697 13.3065 1120 68.0339 759.355 503.888
429 0 87.0958 13.2613 1155 68.0831 759.275 502.038
430 1 39.0599 11.316 442 66.6063 759.219 524.9
431 0 39.0407 8.91377 348 70.0977 759.626 524.514
432 0 43.0708 8.962 386 69.2927 760.256 526.06
433 0 43.0771 11.1892 482 66.0747 759.801 525.741
434 0 44.0501 10.9194 481 67.6133 759.958 522.746
435 0 46.1525 10.1836 470 67.8128 759.506 524.164
436 0 46.1754 10.8933 503 67.4692 759.732 522.113
437 0 46.0701 10.5491 486 67.7963 759.134 522.148
438 0 49.1326 11.357 558 66.9158 759.172 520.02
439 0 50.168 12.2588 615 65.0585 758.81 520.665
440 0 52.0441 12.0667 628 65.371 759.398 519.312
441 0 52.1153 11.4746 598 66.2241 758.53 519.075
442 0 57.0923 11.7354 670 65.0209 759.293 518.572
443 0 56.065 11.6472 653 66.245 758.896 517.706
444 0 59.1601 12.3563 731 65.1477 758.643 515.092
445 0 59.0503 11.0414 652 67.5123 758.428 515.318
446 0 64.1592 13.6847 878 63.1241 758.688 515.246
447 0 63.0693 12.1929 769 65.9428 759.122 513.945
448 0 65.1276 12.084 787 66.4079 759.475 513.83
449 0 66.0792 12.1824 805 66.4373 759.662 513.499
450 0 68.0917 12.0573 821 66.6797 759.37 509.649
451 0 72.1326 13.0038 938 64.9158 760.124 509.907
452 0 73.1979 12.9239 946 65.9176 759.369 505.501
453 0 74.0329 11.5084 852 67.5951 759.55 504.39
454 0 77.2124 12.3037 950 66.3632 760.29 505.94
455 0 77.2124 12.226 944 125.586 761.299 506.004
456 0 80.1048 10.6111 850 69.0459 759.791 503.821
457 0 84.1846 9.64547 812 69.3103 759.649 504.835
458 0 87.1114 12.2831 1070 66.0888 759.959 499.416
459 0 89.2289 12.1485 1084 66.7214 760.283 498.812
460 1 44.1247 11.1049 490 65.7388 760.053 521.212
461 0 46.0862 8.74449 403 68.2457 760.094 520.203
462 0 49.0773 11.6143 570 65.2614 759.867 519.451
463 0 50.0754 10.4842 525 66.2876 759.657 517.975
464 0 50.0229 12.0345 602 64.8787 759.6 518.199
465 0 54.0211 10.0146 541 66.5786 760.238 517.811
466 0 54.0585 11.6355 629 65.1224 759.824 515.033
467 0 57.0815 11.65 665 64.5278 758.827 515.156
468 0 59.0801 12.2376 723 64.0208 759.748 512.853
469 0 60.1199 12.4252 747 63.5904 759.047 515.181
470 0 63.1275 11.0095 695 65.4489 759.135 513.727
471 0 64.0592 11.6611 747 64.8675 759.438 511.015
472 0 68.1346 12.2405 834 64.0252 759.112 510.835
473 0 72.0742 11.9044 858 64.2296 759.174 510.379
474 0 71.0758 11.2556 800 65.89 759.512 507.838
475 0 75.1059 11.7168 880 65.4636 759.245 507.564
476 0 78.185 12.0867 945 64.8741 759.162 504.804
477 0 79.2319 12.2047 967 65.6288 759.332 503.223
478 0 81.1657 11.3225 919 66.8662 759.127 505.009
479 0 86.131 12.4926 1076 65.3058 758.469 500.307
480 1 43.0492 9.87242 425 63.9694 758.828 526.539
481 0 43.0858 9.49269 409 66.0073 759.494 524.166
482 0 45.023 10.3058 464 65.3297 759.821 523.817
483 0 47.0683 12.0463 567 63.903 759.547 521.4
484 0 46.0627 10.3337 476 66.9748 759.76 519.821
485 0 49.0373 10.5634 518 65.9112 759.971 519.985
486 0 49.0381 9.48242 465 67.3828 759.946 521.135
487 0 53.0932 11.5081 611 65.1424 759.354 518.951
488 0 54.1314 10.2344 554 66.6137 760.202 518.547
489 0 57.2567 11.4397 655 64.4122 760.243 518.484
490 0 58.1194 11.8205 687 64.5808 760.039 517.183
491 0 58.0963 11.567 672 65.5461 759.778 515.613
492 0 60.0789 10.8191 650 66.4662 759.594 512.362
493 0 63.1279 12.3875 782 64.4335 759.37 512.538
494 0 64.1464 12.4871 801 63.6854 759.378 513.792
495 0 66.0616 12.3218 814 64.457 759.288 512.633
496 0 68.0857 10.3105 702 67.218 759.225 512.486
497 0 69.0609 13.9297 962 62.9605 759.396 508.983
498 0 71.0957 11.59 824 65.7876 759.218 507.853
499 0 74.1828 11.2695 836 65.9797 759.249 507.853
500 0 77.1235 12.6939 979 64.2288 759.617 506.846
501 0 76.0797 9.89752 753 67.5378 758.981 505.736
502 0 81.0643 12.1632 986 64.6116 759.516 506.307
503 0 85.2078 11.9121 1015 64.7704 758.728 503.334
504 1 44.0828 9.59558 423 63.6903 759.222 524.416
505 0 44.016 9.95092 438 64.3767 759.146 521.237
506 0 49.1008 10.7941 530 62.3491 758.696 522.328
507 0 46.0373 9.97017 459 63.9695 759.362 522.789
508 0 51.0508 11.8118 603 60.733 758.998 522.194
509 0 49.0588 8.11271 398 66.206 759.219 519.407
510 0 49.0519 9.74477 478 64.7238 759.257 519.318
511 0 54.062 10.34 559 62.8784 759.222 518.503
512 0 56.1538 11.3082 635 61.5244 758.652 518.696
513 0 57.0837 12.9459 739 60.6685 759.016 515.65
514 0 59.2069 11.654 690 61.458 758.762 517.142
515 0 58.1058 9.72365 565 64.8142 758.561 515.687
516 0 62.0522 11.5709 718 62.3663 758.625 512.6
517 0 64.115 10.1068 648 63.6281 758.62 513.401
518 0 66.0512 11.4305 755 63.1404 758.391 510.346
519 0 66.0903 12.4829 825 62.1782 758.829 509.102
520 0 71.1221 9.65945 687 63.7817 758.236 511.838
521 0 70.0332 12.1371 850 62.4 758.255 509.319
522 0 75.0899 11.0534 830 63.1602 758.383 507.31
523 0 75.0869 11.9595 898 62.8619 758.4 506.154
524 0 78.0531 11.5947 905 63.1182 758.149 504.352
525 0 80.0986 10.8366 868 63.8571 758.798 504.139
526 1 41.0189 9.77598 401 63.4015 758.551 521.671
527 0 42.0205 8.37686 352 63.1733 758.622 525.645
528 0 44.0701 10.2564 452 61.9425 758.327 523.58
529 0 44.0274 11.9925 528 61.3996 758.911 519.956
530 0 47.0209 9.67655 455 63.3978 758.396 520.213
531 0 48.039 10.9078 524 61.937 758.279 521.473
532 0 48.0223 8.43358 405 64.3556 758.612 520.323
533 0 50.0549 12.3065 616 60.2256 758.326 518.888
534 0 53.0725 11.1922 594 61.4697 758.362 517.263
535 0 54.0442 11.0835 599 61.4257 758.559 517.125
536 0 53.0166 10.0912 535 62.7794 758.729 516.824
537 0 57.116 9.83963 562 62.4075 758.004 517.996
538 0 60.0383 10.6765 641 61.4477 757.676 515.456
539 0 60.0456 9.59271 576 62.599 758.158 514.931
540 0 60.0904 9.78525 588 62.9881 757.988 510.969
541 0 65.1326 12.0523 785 59.9401 757.526 512.429
542 0 65.0867 9.49502 618 61.8625 757.78 513.676
543 0 69.0528 11.3826 786 60.5356 757.987 510.758
544 0 71.0396 11.8948 845 60.0296 758.529 510.012
545 0 71.1412 9.95204 708 61.7966 757.566 507.4
546 1 36.0089 10.1641 366 59.6803 757.858 526.639
547 0 36.0269 8.41037 303 61.3069 757.848 526.33
548 0 37.0382 8.96371 332 62.0422 757.943 521.672
549 0 40.0246 9.71903 389 60.9589 757.83 523.668
550 0 43.0105 10.4393 449 59.5256 757.693 523.045
551 0 44.0388 12.3754 545 57.7413 758.356 521.811
552 0 43.0419 11.059 476 59.645 758.718 522.88
553 0 46.0162 11.1265 512 59.7578 758.914 520.594
554 0 46.1411 11.0531 510 59.698 758.259 519.159
555 0 46.0653 8.27087 381 62.7507 758.908 517.979
556 0 47.0474 9.39477 442 61.2986 758.07 519.611
557 0 51.0551 11.2819 576 58.9688 758.901 518.495
558 0 53.0236 12.0135 637 58.4914 759.02 515.617
559 0 54.0438 11.1021 600 58.7683 758.218 515.518
560 0 57.0315 11.3095 645 58.6078 759.287 513.8
561 0 58.0556 11.3856 661 58.3389 758.56 516.543
562 0 60.0589 11.6885 702 58.104 758.211 513.011
563 0 60.1284 10.5108 632 60.318 757.954 510.859
564 0 65.0596 11.2205 730 59.4014 758.603 512.182
565 0 67.1205 11.9934 805 58.6671 758.681 508.266
566 0 67.1415 11.8258 794 59.4005 758.816 510.651
567 0 69.0648 10.6422 735 60.7374 759.06 508.238
568 0 73.1154 11.3382 829 60.5597 758.835 507.49
569 1 34.0784 9.15536 312 61.0801 758.478 527.141
570 0 37.0554 11.8201 438 59.8196 758.632 524.728
571 0 37.0174 9.72516 360 62.1694 758.283 525.628
572 0 38.0951 10.7888 411 61.983 758.027 523.506
573 0 39.0592 9.95924 389 63.3728 758.879 523.776
574 0 40.0556 10.4355 418 63.9545 759.397 523.227
575 0 42.1245 13.1515 554 61.5126 758.368 521.986
576 0 43.0282 11.109 478 64.0837 758.893 522.594
577 0 45.0468 9.67882 436 65.5757 758.647 523.101
578 0 45.0595 9.07688 409 67.2787 759.068 520.773
579 0 47.018 9.8473 463 66.5205 760.153 522.318
580 0 49.0153 12.2615 601 63.8469 760.077 520.774
581 0 51.0866 10.766 550 66.1473 760.153 518.976
582 0 52.0502 12.0845 629 64.1224 760.612 519.892
583 0 53.0698 10.8159 574 66.0453 760.794 519.78
584 0 55.0755 12.2922 677 64.6219 760.137 517.848
585 0 57.0675 11.8456 676 65.2663 759.651 516.439
586 0 59.0973 12.0818 714 65.5616 760.251 514.254
587 0 60.0799 11.984 720 65.7125 759.482 514.096
588 0 61.0769 11.9358 729 66.1975 759.25 510.481
589 0 62.1499 11.3114 703 67.3471 759.607 511.508
590 0 64.1859 11.4511 735 67.1075 759.412 512.518
591 1 34.0193 10.4059 354 66.2034 759.378 527.316
592 0 37.0777 9.03508 335 67.4567 759.555 525.71
593 0 38.0721 9.06175 345 67.0435 759.513 526.988
594 0 39.0232 11.3522 443 65.8059 759.887 524.036
595 0 40.0822 10.8527 435 66.5241 759.244 525.779
596 0 39.0158 10.7136 418 67.5144 759.617 523.593
597 0 41.0748 10.7609 442 67.7919 759.204 522.045
598 0 45.047 11.6323 524 65.4332 759.937 523.036
599 0 45.0957 9.71268 438 68.7968 759.783 522.884
600 0 46.0291 12.0359 554 66.417 759.814 522.309
601 0 47.0181 11.8678 558 66.3638 759.654 521.256
602 0 48.0411 11.9897 576 66.7274 759.434 518.293
603 0 49.0901 12.2428 601 66.6223 759.403 519.082
604 0 50.1095 12.0536 604 66.6523 759.692 515.858
605 0 54.0961 12.4593 674 65.408 759.969 519.004
606 0 53.0535 11.6486 618 66.5696 759.934 518.33
607 0 55.0292 11.4121 628 67.6974 760.167 516.861
608 0 58.0458 11.6804 678 66.854 759.813 516.133
609 0 60.1324 11.2419 676 67.0562 760.095 513.678
610 0 62.0823 12.6445 785 65.2408 760.172 513.62
611 0 63.0715 12.573 793 65.4388 759.729 511.224
612 0 64.0884 12.3267 790 65.8696 760.305 513.253
613 0 70.1667 13.1259 921 63.9881 758.823 513.681
614 0 69.1576 13.1728 911 65.2624 759.858 509.603
615 0 70.081 10.6734 748 69.2714 759.096 508.239
616 0 74.0688 13.879 1028 64.6615 759.754 507.588
617 0 75.1838 11.8111 888 67.5845 760.088 506.706
618 0 79.1173 12.0328 952 67.3036 759.985 505.847
619 1 39.0992 10.256 401 66.5711 760.015 525.329
620 0 42.0339 10.9673 461 66.2994 760.145 523.39
621 0 42.064 11.0546 465 67.0452 759.989 521.804
622 0 44.1243 10.3798 458 67.0568 759.734 521.91
623 0 45.168 11.579 523 66.6577 759.692 520.992
624 0 47.1079 11.0809 522 66.4579 760.558 522.115
625 0 47.0962 11.4871 541 67.2495 759.774 519.932
626 0 50.1266 12.8874 646 65.0201 760.144 518.398
627 0 51.0665 12.004 613 66.3295 759.414 516.026
628 0 52.0269 12.7818 665 64.9323 760.217 517.293
629 0 56.0832 11.5186 646 65.9923 759.813 517.118
630 0 55.0557 11.0979 611 67.4026 759.833 516.426
631 0 57.0587 11.0938 633 67.5055 759.548 514.062
632 0 57.0402 13.2363 755 63.8755 759.727 515.041
633 0 60.0909 11.3328 681 66.6167 760.132 514.47
634 0 63.1109 12.8662 812 64.7685 760.248 512.661
635 0 64.0879 12.7793 819 64.674 760.382 511.658
636 0 66.0559 10.7485 710 67.1268 760.613 511.199
637 0 67.052 12.2144 819 65.7424 760.241 506.82
638 0 69.0421 10.8485 749 67.012 759.923 508.166
639 0 73.0732 12.2891 898 64.7416 760.29 508.228
640 0 76.0854 13.5243 1029 63.3518 760.007 505.755
641 0 76.0963 11.998 913 66.058 759.924 504.06
642 1 41.0436 10.8665 446 65.3744 760.466 522.803
643 0 43.0295 10.9692 472 65.8347 760.472 522.142
644 0 43.1108 11.5284 497 65.3461 760.042 520.245
645 0 44.0179 10.8819 479 66.3236 759.939 518.501
646 0 45.0635 11.6058 523 66.0287 759.641 518.463
647 0 47.0535 11.9651 563 65.2149 760.036 517.423
648 0 48.0542 11.924 573 65.4747 760.065 518.342
649 0 51.0416 12.5192 639 64.2786 759.784 514.873
650 0 50.1775 11.3597 570 66.6193 759.879 517.325
651 0 55.0475 13.6246 750 62.6453 760.276 515.625
652 0 54.09 10.4825 567 66.7072 760.261 517.811
653 0 56.0695 11.8603 665 64.9293 759.976 514.818
654 0 58.0274 11.8909 690 64.8768 759.339 510.846
655 0 59.0942 12.9962 768 63.5013 758.474 511.969
656 0 61.1114 10.3745 634 66.6246 759.416 512.604
657 0 63.0848 13.4898 851 62.5076 760.32 512.573
658 0 65.0627 12.6493 823 63.7181 759.424 510.775
659 0 67.1534 12.8661 864 63.5347 759.458 509.578
660 0 69.2063 11.5452 799 65.204 759.836 509.552
661 0 71.0673 14.3104 1017 61.5693 760.19 506.415
662 0 73.043 10.5828 773 66.26 759.943 507.693
663 0 78.1689 12.8696 1006 62.6481 759.62 507.913
664 0 79.1044 11.9842 948 64.5475 759.767 505.675
665 0 80.1004 13.7328 1100 61.9736 759.691 504.491
666 0 82.1058 10.5595 867 65.812 759.896 503.633
667 1 42.0191 11.471 482 63.9896 760.093 522.573
668 0 42.0559 10.8427 456 64.6974 759.965 524.248
669 0 43.0336 8.96974 386 67.7332 760.044 521.238
670 0 46.0322 12.4695 574 63.3084 760.253 519.758
671 0 46.0334 11.3396 522 65.0134 760.446 520.762
672 0 50.0898 10.5411 528 65.9242 760.392 519.295
673 0 52.057 11.6795 608 64.1086 760.194 515.173
674 0 52.0572 11.3913 593 64.7066 760.325 515.742
675 0 56.0939 13.3883 751 61.787 760.567 515.338
676 0 56.0609 12.0048 673 63.9554 760.26 515.554
677 0 58.0688 12.4163 721 63.7545 760.517 513.795
678 0 60.0692 10.671 641 66.2075 760.796 511.19
679 0 63.0482 10.6426 671 65.9583 760.744 512.721
680 0 65.0388 11.7776 766 64.7154 760.274 511.236
681 0 69.0788 12.6667 875 63.7966 759.751 509.451
682 0 70.2763 13.1481 924 63.4675 760.622 508.746
683 0 73.0656 13.0568 954 63.6939 760.499 507.785
684 0 71.1288 10.952 779 67.362 759.878 505.601
685 0 77.1879 11.8412 914 65.872 759.706 505.009
686 0 82.0821 12.0976 993 65.6455 759.652 501.035
687 0 82.0495 12.8947 1058 65.4802 759.294 500.998
688 0 83.0937 11.0357 917 67.9302 760.321 501.17
689 0 88.1435 12.6158 1112 65.9092 760.003 499.031
690 0 91.235 12.561 1146 65.9651 760.052 496.359
691 0 93.1854 12.4698 1162 65.9492 759.839 495.968
692 0 96.132 12.4932 1201 65.5862 760.152 495.111
693 0 100.221 13.5201 1355 64.186 759.242 494.159
694 0 102.192 11.6936 1195 65.9833 759.898 495.411
695 0 106.161 11.9065 1264 65.4707 759.877 494.19
696 0 111.199 11.457 1274 66.1703 758.92 487.757
697 0 110.297 10.4989 1158 67.4611 759.302 487.879
698 0 116.354 13.0807 1522 64.201 759.174 485.21
699 1 63.1591 11.6848 738 63.9959 759.461 510.524
700 0 67.1088 10.2222 686 64.3222 759.512 512.267
701 0 68.1301 10.612 723 63.7676 759.257 509.925
702 0 72.0932 11.818 852 62.5035 759.682 507.59
703 0 73.2249 11.3623 832 63.1959 759.18 506.87
704 0 77.1688 13.6972 1057 60.0426 759.121 504.376
705 0 80.0679 12.5144 1002 61.1677 759.198 501.385
706 0 83.1692 11.7231 975 61.5251 758.917 503.228
707 0 85.0496 11.4757 976 61.915 759.354 497.921
708 0 88.0983 14.6881 1294 58.4644 758.866 498.244
709 0 91.1338 13.76 1254 58.9123 758.992 497.116
710 0 95.2522 12.9866 1237 59.6823 759.267 494.124
711 0 97.151 11.6314 1130 61.5372 759.105 491.414
712 0 100.239 9.94619 997 63.2367 759.588 492.379
713 0 104.225 13.3462 1391 59.5629 759.122 488.841
714 0 107.114 11.8005 1264 61.3734 759.612 487.728
715 0 113.182 12.4225 1406 60.3144 759.346 486.366
716 0 116.195 12.5737 1461 59.937 759.598 486.064
717 1 57.0427 11.7806 672 60.7946 759.778 515.64
718 0 60.0759 11.7518 706 60.5666 759.618 512.881
719 0 62.0662 12.6156 783 59.8851 760.128 511.018
720 0 63.0871 13.2357 835 59.0395 759.855 512.212
721 0 66.0926 12.6338 835 60.0096 760.071 507.068
722 0 68.0717 14.2644 971 57.7734 759.432 509.412
723 0 69.0486 12.3391 852 60.0692 758.812 504.318
724 0 71.0753 11.6918 831 60.7064 759.398 505.077
725 0 76.0407 12.2566 932 59.8584 759.378 503.388
726 0 78.0695 14.0772 1099 58.1956 759.382 502.796
727 0 81.1655 14.1809 1151 58.0617 758.853 502.499
728 0 85.1265 13.6855 1165 58.2309 758.673 503.47
729 0 86.0701 11.9786 1031 60.7265 758.568 497.884
730 0 87.1569 11.2441 980 61.9684 759.228 496.746
731 0 93.1366 13.0239 1213 59.765 758.72 495.162
732 0 96.0649 13.4284 1290 59.293 758.981 495.188
733 1 47.0182 10.4853 493 61.2414 759.25 516.29
734 0 49.0585 10.8442 532 60.0132 759.068 518.071
735 0 51.0247 10.9359 558 60.0448 758.934 516.427
736 0 52.0559 9.8548 513 61.6667 759.283 515.415
737 0 55.0306 9.06768 499 61.3427 759.281 516.555
738 0 58.0829 12.5166 727 58.3067 759.155 511.772
739 0 60.0961 12.2304 735 58.5619 758.913 512.487
740 0 60.0538 11.9393 717 59.2343 759.629 512.003
741 0 63.1157 13.7367 867 57.3829 759.421 509.706
742 0 66.0558 13.534 894 57.1465 758.806 507.997
743 0 67.1133 11.2496 755 59.5364 759.283 506.261
744 0 72.0892 12.762 920 57.4576 758.746 505.411
745 0 71.0531 10.654 757 60.4056 757.989 504.005
746 0 76.0938 12.984 988 57.3472 758.587 505.292
747 0 78.2257 12.1699 952 58.187 758.817 501.91
748 0 82.1541 12.6348 1038 57.7996 758.854 501.597
749 0 85.0399 12.4059 1055 57.9915 759.446 501.791
750 0 93.1074 13.2965 1238 56.0743 759.232 500.974
751 0 91.0706 12.7374 1160 57.7733 758.881 495.909
752 0 95.198 12.4582 1186 58.0042 758.82 494.741
753 0 99.1062 14.5198 1439 55.23 759.096 497.867
754 0 101.095 12.4339 1257 57.9372 758.976 491.531
755 0 104.064 9.93623 1034 60.2224 758.627 493.153
756 0 109.187 14.6537 1600 55.1644 759.043 490.365
757 0 112.162 13.1596 1476 57.1985 758.409 487.325
758 1 52.0624 11.928 621 54.6312 759.86 518.71
759 0 54.0168 10.8485 586 55.9215 758.92 516.468
760 0 56.0612 10.1139 567 56.4533 759.094 517.081
761 0 59.1434 11.1424 659 55.2519 759.467 517.366
762 0 59.0601 11.8862 702 55.4473 759.313 514.856
763 0 60.0628 12.2705 737 55.228 758.901 516.769
764 0 64.101 10.6707 684 56.2763 759.266 514.684
765 0 65.0834 10.7093 697 56.9885 758.953 513.653
766 0 70.1359 11.1498 782 56.6419 759.474 510.778
767 0 70.1224 12.1217 850 56.2 758.976 510.635
768 0 72.1024 11.5946 836 57.3122 758.873 508.067
769 0 77.2613 12.8266 991 55.3047 759.578 509.015
770 0 79.2056 12.8021 1014 55.2673 759.799 508.959
771 0 82.1426 11.7844 968 57.1798 759.977 502.775
772 0 83.1162 11.8028 981 57.7717 759.874 505.733
773 0 86.1558 11.9783 1032 57.7645 759.875 501.691
774 0 89.2092 11.9046 1062 58.145 759.705 502.381
775 0 93.1336 13.8189 1287 56.8788 760.036 499.865
776 1 47.0552 9.5845 451 58.3304 760.133 524.82
777 0 49.0656 11.4744 563 57.675 759.877 522.774
778 0 50.0999 9.78047 490 59.8306 759.926 523.335
779 0 52.032 10.6473 554 59.4314 760.108 519.431
780 0 52.0996 10.2112 532 60.0696 759.359 522.045
781 0 55.0933 10.7817 594 59.0455 759.729 521.572
782 0 57.2049 12.5164 716 57.3394 759.67 518.514
783 0 58.0324 12.7687 741 57.3185 759.306 515.553
784 0 60.1523 11.2548 677 58.9454 759.414 513.332
785 0 62.0765 12.3879 769 57.1443 759.107 514.306
786 0 65.2186 13.0331 850 56.6188 759.424 512.879
787 0 65.1566 10.5131 685 59.9051 759.71 510.558
788 0 67.1651 11.2856 758 58.942 759.338 510.021
789 0 71.2198 12.6791 903 57.32 759.137 512.432
790 0 72.3643 12.0916 875 58.7783 759.552 508.822
791 0 74.1998 11.3073 839 59.7545 759.166 508.08
792 0 75.2694 11.6249 875 59.1577 759.218 509.63
793 1 35.0695 11.2063 393 58.3766 759.328 527.031
794 0 38.0322 10.123 385 59.9455 760.166 527.145
795 0 38.088 12.0248 458 59.2249 760.087 524.919
796 0 40.0234 9.31955 373 61.2306 759.595 526.823
797 0 41.0876 13.9215 572 57.8759 759.561 523.71
798 0 43.21 12.4508 538 58.9424 759.493 523.933
799 0 43.1625 11.0281 476 60.5735 759.666 523.557
800 0 44.0712 11.0049 485 60.9711 759.757 521.922
801 0 46.1217 11.3396 523 60.6463 759.474 520.48
802 0 48.034 11.8666 570 60.4509 759.556 519.23
803 0 49.0179 11.098 544 61.2022 759.14 518.086
804 0 47.1417 10.4578 493 62.7444 759.028 518.351
805 0 52.0334 11.3965 593 60.7993 759.332 516.68
806 0 53.1044 11.581 615 60.7366 759.472 514.359
807 0 53.1593 10.6472 566 61.7314 759.474 513.905
808 0 57.2004 11.416 653 60.856 758.545 515.455
809 0 59.0769 12.5938 744 59.1922 759.113 513.434
810 0 58.1327 10.7857 627 61.6475 758.837 515.177
811 0 62.1247 13.4246 834 58.1703 759.536 512.07
812 0 65.3377 12.5502 820 58.4256 759.355 513.387
813 0 68.2458 11.8102 806 58.8437 759.804 511.202
814 0 68.2243 10.8905 743 60.1319 759.922 509.441
815 0 69.0615 10.1359 700 61.1871 759.636 510.186
816 0 73.1381 10.4597 765 61.3673 759.293 507.434
817 0 73.1471 11.0052 805 61.2261 759.214 507.417
818 0 79.1701 11.8227 936 59.6207 759.272 507.152
819 1 43.0641 9.84579 424 62.0967 759.955 524.361
820 0 42.0229 10.0184 421 62.7173 759.858 524.955
821 0 45.0268 11.5265 519 61.2081 759.632 521.873
822 0 48.1468 13.3758 644 58.9969 759.449 522.84
823 0 47.1142 11.8648 559 61.4204 758.893 521.199
824 0 51.1313 11.8127 604 60.8245 759.439 523.166
825 0 50.1286 11.2112 562 62.2153 759.507 522.226
826 0 53.1186 12.8204 681 60.0808 758.913 520.463
827 0 53.0496 10.443 554 62.9639 759.444 521.249
828 0 56.1175 11.2799 633 62.049 759.212 515.796
829 0 57.085 11.1763 638 62.1003 758.945 517.69
830 0 60.1457 12.0707 726 60.646 759.37 518.099
831 0 60.215 12.1897 734 61.1172 759.608 514.123
832 0 61.2107 10.423 638 62.7978 759.257 514.05
833 0 64.187 11.5288 740 61.5473 758.564 513.138
834 0 68.121 13.0356 888 59.2714 759.136 514.796
835 0 70.0851 10.901 764 61.3822 759.118 510.666
836 0 72.1324 12.8791 929 59.7374 758.978 509.869
837 0 74.1512 12.0969 897 60.4615 758.752 513.491
838 0 74.2388 10.0756 748 63.0134 758.837 510.247
839 1 39.057 11.8801 464 60.9634 758.453 527.463
840 0 38.1688 12.1303 463 62.2549 758.983 524.911
841 0 41.0573 9.93733 408 64.3309 759.226 526.211
842 0 44.0634 14.0706 620 59.2355 759.192 526.96
843 0 42.1061 11.4473 482 63.7241 759.45 523.739
844 0 47.2041 11.7786 556 61.4065 760.203 526.137
845 0 45.059 13.4268 605 61.6248 759.757 522.945
846 0 49.0251 11.3615 557 63.3788 759.12 522.336
847 0 49.1811 11.2238 552 63.8986 759.384 523.719
848 0 51.0966 14.1497 723 60.9945 759.708 522.001
849 0 52.0657 13.1372 684 62.655 758.654 520.5
850 0 53.0431 13.5927 721 62.3218 759.086 519.035
851 0 53.0795 12.34 655 64.3344 759.194 520.319
852 0 55.0214 11.8136 650 64.9077 758.957 517.917
853 0 60.0768 13.3163 800 62.5288 759.274 517.922
854 0 59.0648 12.4609 736 64.4062 759.13 515.707
855 0 62.0661 13.9529 866 62.5831 759.315 515.178
856 0 64.1779 13.4937 866 63.2945 758.853 513.859
857 0 67.1111 11.3841 764 65.3495 758.661 514.792
858 0 71.1583 12.0155 855 65.0421 758.53 511.084
859 0 72.0486 12.6026 908 64.7291 758.746 511.552
860 0 75.094 13.876 1042 63.5528 758.61 512.012
861 0 79.0958 12.744 1008 66.2361 758.25 509.455
862 0 80.1247 12.2684 983 67.8067 759.374 506.271
863 1 41.0666 10.5195 432 68.6111 758.021 528.6
864 0 39.0511 9.85888 385 71.4052 758.512 525.452
865 0 42.0363 12.394 521 66.0346 759.031 527.883
866 0 45.0327 13.6789 616 65.4075 758.744 525.443
867 0 47.0868 13.0185 613 65.5628 758.493 526.912
868 0 49.0664 13.8384 679 65.1591 759.121 524.613
869 0 47.0521 11.4766 540 69.9407 759.446 522.887
870 0 52.1136 14.3725 749 64.3738 759.391 524.276
871 0 53.0721 12.2852 652 67.7009 758.874 523.127
872 0 53.1053 13.4826 716 66.5908 758.587 521.494
873 0 56.0556 12.5054 701 67.8773 758.652 519.772
874 0 55.069 14.3093 788 66.0863 758.858 518.184
875 0 59.0567 11.9207 704 67.4574 758.013 519.391
876 0 59.1231 13.7171 811 66.5857 759.265 517.946
877 0 63.0597 13.8916 876 65.5662 759.352 516.048
878 0 65.0217 12.2882 799 67.0551 759.494 516.202
879 0 68.0768 12.5887 857 65.9708 759.552 516.365
880 0 70.0314 12.78 895 66.2134 759.284 513.865
881 0 73.1585 13.0402 954 65.2432 759.494 514.572
882 0 75.049 13.6844 1027 64.9416 758.63 510.913
883 0 79.1255 13.8893 1099 64.475 759.505 510.472
884 0 82.1268 13.6862 1124 64.6575 759.192 509.264
885 0 85.113 17.3182 1474 60.4925 759.518 508.323
886 1 46.0405 11.0989 511 66.9393 759.924 526.029
887 0 42.0203 11.2089 471 68.8769 759.422 524.847
888 0 48.0365 13.9686 671 64.4218 759.808 524.703
889 0 49.0744 13.5712 666 65.0661 759.668 523.961
890 0 49.1048 13.5425 665 65.9804 759.726 521.37
891 0 50.0761 13.9188 697 65.6872 759.631 521.697
892 0 55.1914 13.1905 728 64.7981 759.722 521.335
893 0 54.0178 12.6255 682 66.4414 759.544 520.142
894 0 56.025 14.0116 785 64.4522 758.851 519.322
895 0 57.0834 13.3839 764 65.3547 758.912 517.249
896 0 57.0843 11.6845 667 67.4438 758.838 516.897
897 0 62.0446 13.0873 812 64.8436 758.655 517.892
898 0 64.0496 14.5356 931 63.695 759.31 514.687
899 0 64.1334 12.6767 813 65.8708 759.699 514.353
900 0 66.0326 12.4787 824 66.2512 759.375 512.326
901 0 70.121 13.3341 935 64.6663 759.405 511.216
902 0 70.0796 12.0149 842 66.424 759.171 511.464
903 1 35.0329 12.0458 422 62.9882 759.156 529.765
904 0 37.0483 10.8507 402 65.3383 758.684 527.423
905 0 37.0683 11.0337 409 66.2494 758.702 526.428
906 0 39.0244 11.6081 453 65.3311 758.678 525.28
907 0 43.062 13.6083 586 62.3498 759.036 525.775
908 0 42.0671 9.1045 383 67.4987 759.423 526.337
909 0 43.1333 12.7744 551 64.1851 759.162 525.456
910 0 45.0276 12.7255 573 63.8202 759.988 524.496
911 0 47.0337 12.5867 592 64.9155 760.296 522.689
912 0 48.0152 11.6838 561 65.8984 760.881 521.668
913 0 51.0417 12.9306 660 63.8394 760.865 521.942
914 0 51.0401 12.0689 616 64.9919 759.672 522.359
915 0 51.036 10.1497 518 67.3108 759.172 520.963
916 0 55.1045 12.5035 689 64.9768 759.173 519.771
917 0 58.0971 12.8406 746 64.2681 759.172 518.89
918 0 60.064 11.3879 684 65.367 758.792 517.366
919 0 63.0889 13.4572 849 63.4535 758.882 517.848
920 0 63.0461 11.1189 701 66.7118 759.295 514.645
921 0 67.0749 13.8353 928 63.2069 759.554 515.166
922 0 69.0553 12.642 873 64.4318 758.612 515.843
923 0 68.0729 9.63673 656 68.5991 757.782 511.944
924 0 72.1053 13.4387 969 63.7957 758.656 511.457
925 0 75.0556 13.4434 1009 63.8484 758.571 508.29
926 1 37.1049 10.3221 383 65.1018 758.483 530.418
927 0 36.1331 11.7067 423 64.3097 759.151 529.147
928 0 38.0258 11.387 433 65.0947 758.448 526.827
929 0 39.0325 12.0925 472 64.267 758.962 528.549
930 0 40.0939 13.3936 537 63.7281 759.143 526.836
931 0 40.0942 10.4255 418 67.2321 759.244 526.294
932 0 43.0482 11.0574 476 66.105 758.964 527.187
933 0 44.0414 11.9206 525 65.9981 758.96 524.425
934 0 41.0355 11.1854 459 68.4096 759.492 522.928
935 0 46.0778 13.8678 639 63.5399 759.434 521.926
936 0 48.0436 12.5095 601 65.376 759.333 521.371
937 0 49.1049 11.4856 564 65.7252 758.317 522.849
938 0 50.0904 11.7388 588 66.1224 759.155 520.364
939 0 53.1016 12.6926 674 64.5163 759.607 519.131
940 0 56.0277 10.6376 596 66.3054 759.381 520.181
941 0 56.0368 13.0093 729 64.8148 758.882 516.191
942 0 57.0812 10.669 609 67.5304 758.324 517.143
943 0 60.1531 11.4874 691 66.0362 759 516.194
944 0 62.151 12.9362 804 64.7065 759.322 515.241
945 0 65.108 12.1798 793 65.1286 759.106 513.902
946 0 65.1878 10.9837 716 66.6955 759.69 512.878
947 0 70.2086 11.4801 806 65.9864 759.44 511.225
948 0 74.1092 13.0213 965 63.9192 759.483 510.657
949 0 75.0867 12.9317 971 64.2853 759.764 508.886
950 0 76.0956 12.2609 933 65.0354 759.341 509.409
951 1 44.0901 13.3817 590 63.0542 759.446 524.793
952 0 42.0789 11.5497 486 66.0288 759.473 524.235
953 0 46.0114 11.345 522 66.0441 760.058 521.276
954 0 47.0581 11.5602 544 66.2904 759.559 521.05
955 0 49.179 13.522 665 63.0451 759.462 521.186
956 0 51.0804 13.6452 697 63.6614 759.274 520.112
957 0 53.0726 12.5677 667 63.6867 759.156 520.661
958 0 55.0726 12.6923 699 64.1388 759.76 518.86
959 0 57.1435 12.1274 693 64.5469 759.374 518.837
960 0 56.0214 12.049 675 65.683 759.427 517.834
961 0 61.0443 11.3197 691 65.9088 759.773 516.038
962 0 64.0782 13.6396 874 63.23 759.825 515.513
963 0 64.1164 13.2571 850 64.9506 759.647 513.022
964 0 67.1782 13.6205 915 64.647 759.421 512.657
965 0 69.0836 11.363 785 66.8318 759.189 514.738
966 0 71.0997 14.2054 1010 64.5436 759.237 509.611
967 0 73.0696 12.6728 926 66.6469 759.166 510.096
968 0 75.1234 12.4595 936 67.1207 759.325 506.819
969 0 80.1343 12.2419 981 67.4964 759.042 507.789
970 1 41.0186 13.4329 551 65.1797 759.622 525.22
971 0 41.2307 11.7388 484 68.2831 759.074 525.364
972 0 45.0716 13.0237 587 66.6116 759.402 524.794
973 0 46.3173 11.6587 540 67.5482 759.515 524.065
974 0 45.0299 12.5916 567 68.321 759.272 522.083
975 0 48.0286 12.8673 618 67.6926 759.257 520.612
976 0 50.1184 13.9071 697 66.4462 759.713 520.271
977 0 51.0559 13.4167 685 66.9942 759.181 519.369
978 0 55.0269 12.4848 687 67.5837 759.1 519.767
979 0 54.128 13.4865 730 67.3274 759.893 518.596
980 0 57.0232 12.9596 739 67.6265 760.123 517.666
981 0 57.0445 15.3564 876 64.9989 759.458 516.389
982 0 60.0871 14.2959 859 65.8754 759.357 515.068
983 0 61.0924 11.3435 693 69.4242 759.133 515.131
984 0 63.0487 12.3397 778 68.4859 759.747 514.008
985 0 67.1089 13.7091 920 66.5902 759.999 511.659
986 0 66.0972 12.2244 808 68.422 760.15 510.646
987 0 70.1224 12.6921 890 67.3865 760.164 511.86
988 0 73.1578 13.3 973 67.0154 760.004 507.286
989 0 75.1006 13.2356 994 66.995 759.613 505.653
990 0 78.0547 12.44 971 67.6849 759.799 503.632
991 0 82.0934 14.0206 1151 65.7489 759.5 504.99
992 0 84.0764 11.8583 997 68.4804 759.643 504.356
993 1 41.0154 10.0206 411 69.5085 759.929 523.939
994 0 45.0342 13.8561 624 65.4904 759.627 521.869
995 0 47.0595 12.8348 604 66.2533 759.937 520.695
996 0 46.0523 13.0069 599 66.8013 759.603 521.541
997 0 47.0592 13.1749 620 67.1968 759.874 518.615
998 0 50.0968 12.4758 625 67.24 759.443 519.03
999 0 52.0366 12.8948 671 67.31 758.833 517.571
1000 0 53.0446 13.1965 700 66.85 759.104 516.48
1001 0 56.0591 12.683 711 66.6203 759.214 515.388
1002 0 58.1941 13.7127 798 65.3734 759.323 514.287
1003 0 58.0707 12.1576 706 67.4292 759.596 514.482
1004 0 60.0977 13.7443 826 65.5073 758.772 513.002
1005 0 64.0672 12.2996 788 66.6726 759.138 513.52
1006 0 65.0718 11.8177 769 67.2159 759.415 512.914
1007 0 66.0975 12.1487 803 67.2366 759.372 511.147
1008 0 71.0486 13.906 988 64.4818 758.803 510.115
1009 0 72.1285 14.0721 1015 64.4158 758.261 509.237
1010 0 75.0603 12.7231 955 65.7906 758.91 507.889
1011 0 78.1583 12.6026 985 66.2548 758.48 506.35
1012 0 81.137 13.7668 1117 64.6956 758.574 505.108
1013 0 86.125 13.2366 1140 64.95 758.86 503.627
1014 0 86.0489 12.6788 1091 66.0128 758.532 502.03
1015 0 87.0915 12.24 1066 66.7552 758.317 501.095
1016 0 91.1726 13.8967 1267 64.2557 758.253 502.05
1017 1 49.051 12.0283 590 65.5407 758.512 520.97
1018 0 50.1615 13.8154 693 63.9726 758.635 521.553
1019 0 53.3188 12.6034 672 64.75 758.302 520.387
1020 0 53.2 12.9323 688 65.0988 758.27 520.347
1021 0 55.0193 11.6686 642 66.7679 758.732 517.039
1022 0 58.0788 11.9148 692 65.6604 757.77 518.614
1023 0 61.055 12.3659 755 65.4172 758.283 516.156
1024 0 61.0834 12.7858 781 64.484 758.519 516.519
1025 0 63.1448 12.02 759 65.8841 758.353 514.63
1026 0 68.3607 13.8237 945 62.7016 758.596 514.332
1027 0 69.1025 13.6753 945 63.7693 758.124 510.901
1028 0 71.0613 11.483 816 66.2855 758.107 511.185
1029 0 75.3368 13.3136 1003 63.8993 758.073 509.008
1030 0 76.0397 13.7954 1049 63.9428 757.448 505.131
1031 0 79.0484 12.5493 992 65.4365 757.901 506.156
1032 0 83.2029 14.2183 1183 63.0465 757.778 504.434
1033 0 85.1215 13.1107 1116 64.3754 757.683 503.677
1034 0 87.1087 12.2605 1068 65.3567 757.77 504.132
1035 1 46.072 11.482 529 63.1304 758.068 525.469
1036 0 49.1035 12.3616 607 63.4168 757.69 521.717
1037 0 49.0634 12.2698 602 64.0448 757.281 520.472
1038 0 52.1515 13.3841 698 62.9384 757.468 521.142
1039 0 52.0636 12.3695 644 64.0668 756.933 521.674
1040 0 54.2341 11.7454 637 65.2543 756.852 518.265
1041 0 56.1523 13.8552 778 62.4075 757.316 519.019
1042 0 57.0588 13.1093 748 63.8436 757.525 518.33
1043 0 59.1025 11.2686 666 65.5225 757.862 515.483
1044 0 61.1561 12.231 748 63.7968 757.566 517.841
1045 0 63.1418 12.4799 788 64.3604 757.416 512.562
1046 0 64.186 12.1834 782 64.9552 757.734 512.216
1047 0 67.0866 14.6527 983 61.5554 757.472 514.206
1048 0 68.1688 13.4226 915 63.7115 757.308 510.038
1049 0 72.1486 12.9039 931 63.5832 758.201 511.278
1050 0 74.0661 13.947 1033 62.3156 757.359 511.667
1051 0 77.1246 13.3161 1027 63.4333 756.985 509.045
1052 0 79.0797 11.8362 936 64.75 757.115 509.268
1053 0 83.1149 14.3175 1190 62.5815 756.491 506.39
1054 0 85.1414 12.9079 1099 64.7197 756.547 503.985
1055 0 87.1728 13.1463 1146 64.0637 756.978 506.866
1056 0 92.2354 13.021 1201 64.3164 756.378 504.061
1057 1 46.0339 11.7088 539 64.4137 757.226 524.017
1058 0 46.1409 12.3751 571 64.3643 757.291 521.702
1059 0 48.091 11.1247 535 64.6374 757.544 523.793
1060 0 48.1329 13.0472 628 63.8933 757.468 522.131
1061 0 50.0428 12.9089 646 63.6161 757.675 523.285
1062 0 50.0596 11.2866 565 66.4991 758.02 519.724
1063 0 53.0793 12.2835 652 64.9448 757.147 520.245
1064 0 55.0578 13.731 756 63.041 757.434 519.032
1065 0 56.1208 12.9364 726 64.7975 758.07 517.964
1066 0 57.0446 12.4815 712 65.6152 757.864 515.667
1067 0 61.1065 12.47 762 65.0525 758.164 516.37
1068 0 63.0894 14.1387 892 62.9081 758.402 516.974
1069 0 66.1676 12.3928 820 65.0402 757.966 512.937
1070 0 67.0575 13.6748 917 64.6445 757.51 513.601
1071 0 69.0672 11.9738 827 66.4111 757.62 510.397
1072 0 70.1013 12.4534 873 66.2749 757.929 512.59
1073 0 76.1878 12.2986 937 66.0011 757.926 510.367
1074 0 73.0927 12.0395 880 67.6659 758.265 506.169
1075 0 79.1366 14.0769 1114 64.4713 757.734 508.537
1076 0 81.1856 11.5168 935 67.769 757.782 505.026
1077 0 84.1703 14.732 1240 63.8653 758.324 506.99
1078 0 88.1911 14.7974 1305 64.0046 757.815 504.077
1079 0 88.1154 13.5618 1195 66.1071 758.435 503.649
1080 1 44.1521 10.9847 485 66.4247 758.876 526.179
1081 0 47.3865 10.2561 486 67.8868 758.407 523.914
1082 0 49.1849 12.0565 593 65.9848 758.782 521.609
1083 0 52.3699 11.9534 626 64.754 758.866 523.099
1084 0 53.1396 13.6621 726 62.7039 759.028 523.43
1085 0 52.0618 12.8309 668 64.8548 759.199 521.07
1086 0 53.1631 10.5336 560 66.1804 758.55 522.125
1087 0 59.079 11.7639 695 64.7065 758.968 518.505
1088 0 57.0961 12.0849 690 64.2174 759.172 520.329
1089 0 60.0922 11.732 705 65.556 758.748 516.729
1090 0 63.1299 12.0862 763 64.827 759.14 516.322
1091 0 67.1438 12.8828 865 63.8601 758.403 513.614
1092 0 65.1117 11.3958 742 66.6819 759.155 511.935
1093 0 69.0965 13.8068 954 63.6971 758.966 510.808
1094 0 70.1388 13.7584 965 63.8249 758.87 511.027
1095 0 74.1795 11.0003 816 66.6765 759.218 511.056
1096 0 77.2599 12.4385 961 65.5806 759.149 506.051
1097 0 79.1164 12.1719 963 65.8017 759.024 506.889
1098 0 80.1631 11.8758 952 66.645 758.864 503.821
1099 0 86.2189 13.1526 1134 64.4533 758.956 503.815
1100 1 45.1052 11.6395 525 64.6038 759.85 522.977
1101 0 45.1546 11.0066 497 65.1248 759.288 523.698
1102 0 49.1211 10.6472 523 65.5105 758.62 522.887
1103 0 48.0377 11.3661 546 65.0678 759.242 520.985
1104 0 50.0645 9.38788 470 66.9021 759.592 521.747
1105 0 50.1127 10.197 511 66.0646 759.329 521.573
1106 0 56.2555 13.0654 735 62.0449 758.97 520.472
1107 0 57.1706 11.8592 678 63.6268 758.49 518.431
1108 0 59.1477 13.2381 783 62.5109 758.373 516.834
1109 0 61.0676 12.1832 744 63 758.763 518.026
1110 0 64.1034 10.7639 690 64.071 758.954 515.668
1111 0 63.057 12.4015 782 63.0448 758.949 514.435
1112 0 67.0621 10.796 724 64.4309 758.662 513.854
1113 0 71.1538 12.6346 899 62.7909 758.804 509.691
1114 0 71.1884 11.6873 832 64.0216 758.772 508.558
1115 0 72.1008 11.1927 807 65.5266 758.301 509.835
1116 0 75.0442 11.1001 833 65.0684 758.502 505.523
1117 0 77.1138 12.6696 977 63.5681 759.012 506.901
1118 0 80.1667 13.1601 1055 63.3668 759.163 505.789
1119 0 82.0841 12.3775 1016 63.6585 758.688 507.559
1120 0 85.164 11.4133 972 65.6759 758.378 502.219
1121 1 44.046 12.1918 537 63.5698 758.814 525.181
1122 0 44.1117 11.4029 503 65.3578 758.7 523.002
1123 0 46.103 11.9515 551 64.951 758.782 523.61
1124 0 49.1266 11.3991 560 65.1804 759.773 521.929
1125 0 51.0461 12.1067 618 64.5307 759.382 521.256
1126 0 53.125 12.8941 685 63.4496 759.025 522.867
1127 0 54.1596 13.7926 747 63.2062 759.534 519.226
1128 0 56.0233 12.4948 700 64.7114 758.944 517.576
1129 0 59.0501 14.5639 860 62.0081 759.119 518.238
1130 0 58.1092 11.943 694 65.6455 758.854 517.539
1131 0 64.2427 12.0792 776 64.6791 758.726 514.947
1132 0 64.1182 12.8045 821 64.5372 758.809 513.866
1133 0 65.0548 12.3588 804 65.3632 758.699 512.557
1134 0 71.0824 12.3659 879 64.6576 758.47 510.457
1135 0 71.1016 12.7845 909 64.7481 758.414 510.294
1136 0 72.2102 12.9206 933 64.5423 758.827 510.066
1137 0 77.0582 11.6535 898 66.127 758.851 505.856
1138 0 79.0987 12.693 1004 64.9333 758.854 506.805
1139 0 82.2236 11.0187 906 66.8256 758.878 506.432
1140 0 83.1286 12.0897 1005 66.3881 758.694 503.716
1141 0 89.0805 13.3026 1185 64.5603 759.412 502.263
1142 1 46.0342 11.6001 534 64.9101 759.517 522.996
1143 0 47.0512 11.0518 520 66.4769 759.115 521.475
1144 0 50.0462 12.6883 635 64.7228 758.422 519.872
1145 0 51.0741 12.4133 634 65.1672 758.885 518.849
1146 0 54.1586 12.1126 656 64.8018 759.159 517.409
1147 0 56.0267 13.2258 741 63.2969 758.733 518.07
1148 0 56.0688 10.8616 609 66.711 758.79 517.24
1149 0 56.1585 10.2211 574 68.3815 759.115 513.084
1150 0 59.1338 11.6516 689 66.1335 759.022 511.707
1151 0 62.147 12.0521 749 65.5981 759.227 514.259
1152 0 66.0507 10.9915 726 66.5083 758.344 510.578
1153 0 69.117 12.3848 856 64.0315 759.179 510.694
1154 0 69.0727 12.4651 861 64.1522 759.474 507.16
1155 0 71.1834 10.5362 750 66.764 758.872 507.3
1156 0 77.1837 12.6452 976 63.4365 758.965 506.338
1157 0 78.1283 11.1483 871 65.2721 758.906 507.702
1158 0 82.1364 13.1854 1083 63.0148 758.786 503.162
1159 0 86.0944 12.103 1042 64.2975 758.597 502.07
1160 0 86.2614 12.5085 1079 64.1844 758.415 502.977
1161 0 92.1736 14.9826 1381 61.1977 759.001 497.467
1162 0 94.2046 11.1778 1053 66.0095 758.099 494.8
1163 1 47.1076 11.8877 560 64.1304 758.584 521.757
1164 0 48.1312 11.2193 540 65.5518 758.367 520.922
1165 0 51.0219 11.8773 606 63.5644 758.695 521.805
1166 0 51.0511 10.5972 541 66.39 758.78 519.34
1167 0 55.0459 11.881 654 64.0336 758.864 519.298
1168 0 56.1404 12.0769 678 63.7802 758.783 519.931
1169 0 58.0948 13.1854 766 62.7337 759.14 518.587
1170 0 60.0888 13.1971 793 62.1816 758.449 518.443
1171 0 63.0681 13.6044 858 61.6492 758.668 517.217
1172 0 63.0775 12.5877 794 63.4081 758.574 515.026
1173 0 66.0473 14.1565 935 61.1422 758.472 516.181
1174 0 64.1167 11.9314 765 65.1085 758.671 512.367
1175 0 69.0683 12.8279 886 63.1975 759.236 512.368
1176 0 72.1562 13.4153 968 62.2686 759.111 511.158
1177 0 75.1002 13.7816 1035 61.7797 758.977 510.906
1178 0 76.0524 12.6492 962 63.5717 759.924 508.421
1179 0 79.1243 14.5973 1155 61.1091 759.684 508.622
1180 0 82.3766 13.0984 1079 62.5857 758.827 509.023
1181 0 84.0785 13.0949 1101 62.6549 758.944 508.609
1182 0 88.1407 14.7718 1302 60.9931 758.365 505.478
1183 0 89.0576 13.1825 1174 63.3884 758.599 503.4
1184 0 91.1071 14.3897 1311 62.2769 758.4 500.282
1185 0 94.1149 13.526 1273 62.7109 759.504 500.802
1186 1 48.0526 12.0077 577 64.1698 759.362 521.428
1187 0 50.0979 12.1961 611 63.1146 758.671 522.622
1188 0 50.0434 12.5291 627 63.4992 758.797 521.659
1189 0 51.0334 12.2077 623 64.5409 759.425 517.868
1190 0 53.0645 12.645 671 63.1654 759.258 520.608
1191 0 56.1308 12.5243 703 63.0996 759.327 518.068
1192 0 55.0375 11.7556 647 64.6414 759.351 516.711
1193 0 60.0804 13.1158 788 62.1079 759.349 516.909
1194 0 61.1447 13.051 798 62.4461 759.422 514.525
1195 0 65.1503 12.5863 820 62.3207 760.089 516.316
1196 0 66.0705 12.3807 818 62.8191 760.534 514.119
1197 0 68.0696 11.2679 767 64.5359 759.136 513.064
1198 0 70.117 13.3491 936 61.9947 759.03 511.642
1199 0 72.1237 12.8668 928 62.2899 759.651 512.836
1200 0 74.0914 12.66 938 62.9446 759.904 509.774
1201 0 79.138 14.3926 1139 60.7454 759.984 507.77
1202 0 78.1117 13.5831 1061 62.0924 760.095 507.784
1203 0 83.0964 13.8033 1147 61.17 760.055 508.768
1204 0 86.0612 13.9319 1199 60.7264 759.707 507.923
1205 1 45.0599 11.3404 511 62.5401 759.965 523.26
1206 0 47.0482 11.3926 536 62.3955 759.677 524.007
1207 0 49.1381 11.1726 549 62.5428 759.128 521.322
1208 0 48.0408 12.2604 589 61.8251 759.166 521.428
1209 0 51.0955 12.4864 638 61.1646 759.586 520.751
1210 0 53.0775 11.9825 636 61.088 759.546 518.973
1211 0 56.0509 13.1488 737 59.1967 759.631 518.404
1212 0 59.1363 11.279 667 60.5997 759.862 519.141
1213 0 59.1065 13.0443 771 59.4656 759.684 517.49
1214 0 60.0692 15.0992 907 57.2933 759.707 515.613
1215 0 63.092 12.8859 813 59.3001 759.694 513.875
1216 0 64.1715 12.7315 817 59.5373 759.709 514.895
1217 0 68.1989 12.009 819 59.895 759.311 512.83
1218 0 69.086 12.0574 833 60.0828 759.349 514.397
1219 0 70.0659 14.8432 1040 58.0163 759.52 509.651
1220 0 73.213 14.1641 1037 59.0434 759.591 507.845
1221 0 76.1445 13.632 1038 59.2832 759.047 508.86
1222 0 76.0993 12.51 952 60.9233 759.455 508.271
1223 1 41.0716 12.5147 514 60.5272 758.724 525.037
1224 0 44.0298 12.0146 529 61.0794 758.405 525.361
1225 0 41.0486 12.7897 525 62.141 759.021 522.162
1226 0 47.1369 13.0683 616 60.7078 759.377 523.521
1227 0 48.057 11.6736 561 62.1586 759.458 522.779
1228 0 46.0277 13.0574 601 61.376 759.534 524.581
1229 0 51.0428 12.2642 626 61.9393 758.923 522.404
1230 0 49.0844 13.0184 639 61.82 759.045 521.926
1231 0 54.0749 12.4272 672 62.1637 759.222 518.603
1232 0 55.0796 12.5636 692 62.2052 759.452 517.796
1233 0 54.1215 14.0609 761 61.3903 758.708 517.531
1234 0 57.0477 13.7955 787 61.5019 759.191 515.13
1235 0 63.0888 12.316 777 61.4878 759.242 518.305
1236 0 66.0408 14.4305 953 59.3757 758.701 518.208
1237 0 63.0801 13.5859 857 61.9382 759.335 514.506
1238 0 67.1525 15.4276 1036 59.5338 759.18 512.599
1239 0 67.0625 11.9888 804 63.7289 759.795 509.551
1240 0 72.076 12.9308 932 62.3798 759.236 510.666
1241 0 74.0598 12.4899 925 62.9308 759.238 511.389
1242 0 76.1513 13.6176 1037 62.3259 759.347 506.947
1243 0 82.1239 14.9652 1229 60.358 759.521 507.587
1244 0 81.0904 13.4048 1087 62.3836 759.706 507.036
1245 0 86.1488 13.1285 1131 62.4722 760.35 504.951
1246 0 91.1948 13.9153 1269 61.4768 759.886 503.182
1247 0 93.1775 13.8123 1287 62.3357 759.66 499.86
1248 0 93.4159 12.5996 1177 63.8471 759.666 500.059
1249 1 46.0359 11.5345 531 64.1168 759.883 523.362
1250 0 47.0991 12.1021 570 63.9281 760.375 522.544
1251 0 50.0638 12.3642 619 63.0646 760.1 523.774
1252 0 50.0356 12.9508 648 63.4321 760.196 519.42
1253 0 53.1154 14.0261 745 61.5826 759.711 520.576
1254 0 53.077 13.0754 694 62.7536 759.496 520.37
1255 0 55.0811 14.3243 789 61.564 759.717 519.061
1256 0 59.1177 13.4139 793 61.8159 759.699 518.207
1257 0 58.1226 13.5748 789 62.3004 759.584 516.093
1258 0 60.0555 13.9205 836 61.9868 759.499 515.318
1259 0 62.1468 12.1004 752 63.8378 759.548 515.207
1260 0 66.1056 16.4737 1089 58.933 759.611 513.572
1261 0 68.089 13.7173 934 62.1949 759.203 512.509
1262 0 71.0857 13.5752 965 62.1782 759.045 510.97
1263 0 74.09 14.6174 1083 61.5466 759.685 510.584
1264 0 77.1013 13.4758 1039 62.6756 758.736 511.955
1265 0 77.1115 13.5518 1045 63.334 759.305 507.798
1266 0 82.0669 15.7311 1291 60.9411 759.509 506.565
1267 0 82.2555 13.7255 1129 63.6466 758.773 506.484
1268 0 89.2462 14.9362 1333 61.6106 759.289 507.341
1269 0 91.1126 15.179 1383 62.0166 758.941 505.431
1270 0 94.1625 15.3777 1448 61.7127 759.144 505.167
1271 0 94.3915 14.8212 1399 62.8642 758.493 501.833
1272 1 48.1135 13.4266 646 64.0077 758.279 526.344
1273 0 47.0198 13.6538 642 65.0265 758.622 524.936
1274 0 51.0826 12.8811 658 64.7112 759.436 524.404
1275 0 51.1098 14.5373 743 63.603 758.779 524.724
1276 0 53.0865 14.2974 759 64.2003 759.234 523.411
1277 0 56.2182 13.0385 733 65.4038 759.535 520.745
1278 0 58.096 12.4277 722 65.5208 759.508 522.476
1279 0 61.1331 14.8528 908 63.1167 758.928 518.591
1280 0 61.0467 15.6438 955 62.9257 759.805 518.4
1281 0 63.1346 15.5382 981 62.9837 759.479 517.985
1282 0 68.3283 13.3766 914 64.2866 759.067 518.595
1283 0 69.1953 15.319 1060 63.1991 759.361 514.243
1284 0 71.1103 15.4408 1098 62.5537 758.783 513.906
1285 0 74.112 14.6805 1088 63.5294 759.354 512.3
1286 0 74.1404 13.3665 991 65.4127 759.72 513.828
1287 0 80.2049 14.3009 1147 63.3915 759.645 512.682
1288 0 81.1145 12.8954 1046 65.7648 758.886 510.116
1289 0 83.0848 14.4792 1203 64.2743 759.296 507.431
1290 0 88.0903 14.5419 1281 63.8056 759.119 506.8
1291 1 44.2391 11.9351 528 66.7178 759.996 526.843
1292 0 45.0443 12.7874 576 65.092 758.898 528.45
1293 0 48.2479 12.042 581 65.506 759.58 525.614
1294 0 48.1322 13.7953 664 64.2108 758.996 525.16
1295 0 51.2058 15.506 794 62.4194 758.379 523.125
1296 0 52.0437 15.045 783 63.355 759.419 523.414
1297 0 53.1366 16.5046 877 62.4208 759.234 522.753
1298 0 55.2704 13.642 754 64.9655 758.692 522.573
1299 0 56.0558 16.1803 907 62.581 759.078 520.713
1300 0 57.1985 13.5668 776 65.8273 759.472 520.327
1301 0 62.1416 15.0141 933 63.2079 759.79 520.682
1302 0 66.3123 14.3261 950 63.801 759.692 518.794
1303 0 66.1319 13.1555 870 66.208 760.147 516.856
1304 0 67.2434 15.9718 1074 63.459 759.051 514.75
1305 0 72.3372 12.7873 925 65.8584 758.883 516.835
1306 0 73.3221 13.9658 1024 65.584 759.492 515.653
1307 0 77.2361 15.3037 1182 63.7885 759.165 516.224
1308 0 78.259 14.8098 1159 65.7722 759.449 510.384
1309 0 78.1594 14.3041 1118 67.0107 759.298 507.969
1310 0 86.3677 15.4456 1334 64.1259 760.325 510.411
1311 0 85.2182 14.4101 1228 66.7557 760.058 507.454
1312 0 90.332 15.587 1408 65.3928 759.782 505.278
1313 0 92.4783 15.3766 1422 65.5584 759.875 508.307
1314 1 48.4572 12.3614 599 68.1135 760.192 526.766
1315 0 50.3992 14.1272 712 66.2907 760.5 525.402
1316 0 49.1812 14.1721 697 66.7819 760.858 525.846
1317 0 53.146 12.9078 686 67.4242 760.068 526.133
1318 0 54.3177 13.7892 749 67.1762 759.374 524.606
1319 0 56.3339 14.5916 822 66.4611 759.612 521.673
1320 0 55.296 12.7496 705 69.2752 759.411 522.743
1321 0 59.3868 14.4308 857 66.7398 760.223 522.163
1322 0 61.416 12.4886 767 69.2386 760.137 520.664
1323 0 64.7618 13.0015 842 68.9608 759.414 518.751
1324 0 67.2431 15.2135 1023 66.2561 759.629 517.938
1325 0 70.3095 14.6353 1029 67.035 759.356 518.4
1326 0 70.4288 13.6308 960 69.2885 759.186 515.532
1327 0 71.3018 13.6743 975 69.6062 759.573 515.307
1328 0 76.3013 14.6655 1119 67.6801 759.035 515.28
1329 0 79.3897 14.0194 1113 68.5094 759.285 514.376
1330 0 80.3277 15.5488 1249 66.6357 760.372 516.119
1331 0 84.2552 15.1326 1275 67.9459 759.693 512.261
1332 0 83.4714 13.0584 1090 71.2752 759.498 511.553
1333 0 86.4052 13.0432 1127 71.9956 759.775 510.573
1334 0 90.3756 14.5946 1319 70.0099 759.882 508.985
1335 0 92.5481 15.1489 1402 69.933 759.645 507.294
1336 0 96.3755 14.8585 1432 70.5782 760.006 504.981
1337 1 49.4097 14.0458 694 69 759.484 529.797
1338 0 50.1749 13.9313 699 69.8541 759.705 528.707
1339 0 51.3485 15.2098 781 68.242 759.496 526.749
1340 0 51.3389 14.9984 770 69.5818 759.073 525.714
1341 0 54.2808 14.6461 795 70.5698 759.953 525.323
1342 0 55.4763 13.339 740 72.9919 760.008 523.795
1343 0 55.1329 13.1138 723 73.8935 759.741 523.884
1344 0 60.4022 14.4697 874 70.5973 759.994 524.715
1345 0 61.3056 13.7997 846 72.6584 759.657 523.545
1346 0 61.2206 13.9006 851 73.5253 759.429 521.18
1347 0 63.2324 13.7588 870 74.3023 758.925 517.495
1348 0 66.282 13.8952 921 72.9349 759.225 520.646
1349 0 70.2601 14.9872 1053 72.0817 760.345 519.413
1350 0 68.2465 14.096 962 74.7672 760.139 517.675
1351 0 72.3628 14.5655 1054 73.6233 760.38 518.086
1352 0 76.2224 14.0772 1073 73.8071 759.819 515.97
1353 0 77.2454 16.2987 1259 70.9071 760.178 515.956
1354 0 79.3387 13.6377 1082 75.4104 759.64 516.218
1355 0 82.3082 15.2354 1254 73.8373 758.908 511.541
1356 0 86.2835 15.6577 1351 73.0696 759.435 510.275
1357 0 86.1268 13.9794 1204 76.3256 759.439 508.634
1358 0 89.3756 14.3663 1284 74.7773 759.751 509.445
1359 0 95.1904 16.7454 1594 70.6913 759.847 510.104
1360 1 48.2247 12.7943 617 75.0664 760.694 528.922
1361 0 49.4236 14.2442 704 74.0185 760.707 527.223
1362 0 51.1621 14.5029 742 73.3949 759.85 528.256
1363 0 53.2468 14.4422 769 73.3966 759.873 528.298
1364 0 55.0565 15.8383 872 72.3658 759.439 526.826
1365 0 55.1425 14.526 801 73.6916 760.426 527.246
1366 0 56.1555 14.8694 835 74.315 759.42 525.062
1367 0 58.2934 14.1354 824 75.3495 759.769 523.572
1368 0 60.4 15.1821 917 73.6761 760.089 523.486
1369 0 63.235 14.5963 923 73.9762 760.547 524.197
1370 0 64.2751 15.2936 983 73.532 760.529 522.465
1371 0 64.2821 13.5963 874 76.2883 760.47 521.896
1372 0 67.2249 14.4143 969 75.3271 760.194 519.605
1373 0 69.1517 14.7357 1019 75.6241 760.633 518.618
1374 0 72.332 14.4334 1044 74.7232 760.814 519.916
1375 0 75.4614 15.7299 1187 73.4777 759.276 516.778
1376 0 78.4466 14.9274 1171 73.9923 759.867 515.319
1377 0 79.377 16.3145 1295 72.4757 760.866 514.036
1378 0 82.5757 16.2639 1343 72.6716 760.011 512.139
1379 0 85.4866 15.3708 1314 73.8394 760.654 511.178
1380 0 85.2629 16.1618 1378 73.098 760.36 512.209
1381 0 90.2505 16.7201 1509 71.998 759.996 510.119
1382 0 90.6165 13.982 1267 76.6535 760.4 508.259
1383 1 46.2634 13.3799 619 75.5137 759.901 530.208
1384 0 46.3629 13.4806 625 76.0336 759.846 529.293
1385 0 51.42 13.8857 714 73.8866 760.699 528.139
1386 0 51.3421 15.6207 802 72.7706 760.387 526.019
1387 0 52.3722 12.8885 675 75.9378 760.412 527.437
1388 0 52.3058 14.4726 757 75.1189 760.173 525.326
1389 0 55.2782 14.418 797 74.8971 759.96 525.186
1390 0 56.5304 14.2047 803 75.7435 759.913 523.568
1391 0 60.4252 15.1592 916 72.4323 760.106 524.632
1392 0 60.3549 14.3485 866 75.0427 759.846 523.709
1393 0 62.1921 14.1979 883 75.5289 759.977 519.207
1394 0 64.1345 15.218 976 74.6557 759.734 521.008
1395 0 65.3346 15.2446 996 74.8504 760.154 519.529
1396 0 69.4003 14.7406 1023 74.7634 759.783 518.704
1397 0 70.0963 15.0507 1055 74.873 760.524 518.309
1398 0 72.5906 14.8917 1081 73.8659 760.221 519.413
1399 0 75.2155 14.7709 1111 74.964 759.919 514.978
1400 0 75.1669 14.4479 1086 75.9466 759.119 515.304
1401 0 78.3624 15.4921 1214 73.8336 760.438 514.062
1402 0 81.3085 12.0283 978 77.8446 759.286 514.85
1403 1 41.6023 15.3838 640 72.0047 760.473 532.933
1404 0 41.2254 13.4868 556 74.4586 758.664 530.858
1405 0 43.199 14.1901 613 73.9641 758.845 531.617
1406 0 44.533 12.4627 555 75.636 759.398 531.368
1407 0 46.8371 13.4295 629 73.6598 760.072 531.259
1408 0 45.2678 13.4091 607 74.3954 759.964 531.771
1409 0 46.1471 13.4786 622 76.1833 759.357 528.143
1410 0 48.3911 13.3289 645 75.6667 760.192 528.42
1411 0 50.145 14.6375 734 72.7084 760.026 529.846
1412 0 53.082 14.8826 790 73.7316 760.472 525.986
1413 0 53.1834 14.6286 778 74.4743 760.555 526.46
1414 0 54.2873 15.2154 826 73.2421 760.122 526.519
1415 0 55.1764 14.6077 806 74.4268 760.705 526.294
1416 0 57.1426 15.0851 862 74.138 760.785 524.773
1417 0 60.0996 15.9402 958 72.0209 760.842 524.948
1418 0 60.0623 15.4007 925 73.2216 760.959 523.155
1419 0 64.1522 14.9021 956 73.5784 760.234 522.631
1420 0 62.1536 14.1746 881 75.6629 760.666 521.418
1421 0 67.2522 14.8248 997 73.7733 760.605 520.408
1422 0 68.1598 13.5124 921 76.1412 760.783 519.892
1423 0 66.3575 13.2916 882 77.7154 760.726 516.666
1424 0 72.1827 14.4494 1043 73.9501 760.154 518.885
1425 0 76.415 15.3504 1173 73.3777 760.213 515.023
1426 0 80.3646 14.9568 1202 73.4667 760.659 516.103
1427 0 82.2542 15.0266 1236 73.6416 760.649 514.028
1428 0 85.2649 15.3991 1313 73.0823 760.292 511.855
1429 0 88.3895 14.6397 1294 73.9598 760.652 510.756
1430 0 89.1291 13.9124 1240 75.1976 760.589 508.929
1431 0 93.343 14.9984 1400 73.4421 760.241 508.847
1432 0 98.269 15.5186 1525 72.28 760.378 510.467
1433 1 46.3762 12.7436 591 76.9763 760.526 529.41
1434 0 48.4492 14.056 681 74.4376 760.123 530.234
1435 0 48.4898 14.9516 725 74.2524 760.241 528.737
1436 0 51.2001 14.3359 734 75.2316 760.35 527.403
1437 0 52.2925 14.3233 749 74.7677 759.987 528.633
1438 0 54.2201 13.5005 732 76.3429 759.896 527.721
1439 0 55.3267 16.2851 901 72.5871 759.599 526.757
1440 0 55.4196 14.4895 803 76.3948 760.144 525.821
1441 0 58.1326 14.5013 843 76.4413 759.734 524.237
1442 0 61.3629 14.3409 880 76.1432 759.894 524.149
1443 0 60.0916 14.4945 871 77.2629 759.455 522.516
1444 0 63.1924 15.0651 952 76.6576 759.316 520.214
1445 0 67.1751 16.0476 1078 74.1605 760.096 521.785
1446 0 67.1718 15.8698 1066 75.2833 759.796 521.008
1447 0 69.3075 14.9623 1037 76.6297 760.017 520.366
1448 0 71.321 15.4372 1101 76.9201 759.832 517.023
1449 0 74.5725 13.9328 1039 78.7555 759.547 518.53
1450 0 77.2948 14.5417 1124 77.7589 759.656 518.415
1451 0 78.2604 14.3751 1125 78.5253 759.527 516.654
1452 0 82.2263 15.4695 1272 76.9733 759.924 511.772
1453 0 84.5941 14.8001 1252 78.1877 759.175 510.261
1454 0 86.5788 14.8189 1283 77.4677 759.502 511.585
1455 0 90.6347 15.2811 1385 76.6195 759.16 508.778
1456 0 94.3791 15.7556 1487 75.2293 759.989 506.365
1457 0 98.5329 15.6192 1539 74.9591 759.508 504.453
1458 0 101.502 14.6795 1490 75.7725 759.567 506.845
1459 1 50.5357 15.118 764 75.4241 759.421 527.381
1460 0 51.434 13.7652 708 76.9661 759.896 527.668
1461 0 54.4458 16.4567 896 73.9531 759.971 526.694
1462 0 56.2555 14.3808 809 76.2373 759.92 527.289
1463 0 57.5542 14.0563 809 77.7194 759.923 526.555
1464 0 58.3941 13.8884 811 78.8607 760.08 524.835
1465 0 61.1661 16.5778 1014 74.8205 759.156 524.937
1466 0 61.4147 14.4917 890 78.1685 759.937 524.134
1467 0 62.6277 14.1152 884 79.7093 759.413 521.49
1468 0 64.5819 14.2455 920 79.8913 759.533 520.653
1469 0 65.4347 14.4877 948 79.9525 759.519 520.306
1470 0 70.3549 15.0949 1062 78.7655 759.804 518.216
1471 0 71.1196 15.4528 1099 78.6406 759.662 516.173
1472 0 72.2447 14.9492 1080 79.7472 760.527 517.75
1473 0 78.379 15.8844 1245 76.5558 760.41 516.816
1474 0 79.2035 14.6584 1161 79.3006 760.039 514.959
1475 0 83.4384 14.7414 1230 78.422 759.419 513.706
1476 0 84.3512 15.1865 1281 78.7338 759.411 511.838
1477 0 89.4258 15.1522 1355 77.569 759.268 512.401
1478 0 92.285 15.8747 1465 76.899 759.64 510.177
1479 0 94.2768 16.1758 1525 76.8977 759.862 506.641
1480 0 98.2185 15.2619 1499 77.6865 759.44 507.476
1481 0 102.223 14.7032 1503 78.1989 759.083 505.56
1482 1 50.2309 13.6171 684 78.7003 759.221 528.857
1483 0 53.1466 14.9963 797 76.8833 758.911 527.824
1484 0 53.1867 16.3951 872 76.2924 759.143 526.633
1485 0 52.2658 14.6941 768 80.138 758.556 524.324
1486 0 55.0991 15.6264 861 77.698 759.269 526.627
1487 0 57.2022 15.0169 859 78.7881 759.625 524.706
1488 0 59.4337 15.5804 926 77.324 759.451 525.353
1489 0 61.2861 15.4684 948 79.0285 758.811 522.569
1490 0 63.1678 15.4351 975 79.0738 759.052 520.215
1491 0 64.1063 16.3166 1046 78.0048 758.859 521.112
1492 0 67.1494 16.1282 1083 78.0748 759.221 518.902
1493 0 69.2882 15.0964 1046 79.9828 759.224 517.16
1494 0 71.2972 15.9473 1137 78.847 759.456 516.431
1495 0 72.2031 15.0271 1085 80.2083 759.156 515.927
1496 0 75.0946 14.808 1112 80.4505 759.068 515.191
1497 0 80.0633 16.7867 1344 76.8103 759.358 513.027
1498 0 83.1564 15.9338 1325 77.2143 759.66 513.692
1499 0 86.3694 15.7 1356 77.2087 759.829 513.913
1500 0 86.1889 14.9439 1288 78.9884 758.73 509.968
1501 0 91.1008 16.2896 1484 76.2965 759.554 508.631
1502 0 92.2213 14.2809 1317 80.0721 759.604 505.215
1503 0 95.3461 15.0714 1437 78.0571 759.201 503.955
1504 0 100.217 16.3047 1634 75.9058 759.14 501.499
1505 0 105.195 16.7308 1760 74.1693 758.962 503.477
1506 0 106.226 15.6459 1662 76.9134 759.478 498.308
1507 1 51.1349 12.8679 658 78.7036 759.508 524.497
1508 0 52.1302 12.9483 675 78.7852 759.209 524.91
1509 0 53.0716 16.1103 855 76.1614 759.483 523.563
1510 0 55.1925 15.2013 839 76.5781 759.741 523.605
1511 0 57.0703 14.8063 845 77.6071 759.644 521.708
1512 0 59.0646 14.7127 869 76.6651 760.155 523.145
1513 0 59.0795 14.5228 858 77.9744 759.336 520.544
1514 0 63.1622 15.4048 973 76.1891 758.994 520.474
1515 0 63.2193 16.6721 1054 75.4744 759.325 517.309
1516 0 67.1014 16.9743 1139 74.0518 760.125 517.597
1517 0 68.0687 14.2356 969 78.6832 759.497 518.283
1518 0 69.1067 13.6021 940 79.0372 760.034 516.981
1519 0 72.1108 15.282 1102 77.0372 759.592 515.194
1520 0 75.2029 15.8372 1191 75.8934 759.225 514.121
1521 0 77.1821 16.7396 1292 74.9659 759.693 509.622
1522 0 82.3712 17.1419 1412 73.2075 759.457 508.719
1523 0 85.3961 16.3005 1392 73.4109 759.591 508.572
1524 0 87.2838 13.6222 1189 76.7872 759.989 509.876
1525 0 91.1482 15.7984 1440 74.4625 759.483 506.127
1526 0 94.2122 16.0807 1515 72.7551 760.193 506.158
1527 0 98.2698 14.3279 1408 75.103 759.627 502.707
1528 0 101.37 15.6851 1590 72.6503 758.856 503.935
1529 0 103.236 14.6654 1514 74.3052 759.118 502.291
1530 1 46.0647 11.1799 515 77.8272 759.903 527.971
1531 0 49.1241 14.9825 736 74.1861 759.469 524.053
1532 0 51.2153 14.4683 741 75.3549 759.945 524.819
1533 0 53.1306 14.8878 791 74.8319 759.402 524.43
1534 0 53.1368 15.6765 833 73.6951 759.343 526.074
1535 0 55.227 15.1013 834 76.0144 759.376 523.265
1536 0 57.0998 15.4642 883 74.9479 759.11 523.464
1537 0 58.142 15.2557 887 75.7756 758.98 521.793
1538 0 57.2552 13.7979 790 79.1392 759.086 519.12
1539 0 62.2195 15.606 971 75.5716 758.516 521.411
1540 0 66.2125 15.2539 1010 75.3782 758.193 521.715
1541 0 66.1126 14.3392 948 76.7141 758.504 521.046
1542 0 68.2262 15.7271 1073 75.603 758.631 517.673
1543 0 68.1108 15.8125 1077 75.6899 758.622 517.922
1544 0 74.1833 16.2975 1209 74.4715 758.84 516.784
1545 0 73.0433 16.1 1176 75.3639 759.157 512.962
1546 0 74.2213 15.2652 1133 76.6778 759.569 513.368
1547 0 79.1094 15.0677 1192 76.2274 758.732 513.518
1548 0 83.1762 16.0623 1336 73.9701 758.99 511.327
1549 0 85.1364 16.9728 1445 72.8374 759.533 509.141
1550 0 89.0718 15.5268 1383 74.3572 759.02 507.252
1551 0 93.2983 16.1203 1504 73.3737 758.739 506.239
1552 0 95.12 15.1283 1439 74.877 758.873 504.037
1553 0 99.1357 15.7158 1558 73.8421 758.066 504.001
1554 0 104.283 18.3155 1910 69.8026 759.161 502.692
1555 0 106.097 17.0599 1810 72.1232 758.52 499.444
1556 0 108.202 14.7595 1597 74.9499 758.639 499.669
1557 1 52.1457 13.2513 691 75.8741 758.747 525.088
1558 0 54.177 15.4125 835 72.4587 758.889 524.658
1559 0 53.3427 15.4098 822 73.826 758.886 524.731
1560 0 56.3983 14.5926 823 74.9842 758.355 524.531
1561 0 58.5187 14.8841 871 74.6544 759.411 524.907
1562 0 59.2012 14.5943 864 76.0255 759.244 521.226
1563 0 61.2603 14.7567 904 75.9215 758.918 520.282
1564 0 60.2342 14.6262 881 77.1828 758.926 520.356
1565 0 64.1327 15.8889 1019 75.9539 759.256 518.85
1566 0 64.1864 13.5543 870 79.9782 759.222 517.476
1567 0 68.3117 16.5125 1128 75.0364 758.249 517.179
1568 0 67.1162 14.7654 991 78.5378 758.677 516.788
1569 0 69.1358 14.2618 986 79.2464 758.425 515.976
1570 0 72.2711 15.5387 1123 77.5067 758.651 513.462
1571 0 75.3383 16.4458 1239 76.1251 758.785 511.424
1572 0 76.2938 15.3879 1174 77.7428 759.006 511.057
1573 0 79.2269 14.5026 1149 78.8477 759.46 510.854
1574 0 81.2302 16.0654 1305 75.7356 759.808 511.036
1575 0 83.1927 15.9149 1324 76.3754 758.915 508.383
1576 0 86.2697 14.9067 1286 77.4425 758.695 508.787
1577 0 88.3225 15.8623 1401 76.4968 758.879 506.713
1578 0 91.2755 14.8342 1354 78.3634 759.269 502.212
1579 0 94.5901 14.2933 1352 78.5939 758.584 503.539
1580 0 98.175 15.4724 1519 76.6504 758.68 503.562
1581 0 104.237 15.954 1663 76.0728 758.975 500.454
1582 1 53.1453 15.2036 808 76.6832 759.642 523.641
1583 0 57.273 15.3126 877 75.943 759.237 524.308
1584 0 59.2284 14.2499 844 78.7701 758.723 520.38
1585 0 59.0578 14.5451 859 78.4494 759.34 520.923
1586 0 60.2125 14.3824 866 78.8845 759.79 519.189
1587 0 64.2128 15.7445 1011 76.5707 759.051 518.568
1588 0 66.0729 16.9358 1119 75.8811 758.805 516.105
1589 0 69.2052 17.0796 1182 75.1937 759.017 516.768
1590 0 69.389 14.6709 1018 78.8497 758.931 516.995
1591 0 73.1721 16.0307 1173 77.1696 758.641 514.893
1592 0 74.1361 16.4967 1223 76.964 758.863 513.199
1593 0 77.3788 15.017 1162 78.8984 759.016 510.153
1594 0 80.2991 15.4298 1239 78.0024 758.402 510.963
1595 0 83.2549 16.5996 1382 76.0593 758.694 509.015
1596 0 83.1437 14.1923 1180 80.5542 758.945 506.875
1597 0 86.413 14.1414 1222 79.0548 758.772 509.09
1598 0 90.1346 15.5767 1404 77.4444 759.22 506.498
1599 0 94.1592 16.6845 1571 75.3666 758.906 503.952
1600 0 97.2863 15.367 1495 77.7492 759.108 503.318
1601 0 97.1914 15.2483 1482 78.3293 759.596 502.704
1602 0 104.195 16.1333 1681 76.2564 759.503 501.498
1603 0 106.333 15.2634 1623 77.2637 759.112 500.926
1604 0 110.2 16.4792 1816 75.2748 758.029 499.814
1605 1 53.2237 14.6363 779 76.62 758.257 526.036
1606 0 53.1489 14.751 784 77.6059 758.424 525.15
1607 0 55.0937 15.7913 870 76.2184 758.255 523.797
1608 0 58.2744 15.0152 875 76.9257 758.157 525.008
1609 0 56.0993 15.6865 880 77.3761 758.994 524.269
1610 0 61.2649 13.9884 857 78.9032 758.644 522.309
1611 0 60.1851 13.8406 833 80.3674 758.767 519.93
1612 0 62.2671 15.7065 978 78.3568 757.858 519.639
1613 0 67.1868 14.9881 1007 77.1301 758.285 521.877
1614 0 68.1927 15.8081 1078 77.4527 758.558 516.948
1615 0 68.0553 13.9005 946 79.9524 758.971 516.875
1616 0 70.2504 15.1743 1066 77.6069 758.231 517.389
1617 0 74.3897 14.4375 1074 78.4683 759.033 514.502
1618 0 77.3724 14.6047 1130 78.1266 758.986 513.569
1619 0 78.1644 14.2264 1112 78.3588 758.825 512.238
1620 0 82.1936 15.4513 1270 75.974 759.404 511.564
1621 0 85.545 13.7004 1172 77.2995 759.777 510.558
1622 0 86.5211 14.5398 1258 76.2321 759.628 510.928
1623 0 89.1718 15.1617 1352 76.2241 759.385 505.162
1624 0 92.2438 15.2747 1409 75.2761 759.535 504.859
1625 0 93.0858 15.0291 1399 76.0636 759.652 502.991
1626 0 100.14 16.0475 1607 73.5258 759.291 502.324
1627 0 101.301 13.7511 1393 76.5585 759.613 503.111
1628 0 106.298 15.2872 1625 74.5988 759.81 500.035
1629 0 108.346 14.2321 1542 74.9449 759.587 504.91
1630 0 112.139 14.705 1649 76.0255 758.843 497.686
1631 0 117.159 13.9469 1634 76.6775 759.001 497.487
1632 0 118.258 13.5213 1599 78.4409 759.061 492.246
1633 0 124.239 14.7377 1831 76.0896 759.088 494.952
1634 1 64.2638 13.3979 861 77.417 759.265 519.621
1635 0 65.1927 13.8359 902 77.8769 759.175 517.845
1636 0 67.1245 12.8418 862 79.2749 758.756 518.515
1637 0 69.1876 13.5718 939 78.7657 758.847 517.048
1638 0 71.184 12.4185 884 81.3609 759.129 517.345
1639 0 71.1075 11.4615 815 82.9043 758.836 516.842
1640 0 76.0733 14.0391 1068 80.1198 759.298 513.981
1641 0 77.1191 14.8861 1148 79.304 758.767 511.119
1642 0 78.1451 13.5389 1058 81.6002 758.563 510.654
1643 0 83.1415 14.8422 1234 79.9457 758.332 508.909
1644 0 85.2792 14.6812 1252 79.7005 759.029 508.186
1645 0 89.1268 13.2732 1183 81.601 759.086 506.485
1646 0 91.1068 14.0165 1277 80.5638 758.281 504.618
1647 0 95.2278 14.019 1335 80.1858 759.04 506.547
1648 0 100.143 14.7689 1479 78.8932 758.725 504.715
1649 0 101.16 14.0372 1420 80.7232 758.721 502.572
1650 0 105.198 12.7568 1342 82.2668 758.817 503.577
1651 1 53.2106 15.8615 844 77.1232 758.633 527.461
1652 0 54.2227 15.879 861 78.6074 758.491 523.265
1653 0 54.2466 13.2912 721 81.6644 758.447 526.964
1654 0 59.113 14.3962 851 80.4266 758.651 523.857
1655 0 60.0833 15.7947 949 78.844 759.312 523.821
1656 0 61.2274 14.977 917 80.8877 758.842 521.168
1657 0 64.1607 14.4949 930 81.4419 758.888 520.129
1658 0 64.363 14.0919 907 82.7751 758.743 518.492
1659 0 66.3245 14.4291 957 81.4953 758.534 518.664
1660 0 68.1335 14.589 994 81.9256 758.9 518.57
1661 0 72.1318 15.3608 1108 79.7365 758.761 516.56
1662 0 73.4932 14.1646 1041 81.9914 758.615 513.792
1663 0 74.1697 14.4129 1069 81.2423 758.401 514.475
1664 0 77.1719 13.593 1049 82.6215 758.871 511.867
1665 0 82.2124 13.1367 1080 82.5852 758.633 510.915
1666 0 86.1829 14.9101 1285 79.0576 759.287 510.917
1667 0 89.1504 15.1766 1353 78.8965 759.059 508.123
1668 0 92.5177 15.0998 1397 78.5297 758.968 508.145
1669 0 95.2311 14.7641 1406 78.5441 759.234 504.536
1670 0 98.1899 15.7552 1547 77.0672 759.57 504.345
1671 1 50.197 13.188 662 80.0091 758.955 525.002
1672 0 52.1897 15.4436 806 75.6476 758.88 525.896
1673 0 54.5622 12.9394 706 79.6445 759.38 523.644
1674 0 57.537 13.0698 752 78.0399 759.696 525.446
1675 0 57.34 14.2658 818 78.2372 759.032 522.147
1676 0 60.0662 14.7171 884 77.2805 758.451 522.128
1677 0 61.1616 14.1756 867 77.3564 758.809 522.844
1678 0 62.1102 13.7176 852 78.9577 758.198 519.723
1679 0 66.1316 14.8189 980 76.751 758.968 519.444
1680 0 67.2207 14.2218 956 77.614 758.845 519.297
1681 0 70.2806 14.499 1019 77.0638 758.94 516.234
1682 0 74.1503 13.6884 1015 77.3251 759.247 517.672
1683 0 75.5831 15.2944 1156 75.4377 758.768 515.177
1684 0 78.2939 15.9527 1249 74.558 758.99 515.06
1685 0 79.1607 14.9822 1186 76.9258 759.214 511.34
1686 0 80.4211 14.3868 1157 77.5903 759.255 511.297
1687 0 86.1659 14.4721 1247 76.3472 759.378 512.46
1688 0 87.2801 13.852 1209 77.9495 758.912 509.18
1689 0 90.273 15.0765 1361 75.9427 758.306 506.907
1690 0 93.6081 13.7595 1288 77.3253 758.72 506.442
1691 0 94.2322 13.3606 1259 78.0723 757.985 506.148
1692 1 49.2867 14.1012 695 74.8849 758.337 529.122
1693 0 51.3633 16.1399 829 71.1653 758.386 528.567
1694 0 50.2903 11.9307 600 78.15 758.157 526.122
1695 0 53.6237 14.7696 792 73.9886 758.918 526.33
1696 0 56.3597 13.68 771 74.4306 758.414 525.24
1697 0 56.0462 14.5773 817 74.6414 758.661 524.334
1698 0 58.3163 14.2499 831 74.9242 758.758 524.04
1699 0 60.2238 14.5458 876 74.0856 758.396 522.145
1700 0 62.1282 14.4862 900 74.0111 758.14 522.783
1701 0 64.1346 12.6765 813 77.1328 757.641 520.048
1702 0 65.2335 13.7659 898 75.8341 758.548 520.306
1703 0 67.2104 13.5842 913 76.0296 757.95 517.663
1704 0 70.4175 15.7347 1108 72.528 757.715 517.051
1705 0 71.5059 13.831 989 75.1072 757.498 516.91
1706 0 72.4319 13.668 990 75.5232 758.568 515.605
1707 0 77.2138 13.0158 1005 75.5363 758.012 515.849
1708 0 79.3731 14.9547 1187 73.337 758.206 511.001
1709 0 84.4755 14.4776 1223 72.5626 757.843 511.384
1710 0 86.2962 14.4618 1248 73.0537 758.248 508.478
1711 0 86.3585 12.9345 1117 74.9445 758.286 507.664
1712 0 89.2069 16.2656 1451 70.6148 757.375 507.892
1713 0 92.1785 14.5153 1338 72.5404 757.64 505.241
1714 0 99.2643 15.091 1498 70.7437 757.651 503.92
1715 0 101.13 14.7533 1492 71.0878 757.861 502.998
1716 0 105.394 13.7579 1450 72.4034 758.253 499.88
1717 1 47.0796 13.6789 644 72.5994 757.809 526.225
1718 0 49.3361 12.9722 640 72.0828 758.428 527.597
1719 0 52.1601 14.398 751 70.771 757.839 525.796
1720 0 51.2813 12.4607 639 73.7731 758.061 524.419
1721 0 55.1883 15.6555 864 69.7581 758.59 523.685
1722 0 56.4449 14.9881 846 69.8936 757.905 524.037
1723 0 55.1406 14.327 790 72.1316 758.582 521.223
1724 0 60.3595 15.7887 953 69.3736 758.887 521.41
1725 0 60.3095 15.835 955 69.8722 758.928 521.418
1726 0 61.4165 13.8399 850 72.78 758.679 520.868
1727 0 64.3172 15.237 980 70.8674 759.028 520.498
1728 0 64.3857 13.7763 887 73.6663 758.405 519.09
1729 0 66.3042 14.3731 953 73.0262 758.576 519.135
1730 0 70.3194 14.7043 1034 71.3743 758.81 519.798
1731 0 72.3666 14.4404 1045 72.7416 758.36 515.882
1732 0 75.3298 14.9343 1125 71.6187 758.564 516.182
1733 0 76.5024 15.2936 1170 71.212 758.569 513.98
1734 0 79.4538 15.9212 1265 70.1747 758.428 511.089
1735 0 81.3335 13.6352 1109 72.8061 757.72 507.848
1736 0 85.4832 15.6756 1340 69.2858 758.329 512.087
1737 0 88.1963 15.6583 1381 69.1006 758.461 509.72
1738 0 89.2445 12.9196 1153 72.7233 758.676 507.223
1739 0 93.2641 14.6037 1362 70.0639 758.923 507.454
1740 0 94.2602 14.5873 1375 71.2473 758.913 502.188
1741 0 96.0917 14.9128 1433 71.1717 758.845 502.211
1742 1 47.1619 15.3938 726 69.1047 758.68 525.315
1743 0 48.1599 14.4311 695 70.2101 758.534 526.78
1744 0 49.1936 14.6564 721 70.3856 758.356 525.738
1745 0 50.3594 15.3298 772 70.2655 758.742 524.714
1746 0 52.1555 15.1278 789 70.6971 758.357 525.132
1747 0 52.2599 15.5951 815 71.3509 758.26 524.33
1748 0 55.1344 16.6139 916 69.8188 758.483 523.37
1749 0 56.1334 15.766 885 71.9955 758.401 521.92
1750 0 58.67 15.1696 890 71.6393 758.245 523.633
1751 0 59.7924 15.4367 923 72.1625 759.06 523.423
1752 0 60.2555 16.2641 980 73.1653 758.154 518.339
1753 0 66.4428 16.3449 1086 71.2403 758.506 520.878
1754 0 68.3469 16.5772 1133 71.2921 758.049 518.527
1755 0 70.628 15.5179 1096 73.0155 757.913 517.403
1756 0 71.2843 16.6797 1189 72.1985 759.215 514.279
1757 0 75.6628 15.9656 1208 72.8245 758.299 514.084
1758 0 74.2418 15.4091 1144 73.9397 758.375 514.92
1759 0 81.5558 16.1975 1321 71.5443 758.156 512.714
1760 0 77.4111 16.0701 1244 73.6624 757.562 509.497
1761 0 83.2382 15.7019 1307 73.4897 758.041 508.818
1762 0 86.1761 16.269 1402 72.2154 758.09 508.347
1763 0 89.1082 16.8896 1505 71.2864 758.577 505.79
1764 0 91.1754 14.0279 1279 75.3151 758.134 506.577
1765 0 92.1926 15.7388 1451 73.8884 757.848 501.722
1766 0 97.5059 15.5785 1519 73.4503 757.67 502.974
1767 1 46.3741 14.9221 692 72.2168 758.233 527.092
1768 0 46.5618 13.2083 615 75.4163 758.499 524.93
1769 0 46.1161 13.9431 643 75.4541 759.254 523.813
1770 0 48.1239 14.712 708 74.178 759.343 525.021
1771 0 49.2579 14.15 697 75.4792 758.608 524.03
1772 0 53.2624 14.7571 786 75.0687 758.252 522.489
1773 0 52.1215 15.9627 832 73.8365 758.293 524.058
1774 0 54.3099 16.6636 905 73.5282 758.016 521.62
1775 0 55.0967 14.5744 803 76.4446 757.874 520.305
1776 0 62.511 14.4775 905 74.095 758.074 522.2
1777 0 60.1146 15.7865 949 74.254 757.86 520.828
1778 0 63.6313 14.8983 948 75.5137 758.318 519.066
1779 0 65.3386 15.5957 1019 74.95 758.898 516.163
1780 0 67.0567 14.5101 973 75.2127 758.137 517.325
1781 0 70.1237 15.3871 1079 74.4208 758.61 516.596
1782 0 72.1488 16.4382 1186 72.9899 758.243 513.477
1783 0 74.0872 15.0498 1115 73.7821 758.537 515.193
1784 0 75.299 15.4053 1160 73.7767 758.539 513.259
1785 0 78.1271 12.9021 1008 77.6111 758.145 509.968
1786 0 83.1578 15.2962 1272 73.7382 757.908 511.121
1787 0 84.1638 16.5035 1389 72.897 758.687 507.515
1788 0 89.1906 15.5734 1389 72.9863 757.96 507.168
1789 0 92.3615 13.7503 1270 75.1409 758.193 507.577
1790 0 93.1457 13.1514 1225 76.6433 758.554 502.328
1791 0 98.4693 15.1925 1496 73.1464 758.515 503.172
1792 1 43.166 13.9693 603 76.7098 758.896 523.904
1793 0 47.155 14.8235 699 73.7825 758.853 525.661
1794 0 50.3299 15.0408 757 74.033 758.527 524.786
1795 0 48.3007 14.1199 682 77.0425 759.192 523.513
1796 0 51.7433 15.9828 827 74.2455 758.879 522.713
1797 0 52.6077 14.5226 764 76.2984 759.034 522.654
1798 0 52.2438 16.5378 864 74.8866 758.353 521.294
1799 0 56.4499 13.8884 784 77.5969 757.832 521.154
1800 0 55.201 15.4888 855 77.4807 757.66 518.751
1801 0 56.1713 15.7198 883 77.59 758.425 520.652
1802 0 61.2095 13.7887 844 78.8175 758.072 521.706
1803 0 62.1104 14.2166 883 80.4587 758.305 517.139
1804 0 63.4847 14.7595 937 79.0139 758.477 517.288
1805 0 62.1849 14.1353 879 80.7429 758.602 516.173
1806 0 66.0846 14.2393 941 79.7471 758.268 517.048
1807 0 70.2603 14.8733 1045 78.8258 757.933 512.157
1808 0 67.0936 13.5035 906 82.3267 757.989 511.134
1809 0 73.1911 15.7396 1152 77.6363 758.607 511.378
1810 0 74.908 12.7089 952 81.8897 758.584 511.142
1811 0 80.5802 14.9416 1204 78.0598 758.426 509.116
1812 0 80.192 13.8044 1107 79.7236 757.534 510.549
1813 0 87.2225 14.6063 1274 78.2528 757.674 507.309
1814 0 88.6794 14.5468 1290 79.0132 757.56 506.602
1815 0 93.3702 14.0195 1309 79.4385 757.502 505.103
1816 0 95.5979 13.9229 1331 79.7258 758.056 505.304
1817 0 96.3632 14.5284 1400 79.61 758.032 503.369
1818 0 100.073 14.3195 1433 79.9874 757.771 502.068
1819 0 102.671 14.415 1480 79.7682 758.688 500.14
1820 0 108.275 14.7587 1598 79.4675 758.623 498.847
1821 1 53.3057 15.5518 829 77.8251 758.128 522.764
1822 0 56.1717 13.9394 783 80.2682 758.175 520.937
1823 0 60.3065 13.4977 814 80.9558 758.027 518.138
1824 0 64.4268 13.5658 874 79.3398 758.676 520.688
1825 0 63.0966 13.1703 831 81.2527 758.413 519.113
1826 0 68.2759 15.0566 1028 78.7889 757.904 517.216
1827 0 69.6689 13.478 939 81.4313 758.162 515.403
1828 0 70.341 13.5341 952 82.1334 757.562 512.925
1829 0 70.0826 13.4984 946 82.5116 758.043 515.133
1830 0 76.2808 15.2332 1162 79.2229 758.908 514.477
1831 0 80.3721 14.6941 1181 79.2074 758.416 512.532
1832 0 80.23 14.2216 1141 80.7923 757.656 513.18
1833 0 85.3837 14.5812 1245 80.1751 757.65 510.402
1834 0 87.3784 13.8821 1213 81.69 758.252 508.933
1835 0 92.3921 14.5792 1347 80.0809 757.662 507.61
1836 1 48.5062 14.8022 718 78.4624 757.543 528.049
1837 0 51.3448 13.5554 696 79.477 757.849 526.454
1838 0 51.3151 13.154 675 81.8578 758.388 525.772
1839 0 52.1789 14.2586 744 81.1707 758.425 523.82
1840 0 51.2308 13.1171 672 82.4583 758.037 523.287
1841 0 55.0994 14.2107 783 79.3831 758.549 524.921
1842 0 56.1918 14.2904 803 80.8643 758.071 521.955
1843 0 60.5875 14.0953 854 79.0094 758.611 522.409
1844 0 61.4699 16.2844 1001 76.955 758.738 519.055
1845 0 63.2042 14.3345 906 79.7561 758.742 518.549
1846 0 65.745 14.252 937 79.9658 758.395 516.038
1847 0 65.225 11.7133 764 83.3717 758.435 517.136
1848 0 66.097 13.344 882 82.1882 758.628 515.185
1849 0 72.1954 16.6354 1201 75.6087 758.549 516.397
1850 0 73.149 14.7234 1077 78.5172 758.466 513.305
1851 0 75.0485 13.6578 1025 80.1346 758.411 512.164
1852 0 78.542 13.7251 1078 79.2792 758.713 512.708
1853 0 80.3008 14.1593 1137 79.6016 758.36 510.885
1854 0 84.3208 15.2631 1287 77.6612 757.95 509.191
1855 0 83.4378 15.0172 1253 78.3615 758.388 506.88
1856 0 89.2268 14.3455 1280 78.4328 758.647 505.075
1857 0 92.3027 14.7016 1357 78.6455 758.665 502.54
1858 0 94.1147 14.6417 1378 78.7569 758.574 502.861
1859 0 97.1869 13.8084 1342 79.4359 758.529 502.203
1860 0 101.122 14.2996 1446 78.2607 758.261 500.525
1861 0 103.219 13.4472 1388 79.7767 757.643 497.812
1862 0 107.665 15.1303 1629 76.6182 758.309 494.82
1863 0 110.563 13.2323 1463 79.5988 758.215 492.651
1864 1 52.2686 13.2202 691 78.9841 757.918 521.025
1865 0 57.2201 13.3345 763 77.7392 757.847 521.666
1866 0 57.1295 14.8785 850 76.7953 758.414 519.024
1867 0 57.2786 13.7049 785 78.7401 758.023 518.454
1868 0 61.1313 14.7551 902 75.9279 757.676 517.789
1869 0 67.2148 15.3835 1034 73.9526 758.554 516.949
1870 0 68.2842 15.1133 1032 74.8944 758.395 515.196
1871 0 68.6805 14.0506 965 76.3679 758.229 515.458
1872 0 69.4241 13.0646 907 78.3517 758.11 511.53
1873 0 74.2271 14.5904 1083 75.1542 758.489 510.717
1874 0 77.5649 15.458 1199 73.7089 757.747 510.987
1875 0 78.1551 13.6651 1068 76.7612 757.435 507.73
1876 0 79.1653 13.3771 1059 76.7309 758.035 504.49
1877 0 83.4238 15.0197 1253 73.6065 757.722 506.381
1878 0 86.3264 13.1246 1133 76.3689 757.575 504.863
1879 0 90.27 16.1183 1455 72.0543 757.501 501.969
1880 0 95.3785 15.0977 1440 71.8618 757.879 504.5
1881 0 97.4094 14.0746 1371 73.6346 757.28 501.244
1882 0 100.253 14.1044 1414 72.9448 757.912 499.554
1883 0 104.531 15.3831 1608 71.4832 757.944 497.247
1884 1 53.2864 15.0695 803 71.4421 757.974 521.626
1885 0 56.468 14.309 808 70.875 757.797 523.077
1886 0 55.111 13.3367 735 73.902 757.552 518.063
1887 0 56.3556 13.0777 737 74.7273 757.917 519.624
1888 0 57.0852 13.7864 787 73.7751 757.783 518.648
1889 0 61.1862 14.4804 886 72.5824 757.24 516.328
1890 0 61.1129 15.2996 935 71.5519 757.422 516.534
1891 0 66.389 15.8309 1051 70.1722 757.62 514.741
1892 0 63.176 14.6258 924 73.0465 757.854 514.355
1893 0 68.0812 14.8205 1009 72.0951 758.225 512.825
1894 0 72.3818 15.5011 1122 71.8619 757.809 512.013
1895 0 72.3302 15.0698 1090 72.8211 757.717 509.842
1896 0 76.169 14.8354 1130 73.1212 757.801 508.918
1897 0 79.3727 14.5264 1153 73.3036 757.991 506.97
1898 0 78.1502 14.1138 1103 74.8767 757.975 504.404
1899 0 79.2826 14.8835 1180 73.8246 758.18 505.332
1900 0 83.1455 14.3724 1195 74.1732 757.016 504.439
1901 0 88.175 13.7227 1210 74.1016 758.135 503.222
1902 0 89.2857 14.84 1325 72.9819 757.785 502.199
1903 0 93.1087 15.5625 1449 72.029 757.882 498.38
1904 1 44.0597 13.7314 605 72.2 758.288 523.916
1905 0 45.0519 12.4079 559 74.5975 757.809 520.923
1906 0 46.5476 15.511 722 71.2715 757.583 521.051
1907 0 49.4347 13.8567 685 72.5927 757.793 519.018
1908 0 47.0674 14.7661 695 72.1971 757.397 518.636
1909 0 49.0505 15.0253 737 72.0773 757.149 518.039
1910 0 53.2229 15.0687 802 71.2357 758.024 518.152
1911 0 53.2683 14.793 788 72.3503 758.283 516.308
1912 0 53.3226 15.7344 839 71.292 757.948 515.927
1913 0 57.3157 15.5106 889 70.5197 757.015 516.713
1914 0 59.1251 14.6131 864 72.162 757.973 514.369
1915 0 62.2327 14.253 887 72.212 757.885 511.824
1916 0 65.1596 14.0731 917 71.9335 757.481 513.839
1917 0 66.5207 13.1989 878 73.1435 757.888 514.206
1918 0 67.1774 16.3597 1099 70.1629 757.262 510.541
1919 0 69.0722 15.3028 1057 70.8798 757.48 511.951
1920 0 75.6272 14.2409 1077 70.9183 758.256 513.598
1921 0 75.295 15.4459 1163 70.7025 758.282 507.921
1922 0 78.3579 14.2679 1118 72.1395 758.186 507.933
1923 0 79.1378 15.8837 1257 70.9952 758.119 505.608
1924 0 82.1617 15.3113 1258 71.8354 757.693 506.045
1925 0 86.6678 14.4344 1251 72.6411 757.533 504.836
1926 0 91.4844 16.1885 1481 70.1688 757.219 505.065
1927 0 90.1216 15.579 1404 71.6795 758.151 503.707
1928 0 95.2748 14.5474 1386 73.1659 758.019 500.291
1929 0 99.6099 15.2595 1520 72.0322 757.564 501.807
1930 0 104.717 15.7663 1651 70.9624 757.325 497.443
1931 0 106.307 16.1984 1722 70.4448 757.973 501.459
1932 0 110.462 12.9547 1431 75.2907 757.706 495.332
1933 0 113.73 15.5544 1769 71.9944 757.28 494.573
1934 0 119.31 16.2601 1940 71.301 756.998 495.688
1935 0 124.527 15.6673 1951 71.9903 756.922 496.616
1936 0 128.507 15.0498 1934 73.0109 757.065 492.917
1937 0 133.611 16.0766 2148 72.433 756.15 489.725
1938 0 138.492 16.918 2343 71.1579 755.82 492.075
1939 1 70.123 15.4728 1085 72.482 755.623 523.184
1940 0 70.4836 12.017 847 79.2574 756.675 517.765
1941 0 75.4025 15.1984 1146 73.6632 755.86 521.709
1942 0 76.4222 15.4667 1182 75.0516 755.584 517.989
1943 0 80.3962 14.5778 1172 76.407 755.685 517.706
1944 0 80.8155 14.8981 1204 76.2176 755.585 516.495
1945 0 81.2764 15.2566 1240 76.8476 755.99 514.393
1946 0 86.4503 15.5234 1342 75.9411 756.361 513.864
1947 0 91.6065 15.119 1385 75.3372 756.411 513.295
1948 0 94.4364 15.7037 1483 74.4417 755.202 512.633
1949 0 94.6024 15.2639 1444 76.7888 755.783 506.012
1950 0 102.49 16.9968 1742 72.4082 754.882 509.323
1951 0 102.59 15.4791 1588 75.4402 755.698 505.778
1952 0 106.724 16.2101 1730 74.1283 755.516 503.262
1953 0 110.748 15.7385 1743 74.8233 755.871 500.768
1954 0 113.42 14.8739 1687 74.8921 756.03 504.654
1955 0 118.437 16.0846 1905 73.6226 755.805 499.353
1956 1 59.5912 13.5926 810 75.4975 755.183 525.001
1957 0 62.3813 15.6938 979 73.3013 755.47 525.419
1958 0 61.4768 14.8023 910 74.9868 755.997 524.254
1959 0 63.3579 14.1419 896 77.0123 756.009 520.146
1960 0 66.6128 15.3874 1025 74.6332 756.484 522.197
1961 0 68.4705 14.4442 989 75.4439 756.403 520.745
1962 0 70.5545 16.2711 1148 73.3772 756.523 520.311
1963 0 71.6575 13.8576 993 77.6697 756.256 516.681
1964 0 73.3612 14.7353 1081 76.951 755.8 516.908
1965 0 75.7901 14.1443 1072 77.7211 756.354 515.069
1966 0 77.5044 14.5927 1131 77.1742 756.793 513.024
1967 0 81.435 15.0304 1224 75.2476 757.542 516.493
1968 0 81.5258 14.2041 1158 77.3204 756.22 513.709
1969 0 85.8884 14.8565 1276 76.5094 757.09 509.336
1970 0 88.6103 15.8898 1408 75.0582 756.379 507.6
1971 0 93.3464 14.9872 1399 75.3974 755.521 507.678
1972 0 94.6655 15.391 1457 75.3226 756.572 505.916
1973 0 96.4366 15.3158 1477 75.4482 756.624 504.49
1974 0 103.367 14.3083 1479 76.282 757.314 502.079
1975 0 106.726 15.1509 1617 74.3649 756.974 503.477
1976 0 108.368 16.0011 1734 73.7047 758.163 501.493
1977 0 114.522 15.2024 1741 74.8857 757.35 496.335
1978 1 59.3486 14.2379 845 74.1609 756.877 523.469
1979 0 61.4029 15.1459 930 73.2527 757.73 523.291
1980 0 63.2448 13.5663 858 75.6084 757.417 521.735
1981 0 63.3863 14.4037 913 75.8784 757.77 518.997
1982 0 67.4066 13.9897 943 75.4592 757.065 518.139
1983 0 69.6454 13.5544 944 75.9364 757.051 519.215
1984 0 71.4696 15.3772 1099 73.9208 757.254 517.141
1985 0 71.3622 14.8398 1059 76.2616 757.281 513.822
1986 0 72.3981 13.7158 993 78.3746 757.675 514.857
1987 0 77.4834 15.1258 1172 75.4727 757.676 514.585
1988 0 78.4901 14.7152 1155 76.0035 757.945 514.536
1989 0 81.4475 15.7279 1281 75.2108 757.871 510.727
1990 0 82.3228 13.9087 1145 78.731 758.133 510.911
1991 0 85.6536 15.1541 1298 76.2373 758.556 510.574
1992 0 89.341 15.8606 1417 75.4354 758.323 507.773
1993 0 93.3366 16.0602 1499 74.475 758.198 506.932
1994 0 94.5421 13.8986 1314 78.2451 758.578 504.022
1995 0 100.421 15.4848 1555 75.0193 758.511 504.01
1996 0 102.5 15.4048 1579 75.6111 758.331 501.597
1997 0 105.435 14.3216 1510 77.2417 758.599 499.456
1998 0 110.395 15.8159 1746 75.0149 758.305 498.536
1999 0 112.572 15.0749 1697 76.2169 758.717 495.784
2000 1 55.168 12.6885 700 77.92 758.054 521.316
2001 0 56.4435 14.6872 829 75.4282 758.023 521.474
2002 0 58.1846 12.8384 747 77.7992 757.89 520.862
2003 0 59.5325 12.2118 727 79.1884 757.638 519.732
2004 0 62.1924 15.4199 959 74.927 758.534 519.724
2005 0 63.4834 13.4838 856 77.8516 757.364 519.45
2006 0 66.3821 14.1152 937 75.8538 758.468 520.221
2007 0 68.3645 13.706 937 77.1974 757.683 517.553
2008 0 70.4645 14.9295 1052 74.4278 758.141 520.134
2009 0 71.4656 16.3156 1166 74.1784 758.033 516.154
2010 0 73.386 15.18 1114 75.8052 757.847 516.149
2011 0 73.4309 14.3264 1052 77.7234 757.556 512.691
2012 0 75.383 13.6503 1029 79.0175 757.539 512.288
2013 0 79.429 14.7805 1174 76.224 758.066 511.001
2014 0 83.3755 15.6881 1308 73.9786 757.807 511.424
2015 0 85.4564 14.3699 1228 75.9772 757.644 509.147
2016 0 88.3608 16.7155 1477 72.2356 757.178 507.721
2017 0 88.5606 14.1259 1251 76.6419 756.989 505.815
2018 0 93.3874 16.0193 1496 72.879 757.257 506.996
2019 0 94.3269 14.3119 1350 75.9667 757.437 501.956
2020 0 100.668 15.0494 1515 73.8356 758.176 503.883
2021 0 103.299 16.0698 1660 72.6771 757.856 501.175
2022 0 104.528 14.6659 1533 74.6999 757.319 498.564
2023 0 109.498 16.1098 1764 72.3214 757.41 498.282
2024 0 110.517 14.0069 1548 75.1253 757.556 497.852
2025 0 118.523 16.3344 1936 71.6312 757.468 495.191
2026 0 119.45 14.2737 1705 74.8176 757.855 491.329
2027 0 123.429 15.0451 1857 74.1088 757.583 488.199
2028 0 130.482 15.8029 2062 72.4146 757.298 489.01
2029 0 133.236 15.3337 2043 73.349 757.336 487.659
2030 0 134.377 13.9532 1875 75.1605 757.06 483.457
2031 0 142.255 15.5918 2218 73.023 756.358 480.225
2032 1 70.5042 12.595 888 76.7275 757.008 514.836
2033 0 72.2817 11.9117 861 77.8571 757.699 513.564
2034 0 75.2527 12.4647 938 76.3113 756.932 514.777
2035 0 78.4013 15.3059 1200 72.95 756.837 512.981
2036 0 79.5489 14.3308 1140 74.2807 756.87 510.731
2037 0 82.4893 14.2806 1178 74.3514 757.005 511.079
2038 0 83.6096 12.8933 1078 76.1855 757.08 508.776
2039 0 88.5011 13.9433 1234 74.5956 757.248 507.656
2040 0 88.3294 13.178 1164 76.0077 756.74 505.581
2041 0 94.3927 14.6198 1380 72.8667 757.526 508.476
2042 0 95.3927 13.1142 1251 76.1647 757.334 504.675
2043 0 96.3004 12.6375 1217 77.1676 756.77 502.819
2044 0 105.425 16.8366 1775 69.5561 756.388 506.454
2045 0 106.318 15.0116 1596 73.4066 756.539 501.781
2046 0 108.528 13.508 1466 74.8922 756.789 503.201
2047 0 112.572 15.7232 1770 72.1746 757.045 498.64
2048 1 60.3627 13.7502 830 74.3578 757.31 520.737
2049 0 60.2666 11.25 678 76.9277 757.299 521.97
2050 0 61.4468 15.5094 953 72.149 757.26 521.458
2051 0 64.4125 14.64 943 73.8017 756.863 520.256
2052 0 67.3714 13.5963 916 74.655 756.772 517.921
2053 0 68.1766 15.1078 1030 72.8709 756.258 519.022
2054 0 72.2559 13.9643 1009 74.332 757.256 516.3
2055 0 75.3201 13.7679 1037 74.404 756.796 516.468
2056 0 75.3369 12.4773 940 77.3362 756.523 511.677
2057 0 77.4292 13.6512 1057 75.4144 757.333 511.588
2058 0 80.3279 15.1006 1213 73.1385 756.33 512
2059 0 84.563 14.2616 1206 73.3441 756.897 513.643
2060 0 86.6155 15.5168 1344 74.2552 756.714 512.192
2061 0 89.3761 15.5299 1388 75.3725 756.798 504.332
2062 0 93.3822 14.7673 1379 75.4757 757.256 506.585
2063 0 96.4962 13.5135 1304 76.7308 757.299 504.122
2064 0 100.56 14.0712 1415 75.9908 756.968 504.294
2065 0 104.478 15.965 1668 72.3633 757.456 504.77
2066 0 106.598 15.3756 1639 73.8944 757.184 500.661
2067 0 105.335 14.0124 1476 76.4905 757.406 494.643
2068 0 110.553 13.9932 1547 75.7712 757.116 496.725
2069 1 59.2021 12.7192 753 74.9084 756.533 523.041
2070 0 61.3719 14.0455 862 74.1763 756.477 522.584
2071 0 59.3335 13.4663 799 76.2078 756.418 519.583
2072 0 64.4693 12.9829 837 76.1302 756.594 519.246
2073 0 65.5582 13.3012 872 76.2099 756.747 518.081
2074 0 67.3083 14.337 965 75.0425 756.619 515.337
2075 0 72.3591 15.1329 1095 72.5699 756.496 518.037
2076 0 72.3551 14.6085 1057 73.93 756.388 517.348
2077 0 76.365 14.7974 1130 73.1327 755.942 517.688
2078 0 78.3401 14.1818 1111 74.153 756.022 515.448
2079 0 77.4207 15.4739 1198 73.7245 756.084 513.857
2080 0 82.2689 14.246 1172 74.5913 756.254 514.983
2081 0 83.4224 15.5594 1298 74.0724 756.339 511.239
2082 0 87.23 16.852 1470 71.9401 756.084 510.446
2083 0 87.1381 13.186 1149 77.6928 755.737 506.921
2084 0 91.3966 14.2237 1300 75.3285 756.137 508.272
2085 0 94.4472 15.4584 1460 74.3199 756.441 504.978
2086 0 96.399 15.8508 1528 73.0033 756.229 505.342
2087 0 99.2231 14.4019 1429 75.6326 756.138 499.233
2088 0 105.522 16.5842 1750 71.2114 756.287 501.796
2089 0 110.516 15.4004 1702 72.3743 756.757 500.378
2090 0 113.38 15.2407 1728 72.6881 756.72 498.299
2091 0 117.423 16.0531 1885 70.7374 756.607 497.402
2092 0 121.489 15.2936 1858 72.1712 756.393 493.916
2093 0 122.226 14.5795 1782 73.7413 756.64 488.492
2094 0 127.551 12.8811 1643 75.7626 756.57 488.155
2095 0 134.472 14.7986 1990 73.1166 756.869 488.688
2096 0 138.401 13.9956 1937 74.2659 756.097 484.389
2097 0 143.587 15.5446 2232 72.3746 756.3 485.561
2098 0 142.364 13.2126 1881 76.9952 755.788 481.914
2099 0 152.366 15.489 2360 73.0127 755.958 480.066
2100 1 77.3366 15.4131 1192 74.3255 756.801 510.186
2101 0 84.5287 13.6522 1154 74.3085 756.651 514.848
2102 0 88.3122 15.1621 1339 73.0687 756.59 511.354
2103 0 89.2446 14.4659 1291 74.9613 756.661 509.164
2104 0 89.3269 15.9974 1429 73.6543 756.566 507.225
2105 0 94.2299 14.645 1380 74.4746 756.808 510.772
2106 0 93.2925 14.9958 1399 75.3502 756.79 506.183
2107 0 100.337 16.3748 1643 73.2179 756.757 504.053
2108 0 103.428 16.7072 1728 72.6412 756.8 503.661
2109 0 105.43 14.4266 1521 75.6785 756.775 503.003
2110 0 108.981 15.388 1677 74.1366 755.994 501.586
2111 0 111.393 15.6384 1742 73.748 755.998 501.055
2112 0 115.378 15.7135 1813 73.1429 756.638 497.405
2113 0 121.605 15.0817 1834 73.615 756.048 495.379
2114 0 120.325 14.76 1776 74.9217 756.725 492.828
2115 0 130.345 15.7506 2053 72.4087 756.531 493.536
2116 0 135.694 16.1171 2187 71.9204 755.926 489.051
2117 0 134.378 14.4294 1939 75.2233 756.204 486.604
2118 1 64.2259 15.7102 1009 73.3449 756.787 518.742
2119 0 65.3319 13.1789 861 76.9965 756.22 517.15
2120 0 68.372 14.5527 995 74.7618 756.594 517.424
2121 0 71.2128 12.4977 890 77.964 756.471 514.961
2122 0 73.2083 15.5037 1135 74.0308 756.878 514.948
2123 0 79.7277 15.6909 1251 72.191 756.522 516.24
2124 0 78.4008 14.783 1159 75.1588 756.037 511.202
2125 0 80.4404 12.904 1038 77.9017 756.783 510.936
2126 0 83.4428 13.9017 1160 76.231 756.609 510.58
2127 0 85.2978 14.5608 1242 74.8462 755.655 512.071
2128 0 87.3285 14.7718 1290 74.7093 756.024 509.283
2129 0 91.5843 14.6313 1340 74.9575 756.554 505.968
2130 0 93.3185 14.5094 1354 74.7341 756.243 506.886
2131 0 94.5561 14.7743 1397 74.6521 756.845 502.724
2132 0 96.0341 15.5049 1489 74.0457 756.528 502.046
2133 0 100.503 14.2981 1437 74.7467 756.135 502.991
2134 0 107.433 15.0513 1617 73.3265 756.141 502.215
2135 0 106.596 15.0944 1609 73.9366 756.249 497.746
2136 0 114.563 16.192 1855 71.704 756.497 496.378
2137 0 117.334 15.1448 1777 73.4226 756.389 494.411
2138 0 120.441 16.7551 2018 71.2701 756.054 491.864
2139 0 124.315 15.4365 1919 73.1845 756.157 490.272
2140 1 64.5783 14.2618 921 72.9044 756.346 519.223
2141 0 61.4848 13.5155 831 75.9458 756.024 516.733
2142 0 68.3314 12.2784 839 76.261 756.576 516.549
2143 0 66.3635 14.2398 945 74.2106 756.497 518.457
2144 0 72.3667 13.5974 984 74.4096 755.458 517.783
2145 0 73.3674 13.3574 980 75.6418 756.257 515.617
2146 0 76.2609 13.8997 1060 75.334 756.118 512.856
2147 0 79.4274 15.1711 1205 73.1925 755.9 515.962
2148 0 81.5735 15.4094 1257 73.2084 755.623 514.111
2149 0 83.4111 16.0171 1336 72.9746 756.019 512.531
2150 0 85.3703 15.626 1334 73.973 755.998 510.743
2151 0 89.401 15.7269 1406 73.2703 756.336 510.425
2152 0 90.3056 13.4765 1217 76.4569 756.32 508.777
2153 0 94.2761 15.4864 1460 73.8356 756.442 505.727
2154 0 97.4347 14.5431 1417 75.6563 756.396 502.757
2155 0 100.406 16.2241 1629 73.4015 755.904 502.568
2156 0 104.327 15.0584 1571 74.45 755.705 503.211
2157 0 109.675 16.2936 1787 72.6928 755.534 501.893
2158 0 110.398 15.0275 1659 75.17 755.814 499.485
2159 0 115.724 16.2715 1883 72.8805 755.553 499.946
2160 0 117.645 15.0368 1769 74.944 755.945 498.004
2161 1 57.3093 13.1392 753 75.4622 755.676 524.153
2162 0 61.0544 12.497 763 76.9974 755.338 522.467
2163 0 65.774 15.1123 994 72.3914 755.543 522.316
2164 0 65.3736 15.8168 1034 72.7669 755.689 521.129
2165 0 66.5608 12.3496 822 77.1582 755.95 518.799
2166 0 71.0744 13.9291 990 75.0707 755.865 517.916
2167 0 70.33 14.0481 988 76.163 755.634 515.324
2168 0 74.7161 15.3514 1147 73.6173 755.682 515.896
2169 0 76.6684 16.4605 1262 72.107 755.664 517.074
2170 0 77.5384 16.4822 1278 72.8365 756.336 516.05
2171 0 76.1508 13.0399 993 79.1531 756 510.185
2172 0 78.4294 15.1601 1189 74.9781 756.407 514.211
2173 0 84.4266 16.5114 1394 72.8623 756.595 513.166
2174 0 87.6289 15.7482 1380 74.6065 756.028 507.941
2175 0 85.2935 14.7608 1259 76.5306 756.388 506.346
2176 0 90.2626 16.873 1523 72.3473 756.307 508.753
2177 0 97.7556 15.3546 1501 74.4897 756.642 505.077
2178 0 94.5128 14.379 1359 77.0191 756.508 500.543
2179 0 99.6581 14.8708 1482 75.0634 756.285 500.145
2180 0 103.529 16.3915 1697 72.9853 756.302 497.478
2181 0 107.631 14.0201 1509 76.1153 756.506 495.57
2182 0 111.571 13.8656 1547 75.682 756.469 498.478
2183 0 114.373 14.8898 1703 75.0012 756.406 492.295
2184 0 121.409 15.6084 1895 73.5852 756.284 489.808
2185 0 124.333 15.7481 1958 73.4336 755.75 493.341
2186 0 129.278 16.3987 2120 72.4618 755.454 490.773
2187 0 135.708 15.3122 2078 73.9389 756.061 488.051
2188 1 69.2577 11.3922 789 78.9975 755.624 513.138
2189 0 73.3534 14.5051 1064 74.343 756.362 516.406
2190 0 76.5617 13.7667 1054 75.074 756.334 516.554
2191 0 78.049 15.1571 1183 72.7642 756.555 518.672
2192 0 74.4333 12.6422 941 79.4899 756.14 510.29
2193 0 83.119 13.1017 1089 76.9275 756.578 512.927
2194 0 84.1798 12.5921 1060 78.7481 756.2 510.954
2195 0 88.7967 14.8091 1315 74.3643 756.153 513.287
2196 0 90.5768 15.0038 1359 74.8896 756.242 509.75
2197 0 94.7324 15.4435 1463 73.5243 755.33 510.208
2198 0 97.3848 13.7085 1335 76.2187 755.575 508.409
2199 0 99.3876 14.6799 1459 75.4551 756.361 504.331
2200 0 101.45 14.4012 1461 75.7741 756.359 502.901
2201 0 105.589 14.1965 1499 76.6298 755.61 499.432
2202 0 106.403 13.7026 1458 77.4588 755.382 498.876
2203 0 110.361 13.6008 1501 76.9147 756.38 498.77
2204 0 112.299 12.8318 1441 78.483 755.574 493.725
2205 0 120.716 14.0329 1694 75.4864 755.675 496.322
2206 0 123.468 12.6591 1563 78.1766 755.701 489.949
2207 0 131.518 15.1158 1988 73.6786 755.738 493.002
2208 0 133.415 13.0645 1743 77.2616 755.649 487.247
2209 1 69.4017 17.1033 1187 70.1247 756.256 519.249
2210 0 72.4744 13.4392 974 73.655 756.127 519.97
2211 0 75.4905 14.4522 1091 73.2108 756.349 517.503
2212 0 78.5756 15.4246 1212 72.2021 756.536 515.866
2213 0 79.3196 14.1453 1122 74.1586 755.967 516.01
2214 0 80.5269 13.7966 1111 75.1593 756.166 513.648
2215 0 84.6468 15.417 1305 72.8552 755.681 511.68
2216 0 84.5156 12.6367 1068 77.2743 756.071 507.076
2217 0 91.5915 15.4163 1412 72.0899 756.224 510.364
2218 0 94.4657 14.4074 1361 72.7414 756.288 510.069
2219 0 93.5828 15.0669 1410 73.239 755.848 504.399
2220 0 97.5781 13.7736 1344 74.5112 755.83 503.467
2221 0 103.61 14.5159 1504 72.6084 756.178 502.624
2222 0 104.466 13.2483 1384 74.2948 755.584 502.915
2223 0 106.517 14.4484 1539 73.2196 755.954 496.849
2224 0 113.392 13.5813 1540 74.0299 756.356 497.427
2225 0 113.6 12.8433 1459 75.2173 756.345 492.306
2226 0 118.661 12.8096 1520 75.0428 756.143 491.822
2227 0 124.386 15.6288 1944 70.5571 756.376 492.931
2228 0 124.762 14.0828 1757 73.4787 756.54 488.254
2229 0 127.451 12.5146 1595 75.6627 756.573 487.826
2230 0 129.8 11.3713 1476 75.9519 756.924 493.438
2231 0 127.896 10.532 1347 76.1411 756.765 496.18
2232 0 127.728 12.0804 1543 74.2644 756.787 496.599
2233 1 72.402 13.3698 968 73.5021 757.131 518.138
2234 0 76.5512 13.6249 1043 73.8255 756.976 514.487
2235 0 80.5886 15.8831 1280 70.1344 756.405 518.449
2236 0 82.4071 13.7852 1136 72.6215 756.636 516.638
2237 0 84.5652 14.6869 1242 71.843 756.652 515.307
2238 0 86.2773 14.3954 1242 73.0958 756.938 511.381
2239 0 89.3847 14.3872 1286 73.5327 756.51 508.644
2240 0 91.2976 14.9073 1361 72.6525 756.713 509.436
2241 0 97.5818 14.7569 1440 72.6486 756.527 505.651
2242 0 99.3498 16.4167 1631 70.382 757.206 506.674
2243 0 101.365 13.407 1359 74.6858 757.169 501.198
2244 0 106.551 14.8004 1577 72.2765 756.796 502.594
2245 0 109.565 13.7636 1508 73.6605 756.916 500.204
2246 0 113.42 14.53 1648 71.9211 757.374 501.075
2247 0 115.495 14.953 1727 71.1459 757.581 502.019
2248 0 119.499 13.5399 1618 73.6422 756.826 494.998
2249 0 126.338 15.0074 1896 70.6229 757.063 498.289
2250 1 63.5776 12.4415 791 73.5499 756.936 521.938
2251 0 67.2923 14.7417 992 71.1966 757.08 521.81
2252 0 68.2354 14.2888 975 71.9908 756.943 520.37
2253 0 70.5843 13.4308 948 71.9304 757.26 520.88
2254 0 71.2833 13.8321 986 72.1937 756.957 519.048
2255 0 76.5421 16.3309 1250 68.7576 756.877 518.532
2256 0 77.5449 16.3131 1265 69.3889 757.408 516.587
2257 0 82.6457 15.028 1242 70.004 757.841 515.18
2258 0 82.4013 15.643 1289 70.1063 757.083 513.449
2259 0 84.7144 13.5514 1148 73.0383 757.013 509.898
2260 0 87.4627 13.7087 1199 72.8757 756.586 509.835
2261 0 91.5836 13.4849 1235 72.6526 756.406 510.352
2262 0 90.509 15.6559 1417 71.0007 757.094 505.094
2263 0 93.417 14.8367 1386 71.7684 757.254 505.258
2264 0 98.4713 14.8266 1460 71.311 756.9 502.995
2265 0 101.467 15.2661 1549 70.4745 757.299 499.839
2266 0 104.602 15.0667 1576 70.7595 757.284 498.452
2267 0 107.649 13.0796 1408 73.6158 756.585 496.491
2268 0 112.695 15.4132 1737 69.8566 757.543 495.443
2269 0 117.396 12.7262 1494 73.7597 756.956 491.309
2270 1 61.3073 13.5873 833 71.1813 757.23 519.914
2271 0 61.5249 12.5315 771 72.7639 757.681 518.464
2272 0 66.3133 13.8886 921 70.7155 757.729 517.785
2273 0 69.4337 14.4454 1003 70.0429 757.286 518.906
2274 0 68.6675 11.6067 797 74.9009 756.952 515.021
2275 0 69.5757 12.49 869 73.9574 756.841 516.384
2276 0 74.5693 13.6383 1017 71.8633 757.155 515.312
2277 0 76.5358 14.3854 1101 71.6939 757.663 510.178
2278 0 78.6979 12.3764 974 74.0821 757.586 510.154
2279 0 78.805 13.3875 1055 73.7308 757.378 509.725
2280 0 82.5703 13.758 1136 73.3495 758.113 509.946
2281 0 87.6537 15.4015 1350 70.5044 758.35 509.847
2282 0 89.6821 15.0197 1347 71.2502 758.091 506.65
2283 0 91.2732 13.6732 1248 73.1971 757.779 502.566
2284 0 94.7731 13.2105 1252 73.6078 757.615 503.109
2285 0 98.4974 13.8582 1365 72.8718 757.067 499.934
2286 0 100.524 13.7679 1384 72.2254 757.234 502.877
2287 0 103.691 14.4371 1497 71.7796 757.699 498.024
2288 0 108.641 15.0403 1634 70.3568 757.782 496.898
2289 0 114.569 15.5627 1783 69.2114 758.249 495.679
2290 0 116.731 14.2636 1665 70.5934 757.496 495.467
2291 0 121.031 14.674 1776 70.2697 757.126 491.723
2292 1 60.7261 11.8071 717 73.569 757.11 519.054
2293 0 62.4324 14.6398 914 70.4683 757.065 519.067
2294 0 64.2841 14.5137 933 71.0836 757.372 515.016
2295 0 69.6774 12.687 884 72.2851 757.397 516.11
2296 0 71.3977 14.9164 1065 69.6667 757.648 516.088
2297 0 70.5693 14.0996 995 71.6523 756.836 515.601
2298 0 75.4711 14.8799 1123 69.7222 758.401 514.802
2299 0 79.396 13.7287 1090 71.0523 758.239 513.015
2300 0 78.5872 13.8318 1087 69.6477 758.119 512.177
2301 0 80.1914 14.5652 1168 69.4666 757.934 511.161
2302 0 86.8358 13.9343 1210 69.3884 757.945 509.202
2303 0 86.5715 13.3069 1152 71.5078 757.726 503.421
2304 0 91.5541 14.8983 1364 68.7705 757.778 507.677
2305 0 94.1555 15.7081 1479 67.9702 756.962 504.523
2306 0 97.3022 13.6585 1329 70.9007 756.812 500.907
2307 0 101.268 17.1624 1738 66.2578 757.832 501.291
2308 0 99.2627 14.6379 1453 69.6752 757.964 501.45
2309 0 109.463 16.3617 1791 66.9218 757.714 500.506
2310 0 111.581 16.8577 1881 66.7719 757.093 494.394
2311 1 54.3028 13.3879 727 68.1307 757.408 524.966
2312 0 52.3747 10.6349 557 75.4829 757.221 520.373
2313 0 54.5612 10.3553 565 74.9681 756.952 521.871
2314 0 59.4346 14.1164 839 68.8808 757.316 524.298
2315 0 60.4181 15.8231 956 67.8808 757.496 523.133
2316 0 59.3497 15.4171 915 69.2481 757.224 522.341
2317 0 65.5488 15.3473 1006 68.3052 757.505 522.231
2318 0 67.5097 14.1757 957 69.9122 757.416 521.365
2319 0 67.2776 14.2395 958 71.4165 757.507 515.351
2320 0 70.5205 13.4429 948 72.2985 757.326 515.999
2321 0 74.3709 16.3639 1217 68.18 757.589 517.25
2322 0 73.2193 16.2252 1188 69.5387 757.964 514.775
2323 0 76.5398 14.1756 1085 72.3714 757.437 513.159
2324 0 73.3335 13.5272 992 74.9536 757.523 508.632
2325 0 80.3543 15.2699 1227 71.2926 757.813 509.683
2326 0 83.4547 14.1154 1178 72.4117 757.23 510.243
2327 0 89.45 15.1258 1353 70.3126 757.797 510.97
2328 0 90.4702 14.9552 1353 72.1345 757.579 505.825
2329 0 88.4885 13.6402 1207 74.7407 757.157 502.249
2330 0 95.41 15.3338 1463 70.6678 757.878 506.764
2331 0 96.3508 14.7586 1422 72.5844 757.489 500.912
2332 0 101.22 14.9476 1513 72.1097 757.859 498.822
2333 0 108.518 15.4537 1677 70.0936 757.66 502.713
2334 0 111.478 15.5098 1729 70.5587 758.362 498.397
2335 1 56.1342 14.0556 789 70.6426 758.326 523.844
2336 0 57.5592 14.9759 862 69.5777 757.287 524.682
2337 0 57.2928 12.3925 710 74.2507 757.427 522.034
2338 0 59.5194 12.3153 733 75.3588 758.333 519.28
2339 0 61.3031 14.9911 919 70.4831 758.45 523.21
2340 0 62.4854 13.6032 850 72.8871 758.044 521.139
2341 0 66.4147 14.6203 971 72.069 757.76 518.928
2342 0 66.3034 14.6146 969 72.3767 757.346 520.088
2343 0 69.5656 14.1593 985 73.5452 757.755 516.813
2344 0 67.4526 15.6851 1058 72.8554 758.169 516.376
2345 0 72.2301 14.6061 1055 72.0313 757.495 520.227
2346 0 75.1767 15.0579 1132 72.2191 757.523 516.925
2347 0 75.4145 14.5463 1097 73.5916 757.647 515.792
2348 0 80.3763 15.9126 1279 71.2009 758.167 514.914
2349 0 80.1308 12.8789 1032 76.6531 757.137 509.169
2350 0 84.1901 16.5934 1397 63.7946 758.079 510.621
2351 0 86.3535 15.6913 1355 64.2059 758.537 508.196
2352 0 86.3407 13.8521 1196 66.2199 757.202 508.743
2353 0 90.4237 14.4874 1310 65.4542 758.009 504.372
2354 0 88.1771 16.7731 1479 63.6964 757.834 505.905
2355 0 92.3396 12.7139 1174 68.4284 758.021 500.62
2356 0 99.5274 15.5435 1547 64.4066 757.608 500.643
2357 0 103.289 15.8196 1634 64.0214 757.95 501.569
2358 0 102.561 14.7716 1515 65.8238 758.616 496.929
2359 0 103.213 14.9594 1544 66.1244 757.519 494.428
2360 1 54.1485 13.7585 745 61.6778 758.074 525.89
2361 0 50.5796 13.6419 690 65.0681 758.038 521.683
2362 0 56.1228 16.4639 924 61.3777 757.678 523.064
2363 0 57.1738 15.2867 874 63.9702 757.391 517.635
2364 0 61.243 12.132 743 65.7201 757.052 520.804
2365 0 60.1687 13.4455 809 66.3028 758.614 514.96
2366 0 59.173 16.0039 947 64.2154 758.322 516.599
2367 0 60.0917 16.3417 982 63.6914 757.411 517.255
2368 0 62.2009 13.5529 843 66.8992 757.094 514.635
2369 0 63.0795 12.4605 786 67.8753 757.709 513.431
2370 0 60.1395 13.7846 829 68.0048 757.324 509.887
2371 0 65.1168 14.7427 960 65.851 758.216 512.408
2372 0 63.0962 15.0881 952 66.2437 757.948 511.878
2373 0 66.109 14.9299 987 66.7082 757.719 510.075
2374 0 70.4016 15.9797 1125 64.6667 757.87 507.245
2375 0 74.3045 15.5172 1153 64.6253 757.084 508.072
2376 0 78.247 15.1444 1185 64.6608 757.392 507.794
2377 0 78.1356 14.2061 1110 66.136 758.281 504.1
2378 0 82.192 16.5466 1360 63.3956 758.32 503.28
2379 0 83.3067 17.1895 1432 63.0957 758.46 502.776
2380 0 84.2723 15.616 1316 64.9605 758.15 500.873
2381 0 89.1736 14.612 1303 64.9125 757.718 500.516
2382 0 98.6501 15.0735 1487 63.5326 757.91 500.833
2383 0 96.1649 15.8582 1525 63.7502 757.86 493.33
2384 1 106.999 14.3834 1539 63.5672 757.658 496.35
2385 0 102.446 15.003 1537 63.8686 757.671 494.236
2386 0 104.102 13.5636 1412 65.6353 757.824 491.418
2387 0 110.382 13.9787 1543 64.0292 758.526 493.408
2388 0 112.25 16.0712 1804 62.8348 757.971 489.258
2389 1 60.229 13.266 799 62.1802 758.404 516.544
2390 0 60.3217 14.058 848 62.1191 759.573 515.415
2391 0 57.0626 14.1774 809 61.9938 759.529 517.357
2392 0 59.522 12.8692 766 64.5313 758.718 514.351
2393 0 61.0822 13.6701 835 64.1413 759.818 513.123
2394 1 1 3 3 62.6667 761 477.667
2395 1 62.1706 14.6854 913 64.5663 759.933 509.944
2396 0 65.3335 15.3214 1001 63.3496 760.387 509.896
2397 0 71.1038 14.6124 1039 62.7729 759.252 509.987
2398 0 65.2601 14.4346 942 64.7208 759.78 509.454
2399 0 71.3479 14.9969 1070 63.9738 760.105 507.865
2400 0 74.2202 12.0452 894 66.2774 759.275 507.625
2401 0 73.1903 14.7834 1082 64.9381 759.056 504.872
2402 0 78.2711 14.2454 1115 64.617 759.799 504.645
2403 0 74.3347 15.9818 1188 64.0455 759.818 500.36
2404 0 80.347 16.1176 1295 62.8263 760.1 504.697
2405 0 80.2348 15.7538 1264 64.0997 760.239 502.378
2406 0 86.1698 15.6667 1350 63.3282 759.524 503.864
2407 0 84.2333 16.3949 1381 63.7741 759.109 500.205
2408 0 93.5056 15.5178 1451 63.0965 759.166 503.493
2409 0 92.3087 15.6757 1447 63.9468 759.44 496.233
2410 0 97.6738 16.8111 1642 62.19 759.202 497.961
2411 0 99.8412 14.9538 1493 64.2217 759.2 495.989
2412 0 104.737 15.601 1634 63.8048 759.47 495.23
2413 0 103.25 15.4963 1600 65.0494 759.043 490.521
2414 0 110.462 14.3759 1588 65.4452 759.231 490.372
2415 0 113.432 14.1759 1608 66.6007 759.073 487.726
2416 0 117.47 15.4082 1810 65.3304 759.677 487.886
2417 0 118.678 13.4481 1596 66.2362 759.137 488.439
2418 0 122.195 15.3034 1870 65.154 759.177 483.449
2419 0 129.538 12.6527 1639 67.2837 759.266 484.636
2420 0 133.863 15.5981 2088 65.5503 759.209 480.414
2421 0 137.662 14.0271 1931 66.9601 759.664 480.721
2422 0 138.247 14.2137 1965 67.5476 759.628 478.54
2423 0 145.611 16.0496 2337 65.7852 759.567 476.042
2424 0 152.402 16.1218 2457 65.4074 758.741 472.139
2425 0 160.042 12.5529 2009 68.2822 759.759 473.641
2426 0 160.601 14.1842 2278 68.0869 759.066 463.821
2427 0 157.248 13.3674 2102 69.666 758.775 463.383
2428 0 165.63 13.4335 2225 70.0436 759.039 456.564
2429 0 170.107 10.6874 1818 72.5302 759.225 459.635
2430 0 174.378 13.0808 2281 71.0522 759.318 448.943
2431 0 181.61 12.0753 2193 72.3548 757.954 455.153
2432 0 186.52 13.9127 2595 71.296 758.502 450.717
2433 0 190.378 13.3997 2551 72.3759 758.096 443.929
2434 1 150.269 14.321 2152 69.507 758.581 481.361
2435 0 148.821 14.8635 2212 70.4892 758.512 478.226
2436 0 150.191 15.68 2355 70.2616 758.767 477.323
2437 0 152.743 14.8223 2264 72.0676 759.34 473.344
2438 0 153.839 16.9918 2614 70.2544 759.57 472.172
2439 0 160.706 15.5253 2495 72.4469 759.269 470.667
2440 0 162.831 15.5499 2532 73.2547 759.038 469.019
2441 0 166.755 14.9621 2495 74.2621 758.224 468.745
2442 0 170.969 16.892 2888 72.9505 758.643 464.349
2443 0 176.894 15.7609 2788 74.0929 759.009 463.566
2444 0 177.576 15.5933 2769 75.6385 758.391 458.068
2445 0 182.006 13.8237 2516 76.8136 758.566 466.55
2446 0 191.847 16.2786 3123 74.3525 758.755 466.155
2447 1 341.24 15.0656 5141 75.49 757.994 402.715
2448 1 300.646 19.9204 5989 70.2019 757.956 402.586
2449 0 307.132 23.6999 7279 60.6238 758.101 396.17
2450 0 308.838 23.3456 7210 60.4318 758.081 395.35
2451 0 317.108 25.5213 8093 57.913 758.374 382.898
2452 0 328.845 23.5795 7754 59.6098 758.589 385.78
2453 1 236.075 17.5156 4135 75.2179 757.506 433.313
2454 1 152.615 14.376 2194 78.9991 758.454 476.322
2455 0 160.618 15.9883 2568 76.2309 758.858 476.648
2456 0 163.671 14.9385 2445 77.9022 758.285 473.812
2457 0 168.49 15.3422 2585 77.5358 757.721 470.744
2458 0 174.506 14.4522 2522 79.0044 758.466 466.251
2459 0 179.604 15.0219 2698 78.6805 758.483 462.64
2460 0 185.885 14.9609 2781 79.6728 758.278 458.879
2461 0 192.706 14.9191 2875 79.911 758.968 456.721
2462 0 194.83 14.5666 2838 80.8978 758.678 455.311
2463 1 135.209 15.9086 2151 78.0786 758.546 482.188
2464 0 139.066 14.2954 1988 82.3929 758.558 479.15
2465 0 143.065 15.9998 2289 80.0778 758.581 477.627
2466 0 146.794 14.3058 2100 82.6357 758.281 474.412
2467 0 150.823 14.0363 2117 82.9915 758.53 468.938
2468 0 154.686 14.9206 2308 83.3211 758.287 464.286
2469 0 159.623 16.4011 2618 80.9946 757.723 469.532
2470 0 159.642 13.5992 2171 85.9475 758.129 467.337
2471 0 166.566 13.8984 2315 85.9404 759.119 462.588
2472 1 177.686 12.7641 2268 87.7143 758.677 468.838
2473 0 178.909 13.3811 2394 87.6287 758.758 461.559
2474 0 172.559 13.9257 2403 89.5718 758.072 457.008
2475 0 180.667 14.7952 2673 87.4149 759.378 455.893
2476 0 185.629 15.6495 2905 85.988 758.782 452.685
2477 0 192.548 14.2977 2753 87.8707 758.077 450.556
2478 0 195.642 15.2421 2982 87.332 758.758 446.63
2479 0 205.885 15.2804 3146 86.1732 758.612 446.613
2480 1 216.955 15.1276 3282 86.4842 758.928 443.977
2481 0 222.011 13.9948 3107 87.8352 759.17 444.283
2482 0 228.776 16.0156 3664 85.3335 759.199 435.585
2483 0 236.86 15.9292 3773 84.7503 759.232 433.155
2484 0 241.856 15.1702 3669 86.8992 758.6 431.121
2485 0 248.729 15.0244 3737 87.9553 758.848 425.428
2486 0 247.337 17.365 4295 86.5448 758.746 425.885
2487 1 165.363 15.2875 2528 71.2286 758.954 460.639
2488 0 165.629 13.8744 2298 67.4473 759.024 456.457
2489 0 161.438 9.08706 1467 68.2263 758.78 456.826
2490 0 158.292 8.29477 1313 58.9909 759.317 463.148
2491 1 250.412 7.11228 1781 77.4374 758.435 382.212
2492 1 95.2831 14.3572 1368 89.9715 757.609 326.324
2493 1 45.0753 13.8879 626 85.5815 758.262 350.599
2494 0 47.0616 11.3681 535 88.572 758.236 351.622
2495 0 47.0806 12.468 587 89.0647 758.388 350.278
2496 0 48.0582 12.8178 616 88.1932 758.133 349.356
2497 0 50.0676 12.3433 618 88.0712 757.558 351.168
2498 0 52.0968 13.4365 700 86.1143 758.24 350.913
2499 0 53.0698 10.0057 531 91.2938 758.119 350.725
2500 0 56.0395 13.7225 769 84.5579 757.6 349.927
