time division length width area intensity CMx CMy
0 0 36.2373 11.2867 409 66.8509 81.291 517.027
1 0 38.1338 11.145 425 66.0682 80.9553 518.391
2 0 38.1673 10.585 404 67.5891 81.2426 517.507
3 0 39.0647 11.3402 443 66.3567 81.167 517.253
4 0 40.1018 11.2464 451 65.6541 80.3503 518.084
5 0 42.0621 12.1012 509 65.2731 80.8978 516.299
6 0 41.1157 10.2637 422 68.1114 80.718 516.886
7 0 46.1212 10.7109 494 66.2652 80.1964 517.253
8 0 46.0234 12.863 592 63.9645 80.0152 516.807
9 0 48.0936 13.0579 628 63.6656 80.785 516.916
10 0 49.1935 13.5994 669 63.4813 80.0628 515.599
11 0 49.022 13.3002 652 64.2929 80.3497 515.008
12 0 49.1988 12.7849 629 65.9332 80.2576 514.405
13 0 51.0248 12.151 620 66.9468 80.1242 513.174
14 0 53.1534 12.6991 675 66.2682 79.1407 514.587
15 0 54.0855 13.1459 711 66.0633 79.7482 515.745
16 0 55.0737 14.0357 773 65.6598 79.7581 514.789
17 0 56.1045 14.0452 788 66.0508 79.4987 514.005
18 0 58.0545 15.0204 872 65.2729 79.5608 512.836
19 0 59.0647 12.918 763 69.0013 79.2883 511.912
20 0 60.08 13.1158 788 68.8553 79.7855 513.386
21 0 63.1587 13.3473 843 70.949 79.4342 511.35
22 0 65.0905 13.873 903 68.3212 79.7996 510.117
23 0 66.1812 13.6595 904 69.7046 79.7024 507.72
24 0 68.1195 15.8692 1081 67.2831 80.1933 507.204
25 0 67.1423 13.449 903 71.9889 80.0576 508.175
26 0 74.0557 12.7202 942 72.31 80.2399 507.883
27 0 73.1446 14.3141 1047 71.6294 80.0955 507.048
28 0 74.1956 13.6396 1012 73.1018 79.9368 507.767
29 0 75.0897 14.2496 1070 72.6505 80.2579 509.069
30 0 79.1586 12.0644 955 77.2052 79.8775 506.15
31 0 78.272 12.8909 1009 76.7849 80.7919 505.114
32 0 79.1742 12.7946 1013 77.1046 79.9704 505.646
33 0 81.0815 12.1729 987 78.7315 80.4721 505.343
34 0 86.1368 14.2332 1226 76.2162 81.6142 502.563
35 0 86.1692 13.8913 1197 77.5614 81.6892 501.31
36 0 89.1494 12.4959 1114 79.7864 81.7406 501.517
37 0 93.1364 14.0224 1306 77.1554 81.438 499.451
38 0 94.1555 12.6493 1191 80.78 81.9463 497.497
39 0 96.146 12.8242 1233 79.6886 81.2506 498.571
40 1 49.1423 12.1891 599 79.8982 81.8214 520.002
41 0 53.0679 12.7949 679 78.5552 81.5596 518.881
42 0 54.0759 12.7229 688 78.984 81.7616 520.282
43 0 54.1033 13.5297 732 79.7118 82.1243 516.366
44 0 55.0824 11.9276 657 82.0974 81.8067 516.95
45 0 57.109 12.5724 718 81.0446 81.7465 515.776
46 0 61.0746 12.8531 785 80.5299 81.7898 514.135
47 0 64.0796 12.8902 826 79.4528 81.8632 514.085
48 0 65.0945 12.5817 819 80.7228 82.4652 513.38
49 0 68.0933 13.085 891 79.248 81.9057 514.718
50 0 67.0896 11.9244 800 82.9588 81.7988 512.494
51 0 71.069 12.7904 909 82.0033 82.286 510.252
52 0 72.096 12.6082 909 80.3696 81.5611 512.373
53 0 76.109 12.6923 966 81.1046 81.8665 509.84
54 0 76.1212 12.283 935 83.1198 81.9572 507.981
55 0 80.1731 13.7078 1099 80.9672 81.899 505.733
56 0 80.1274 12.7422 1021 83.3996 82.1146 504.681
57 0 82.0909 11.8405 972 84.9126 82.4393 505.033
58 1 42.0493 11.6054 488 83.6721 81.6742 523.461
59 0 44.064 12.7542 562 80.5427 81.9288 522.155
60 0 45.0586 11.94 538 82.4721 81.803 521.428
61 0 46.0417 13.1185 604 80.3891 81.7318 521.672
62 0 47.0812 11.0023 518 84.1409 81.9575 522.195
63 0 51.106 12.7382 651 80.467 81.2673 521.194
64 0 50.0613 12.7444 638 81.4091 81.6332 520.033
65 0 49.0823 11.3483 557 84.5781 82.009 519.975
66 0 54.0921 11.9611 647 82.7218 81.4853 518.368
67 0 56.0842 13.3193 747 80.1714 81.9759 517.103
68 0 58.076 12.5009 726 82.0358 81.7369 516.882
69 0 58.1108 13.7152 797 80.8043 81.872 514.913
70 0 59.0891 13.285 785 81.3006 82.0382 515.423
71 0 62.1334 13.294 826 81.0194 81.5835 513.429
72 0 66.2293 13.6345 903 79.8538 82.0709 512.419
73 0 67.0382 12.4407 834 81.566 81.8201 511.204
74 0 70.0571 13.489 945 79.3915 81.4053 510.39
75 0 72.1164 12.771 921 80.2877 81.2812 508.917
76 0 72.1248 12.7279 918 81.7996 81.6449 506.684
77 0 75.1467 13.1476 988 81.086 81.2976 504.853
78 0 81.1188 13.2398 1074 81.2449 80.9097 503.638
79 0 82.1261 14.222 1168 78.4769 81.53 503.318
80 1 40.0532 10.9604 439 81.2574 81.4579 522.784
81 0 41.0481 11.8885 488 79.6988 81.6414 522.072
82 0 43.0891 12.625 544 78.875 81.9559 522.511
83 0 42.1178 10.993 463 82.5616 82.216 521.536
84 0 44.0715 12.6612 558 79.629 81.4946 520.434
85 0 45.0556 11.5413 520 81.0115 81.7519 520.819
86 0 45.1229 11.8122 533 81.1144 81.8837 519.897
87 0 48.0432 12.6137 606 79.6551 82.8267 518.733
88 0 49.0684 12.0036 589 80.0289 81.8319 518.723
89 0 49.056 11.4971 564 81.9362 82.1472 517.2
90 0 52.0433 12.2974 640 79.2141 82.2234 517.258
91 0 52.0809 12.0006 625 80.0784 82.8208 517.683
92 0 54.1471 12.4476 674 78.819 82.322 516.025
93 0 55.1637 12.2363 675 79.6341 82.2815 513.151
94 0 57.0815 13.5245 772 77.5194 82.5181 512.591
95 0 60.164 12.5656 756 77.4841 82.668 513.139
96 0 63.1309 13.3532 843 76.2479 82.7236 512.363
97 0 64.0674 13.3297 854 76.1042 82.3946 512.334
98 0 64.1607 11.9232 765 78.5869 82.5098 512.544
99 0 67.1956 11.9502 803 78.4757 81.6949 512.03
100 0 69.1081 11.7931 815 79.6614 82.4123 506.319
101 0 71.0967 14.1497 1006 76.2256 82.5268 505.4
102 0 73.069 11.5644 845 80.3657 82.0793 505.264
103 0 76.1423 11.4654 873 79.4055 82.8717 504.422
104 0 78.223 12.3621 967 78.4043 83.2048 504.094
105 0 81.2283 12.114 984 79.313 82.3841 501.66
106 1 43.1921 11.2521 486 77.8601 81.7696 519.926
107 0 43.1459 11.8435 511 76.5245 82.3072 520.382
108 0 45.0862 12.1988 550 75.8782 82.0691 519.698
109 0 45.0871 12.5757 567 75.806 82.4921 518.228
110 0 48.1768 11.5201 555 75.636 82.5874 518.868
111 0 51.1128 13.4409 687 72.7482 82.3581 515.879
112 0 50.0753 13.1801 660 74.8258 82.2015 515.071
113 0 53.1025 12.5418 666 74.3694 82.4414 514.252
114 0 54.066 12.2443 662 75.4592 82.4411 512.663
115 0 53.1681 12.3194 655 76.1695 82.0565 511.939
116 0 56.0991 12.264 688 75.7296 82.2427 510.76
117 0 59.1388 12.1409 718 75.2382 82.6755 509.695
118 0 60.065 11.7872 708 75.3432 82.8305 509.6
119 0 62.1133 11.9298 741 74.6937 82.4642 508.285
120 0 65.2855 12.9738 847 72.1511 82.7615 508.293
121 0 66.1765 10.5324 697 76.0502 82.8149 506.113
122 0 68.3164 11.8127 807 73.8736 81.6258 504.576
123 0 71.3084 12.4109 885 72.322 82.696 503.437
124 0 73.3472 12.8294 941 71.3613 82.5866 501.769
125 0 76.2313 13.5509 1033 70.4134 82.4124 501.565
126 1 37.2027 11.0476 411 72.6131 82.1265 519.209
127 0 37.1178 10.5071 390 74.8128 82.5846 518.097
128 0 39.1921 11.1502 437 71.5286 82.1716 519.158
129 0 41.1603 10.6656 439 74.2597 81.8952 515.727
130 0 43.1355 11.3364 489 72.5337 81.7648 516.37
131 0 45.1162 11.5701 522 71.7663 82.0211 516.105
132 0 46.104 11.5608 533 71.4372 81.3827 513.191
133 0 47.24 10.8383 512 72.7695 81.0254 514.496
134 0 48.2146 11.0755 534 72.2472 81.7603 513.708
135 0 48.1655 12.1041 583 71.3208 82.8388 512.926
136 0 51.1459 12.3373 631 71.1363 82.168 510.398
137 0 53.3036 12.5132 667 70.6627 82.5967 510.327
138 0 55.2314 12.7464 704 69.3693 82.7074 511.75
139 0 55.132 11.6266 641 72.0562 82.5195 510.398
140 0 59.0756 12.5432 741 70 82.2416 509.274
141 0 60.2375 13.48 812 68.9594 82.5714 507.835
142 0 62.135 11.7808 732 71.2049 83.0792 505.971
143 0 64.1282 11.7265 752 70.5665 82.8444 506.149
144 0 66.3765 11.5101 764 70.9764 83.2173 504.465
145 0 68.2751 12.3911 846 70.5993 82.6099 500.525
146 0 71.1974 12.4583 887 69.9177 83.1398 503.722
147 0 71.2302 12.5228 892 70.9877 83.2478 502.354
148 0 76.2298 13.42 1023 69.1241 82.8475 500.111
149 0 79.2308 13.0379 1033 69.638 83.4831 498.362
150 0 80.3022 12.7518 1024 70.2764 85.2461 497.726
151 0 83.1363 11.9082 990 71.6232 84.4919 496.701
152 1 42.1758 10.9541 462 72.1732 84.5498 514.71
153 0 44.1749 10.8885 481 71.6653 84.341 515.584
154 0 45.1644 12.3106 556 70.9011 83.4802 513.401
155 0 47.2395 11.791 557 71.1436 84.1831 512.063
156 0 49.1966 12.2773 604 70.6573 84.0083 512.189
157 0 49.0437 10.8475 532 73.4023 84.0357 511.788
158 0 51.109 13.5592 693 68.0029 83.3189 511.248
159 0 52.073 12.1368 632 71.1788 83.0206 509.823
160 0 54.2136 13.2439 718 68.9067 84.085 508.141
161 0 57.065 13.6336 778 67.9807 83.2494 508.186
162 0 58.4266 11.5872 677 70.5554 82.356 507.301
163 0 58.2076 12.8334 747 69.759 82.838 505.382
164 0 60.1646 11.8342 712 70.8652 83.3511 504.56
165 0 63.1558 13.7913 871 67.3571 83.4845 503.715
166 0 63.1197 11.898 751 70.3688 82.9734 502.57
167 0 65.177 12.443 811 69.3539 83.201 502.943
168 0 68.2395 12.8225 875 67.9497 83.3223 502.669
169 0 70.2779 12.2798 863 69.4172 83.1576 498.59
170 0 72.3015 12.7798 924 68.6006 83.145 498.325
171 0 74.2981 10.7674 800 70.5825 83.4538 498.569
172 0 77.157 12.0922 933 68.8532 82.8392 496.376
173 0 82.1449 12.9771 1066 67.3743 83.0131 494.538
174 0 85.1646 12.1764 1037 67.9884 83.5844 494.112
175 0 86.1861 12.7399 1098 68.0601 83.6184 490.255
176 0 88.1496 12.0137 1059 68.6978 83.7252 490.625
177 1 46.2511 11.1997 518 67.3629 83.2838 511.112
178 0 48.1516 13.0629 629 65.1908 83.7329 509.429
179 0 49.1398 11.4164 561 67.2335 83.4635 509.153
180 0 50.1051 11.9349 598 66.4933 82.2442 511.134
181 0 52.0764 12.04 627 66.984 82.3828 508.38
182 0 52.1653 12.2495 639 67.2019 81.7058 507.682
183 0 54.1366 11.3786 616 68.9529 81.4188 506.42
184 0 56.025 12.4944 700 66.6243 81.7086 506.999
185 0 58.0968 13.5636 788 65.1396 81.0317 506.997
186 0 59.0681 12.6295 746 67.2279 81.3324 503.824
187 0 61.1489 11.9544 731 67.6772 81.2107 504.005
188 0 66.2635 10.7601 713 68.2146 81.1683 504.125
189 0 66.1452 12.8203 848 66.0731 79.658 503.58
190 0 67.157 12.6271 848 66.8608 79.8715 502.936
191 0 70.174 11.9132 836 68.0957 79.5598 500.897
192 0 72.2366 11.4346 826 68.8789 79.2942 500.05
193 0 74.1829 12.1187 899 68.2403 79.703 498.364
194 0 75.1569 12.4673 937 67.8901 79.8111 498.195
195 0 81.3603 11.9469 972 67.7551 79.5689 498.594
196 1 40.0696 9.63324 386 68.0181 79.2694 518.948
197 0 41.0912 9.34507 384 67.2708 79.987 520.982
198 0 42.1681 9.79413 413 67.9298 79.2978 519.441
199 0 43.0718 11.0977 478 67.2448 78.4665 518.243
200 0 43.1655 10.0543 434 68.9562 78.9378 518.154
201 0 46.0998 10.3037 475 68.1495 79.0884 518.408
202 0 46.209 11.0801 512 67.5488 79.0215 517.971
203 0 48.1256 10.5765 509 68.057 78.8782 515.86
204 0 51.1197 11.6785 597 66.2278 78.3819 516.68
205 0 51.1697 11.5498 591 66.269 78.3706 516.638
206 0 53.1212 12.1797 647 65.5811 78.0201 515.012
207 0 55.0707 12.5657 692 65.0795 78.7919 515.01
208 0 56.1385 11.8279 664 66.5557 78.3298 513.42
209 0 58.1657 12.8598 748 65.1805 78.4652 512.913
210 0 58.0765 11.02 640 67.8359 78.8688 512.584
211 0 60.0285 11.1114 667 67.9295 78.2594 512.006
212 0 63.1005 12.6623 799 65.4994 77.8811 511.678
213 0 64.1719 11.812 758 66.3245 77.3865 512.368
214 0 66.2125 11.5386 764 67.4686 77.644 511.381
215 0 68.1102 13.1258 894 65.3143 76.9966 510.187
216 0 69.1391 11.2961 781 68.0218 77.0743 508.821
217 0 75.0748 11.8682 891 66.578 76.5062 507.856
218 1 36.0734 9.36978 338 65.6302 75.9142 527.612
219 0 38.0623 10.7455 409 64.6675 75.7653 525.775
220 0 39.0921 9.00437 352 68.267 76.1449 523.102
221 0 38.0355 9.62259 366 68.2322 76.1557 521.587
222 0 40.0843 10.2534 411 67.4331 75.7445 522.839
223 0 44.0324 11.6051 511 64.5088 75.9785 522.432
224 0 42.0932 11.1419 469 66.3539 75.9296 520.757
225 0 45.1473 11.6729 527 65.3814 76.2429 519.833
226 0 46.1527 12.3936 572 63.9878 76.271 518.79
227 0 46.0931 12.1059 558 65.0502 76.2079 517.599
228 0 44.0329 11.4006 502 68.1255 76.0777 514.876
229 0 50.041 12.2899 615 64.6537 76.3984 516.572
230 0 50.0552 11.0078 551 66.9328 76.3938 514.882
231 0 52.056 11.2955 588 65.9966 76.5 515.701
232 0 52.0403 12.5095 651 64.9724 76.4209 514.524
233 0 54.0766 11.6316 629 66.4118 76.876 511.876
234 0 57.0514 12.3573 705 64.8681 76.4652 512.638
235 0 57.0952 11.6997 668 66.5359 75.738 510.624
236 0 59.087 12.1177 716 66.0251 76.2039 508.983
237 0 61.1427 11.7594 719 65.9221 76.751 508.541
238 0 63.0838 12.0792 762 65.0131 75.8543 508.388
239 0 65.1322 10.7167 698 66.9011 76.9341 508.976
240 0 65.2032 12.6834 827 65.6046 77.4051 507.948
241 0 66.092 12.1346 802 67.0399 77.6135 503.782
242 0 72.1986 13.3521 964 64.3351 77.1919 503.313
243 0 73.1564 12.7945 936 65.7949 77.328 502.099
244 1 37.0896 11.6744 433 64.7575 77.3949 521.048
245 0 37.1116 11.1286 413 66.6876 77.661 519.138
246 0 38.1474 9.41086 359 68.5682 78.0585 520.563
247 0 40.1469 11.2836 453 66.6049 77.7815 518.664
248 0 38.1826 11.314 432 68.4028 78.0394 517.155
249 0 42.1518 11.079 467 67.7366 78.5589 518.612
250 0 42.1151 11.5636 487 67.9322 78.0308 516.982
251 0 44.1607 10.6429 470 67.9255 77.6383 519.081
252 0 45.1503 9.5902 433 70.1686 77.3349 516.483
253 0 49.0961 12.7709 627 64.6986 78.1372 517.777
254 0 47.118 11.312 533 67.8987 77.8405 516.782
255 0 49.1798 10.8174 532 67.9925 77.9041 517.635
256 0 51.1341 12.5748 643 65.1586 77.9191 517.056
257 0 51.236 11.086 568 67.8521 77.5334 515.79
258 0 54.1874 11.9031 645 66.9892 78.3845 514.721
259 0 57.0753 12.2995 702 65.8405 78.1482 514.923
260 0 57.2356 11.3915 652 67.2209 78.0383 513.84
261 0 58.0928 10.9136 634 68.6372 77.7713 512.678
262 0 60.1552 10.5893 637 69.1805 77.7284 512.502
263 0 60.2274 10.7094 645 69.5039 77.338 511.806
264 0 64.1697 12.3734 794 66.6662 77.4635 510.938
265 0 68.1352 11.4331 779 67.8626 77.3646 509.543
266 1 33.1137 8.60672 285 69.7333 77.0421 524.965
267 0 33.0312 9.47589 313 68.9904 77.2684 524.885
268 0 34.0891 9.68052 330 69.9424 76.7939 524.736
269 0 38.0566 12.6128 480 65.3583 76.8458 524.025
270 0 39.0815 11.5144 450 66.22 76.8467 523.898
271 0 39.1371 12.4179 486 66.5802 76.2984 521.412
272 0 40.1073 12.292 493 66.8905 76.6491 520.304
273 0 39.1147 10.3542 405 69.6667 75.9728 521.101
274 0 40.0948 11.7222 470 68.083 75.634 520.817
275 0 44.1441 12.1421 536 66.6493 75.8134 519.437
276 0 44.1017 12.1764 537 67.2179 75.5009 518.115
277 0 46.0807 11.2194 517 68.5106 75.7698 518.609
278 0 46.0963 11.0638 510 68.2706 75.551 519.626
279 0 48.0943 11.7685 566 68.2014 75.5353 518.744
280 0 51.1421 12.651 647 66.4142 75.6012 518.988
281 0 53.2278 12.4747 664 66.1732 75.1837 519.768
282 0 54.108 13.1774 713 66.359 75.4123 518.987
283 0 54.1913 12.3083 667 68.9026 75.8066 516.163
284 0 54.0416 10.9545 592 71.1149 75.2922 514.458
285 0 56.1016 12.3348 692 68.5766 74.724 514.179
286 0 60.1373 13.1034 788 66.6396 74.1561 514.683
287 0 60.1281 12.2239 735 68.5061 74.4952 512.959
288 0 62.0528 10.6844 663 70.3379 74.7828 512.009
289 0 65.0958 12.3357 803 67.6675 74.6526 511.438
290 0 65.1233 11.7623 766 68.5535 73.9099 512.078
291 0 67.1372 11.5137 773 69.2523 74.1475 510.855
292 0 71.0622 12.2569 871 67.4363 74.1952 510.65
293 0 69.1596 11.8277 818 69.4584 74.7213 509.16
294 1 39.0804 11.2844 441 66.8254 75.0023 525.422
295 0 40.054 11.6343 466 66.8584 75.3348 523.749
296 0 42.2066 10.7329 453 66.8653 75.7285 523.121
297 0 40.0954 11.3978 457 67.0547 75.0547 521.519
298 0 43.1172 11.7123 505 66.2772 75.1822 520.931
299 0 45.1616 11.5806 523 65.9101 74.8987 519.989
300 0 46.1496 12.5028 577 64.8284 75.1716 519.362
301 0 48.1757 11.8524 571 65.9405 75.2452 518.247
302 0 47.2329 10.8822 514 68.179 74.6226 516.65
303 0 49.1376 10.6639 524 67.645 74.5248 517.969
304 0 53.1601 11.7569 625 65.712 74.5696 516.118
305 0 53.2447 11.5692 616 66.0812 75.1834 514.885
306 0 53.0485 12.7431 676 65.6228 75.0562 515.336
307 0 54.2088 10.6071 575 67.5078 74.3391 513.904
308 0 54.2653 11.6649 633 66.8057 74.6746 514.126
309 0 57.2888 11.0144 631 67.9128 74.3994 513.892
310 0 60.1532 12.5347 754 64.3899 74.5345 514.416
311 0 59.1573 10.5989 627 67.7496 75.0223 512.041
312 0 63.2834 11.567 732 66.459 75.0492 508.306
313 0 65.1416 12.6954 827 64.7606 75.4196 506.97
314 0 69.2335 11.5118 797 65.8908 74.9247 507.982
315 0 68.1748 11.4852 783 66.4202 74.1009 503.941
316 0 72.091 10.3619 747 66.6667 74.4699 509.116
317 0 74.2238 11.8964 883 65.6659 74.9468 504.388
318 0 78.1176 12.0971 945 65.1936 74.2751 503.293
319 0 77.1901 11.2579 869 66.8688 74.8458 502.549
320 0 83.1629 10.7019 890 67.1191 74.9281 502.239
321 1 43.168 10.934 472 66.3602 74.6737 520.07
322 0 45.0657 11.2946 509 66.0059 75.1081 519.652
323 0 45.128 11.1904 505 66.4277 74.7683 518.677
324 0 49.1426 12.4129 610 64.6869 74.9885 517.967
325 0 50.1349 12.1472 609 65.4007 74.7865 517.179
326 0 52.1833 11.3446 592 66.8666 75.3091 514.87
327 0 52.2656 11.0206 576 67.9288 74.6354 514.632
328 0 55.1766 11.6354 642 66.6745 74.9626 514.969
329 0 54.1522 11.6339 630 67.9841 74.6413 515.694
330 0 59.0762 11.409 674 67.6869 74.4436 514.378
331 0 59.1819 12.6897 751 67.237 74.9321 511.676
332 0 60.2597 11.9151 718 68.7214 75.2577 510.231
333 0 63.1856 11.7748 744 67.2675 74.6263 513.089
334 0 65.0867 11.7843 767 67.9478 74.8814 507.446
335 0 66.315 12.1692 807 67.5043 75.5898 510.829
336 0 69.2306 13.8667 960 65.0667 74.7333 507.811
337 0 69.2009 10.8814 753 70.2829 74.9854 503.703
338 0 74.1237 12.5466 930 67.972 74.7333 504.463
339 0 76.2019 12.2438 933 68.1726 75.3366 503.398
340 0 80.236 12.3012 987 67.7832 74.9179 504.052
341 1 40.1231 9.745 391 68.8926 74.5269 522.233
342 0 39.1464 11.5208 451 67.235 74.4678 521.43
343 0 43.2261 10.2716 444 68.9752 74.527 518.865
344 0 42.3417 9.84844 417 70.0815 74.3909 519.564
345 0 44.2671 11.6791 517 68.3772 75.5861 518.478
346 0 47.2089 12.4976 590 66.5678 74.822 519.308
347 0 49.1504 11.7598 578 68.5969 75.526 516.381
348 0 50.1129 12.3321 618 68.3544 75.4822 513.362
349 0 52.1293 11.5098 600 69.7583 75.61 511.978
350 0 51.1778 11.3526 581 70.6799 75.4699 511.499
351 0 55.1832 11.8695 655 69.4962 75.3756 510.58
352 0 56.2164 11.8293 665 69.2947 75.5383 508.654
353 0 58.066 12.6752 736 68.2663 75.4158 507.3
354 0 59.2704 12.0127 712 69.441 75.8399 507.222
355 0 63.2369 13.4732 852 66.1291 75.3615 506.11
356 0 61.1845 12.258 750 69.0347 75.3773 503.285
357 0 66.2196 12.7908 847 68.0165 75.1582 504.001
358 0 65.1966 13.3749 872 67.758 75.2397 500.599
359 0 69.1679 12.7371 881 67.4302 75.8002 502.328
360 0 73.1812 13.7604 1007 65.4955 75.7031 503.428
361 0 73.1329 12.6619 926 67.9039 75.338 501.809
362 0 75.1629 11.362 854 70.0351 75.3782 499.828
363 0 78.2028 12.7105 994 68.1308 74.83 497.551
364 0 81.1758 12.6392 1026 68.1306 75.077 494.491
365 0 83.0713 11.2795 937 69.4397 75.3746 496.7
366 1 42.0583 11.6981 492 65.5386 74.8293 516.25
367 0 43.0236 9.0183 388 69.5747 74.3608 513.817
368 0 45.0377 11.8789 535 65.114 74.9402 512.492
369 0 45.0135 11.1744 503 66.837 74.9901 511.515
370 0 48.0928 12.06 580 65.2707 74.9672 512.614
371 0 50.1838 13.5701 681 63.6344 75.4493 510.314
372 0 50.1255 10.354 519 68.5915 75.2158 512.882
373 0 52.1331 11.72 611 65.7234 74.784 511.141
374 0 51.0879 11.5096 588 66.8265 75.2738 511.728
375 0 54.1261 10.6603 577 67.87 75.4298 510.588
376 0 55.1263 10.5757 583 67.1852 75.482 510.262
377 0 58.1116 11.5812 673 66.153 75.6939 506.724
378 0 57.0925 9.17809 524 69.5324 75.229 509.235
379 0 62.0736 10.9386 679 65.7629 75.165 511.306
380 0 65.0778 12.124 789 63.9126 75.4968 507.736
381 0 63.0518 10.3724 654 67.5642 75.1927 504.974
382 0 68.136 12.2109 832 64.012 75.1935 506.978
383 0 72.2111 13.1974 953 62.1973 74.9224 504.97
384 0 73.2201 12.8653 942 63.1529 74.7537 501.863
385 0 74.1954 11.8067 876 65.7477 74.734 500.097
386 0 78.0969 12.651 988 64.0061 74.6953 499.966
387 0 80.1109 12.1581 974 65.0195 75.4138 497.302
388 0 80.0668 10.1041 809 68.4586 75.5884 495.302
389 1 42.0973 10.4282 439 65.139 74.9841 516.355
390 0 43.0771 9.1696 395 67.2532 75.5595 517.127
391 0 47.0379 10.1408 477 66.0021 74.8176 513.256
392 0 45.0956 8.98092 405 69.0741 75.4963 513.304
393 0 50.0546 11.2677 564 64.7855 75.1649 513.167
394 0 51.0425 11.8137 603 64.791 75.4527 512.725
395 0 51.0657 11.495 587 65.3288 75.4583 512.572
396 0 53.0696 12.9641 688 63.2049 75.5305 510.259
397 0 54.3047 11.104 603 66.0614 75.4726 508.968
398 0 58.0884 11.999 697 64.175 76.1607 509.34
399 0 56.0483 9.67024 542 68.0221 75.8155 509.137
400 0 59.0416 11.3987 673 64.5602 75.4517 508.097
401 0 64.1357 12.037 772 62.6231 75.7073 507.544
402 0 64.0761 11.221 719 64.9249 76.2044 506.93
403 0 67.0729 10.1979 684 66.0132 75.5044 504.991
404 0 70.0686 13.4012 939 61.147 76.3099 505.8
405 0 71.313 11.5267 822 63.7725 75.3126 504.107
406 0 73.1191 10.6675 780 65.0577 75.85 505.058
407 0 75.1038 11.7704 884 63.6143 76.1425 501.149
408 0 78.1463 11.568 904 63.6471 75.5243 499.667
409 0 77.2896 11.1399 861 64.9826 76.0209 498.072
410 0 82.2306 13.377 1100 62.2936 75.1145 497.846
411 0 83.207 11.5375 960 65.2906 75.0188 496.698
412 0 87.2514 11.954 1043 64.4669 75.7613 495.655
413 0 90.3936 11.0295 997 65.317 75.5486 496.751
414 0 97.2549 12.8425 1249 62.6717 75.3098 492.267
415 1 49.0524 9.98931 490 65.3122 74.3592 513.784
416 0 50.14 9.3937 471 67.2272 75.0594 513.628
417 0 52.0647 10.9095 568 64.5176 75.331 513.278
418 0 54.0697 11.929 645 63.3364 75.1736 512.816
419 0 55.1152 10.85 598 64.7508 75.2291 511.823
420 0 57.0833 11.4745 655 63.7237 75.0931 510.997
421 0 56.0892 10.3585 581 66.4114 75.6093 508.482
422 0 61.0935 10.9832 671 64.9702 75.0909 510.118
423 0 63.0652 12.2413 772 64.3731 74.4093 507.518
424 0 65.0568 13.2346 861 63.439 74.7422 505.298
425 0 65.0708 11.28 734 66.3515 74.8719 505.695
426 0 68.1866 12.5685 857 64.6581 75.0268 505.533
427 0 69.18 12.706 879 65.3777 75.2275 504.061
428 0 71.1828 12.9947 925 65.4173 75.1989 500.819
429 0 72.0591 11.6016 836 67.2117 74.8397 500.122
430 0 76.062 12.7133 967 64.7839 74.4881 501.606
431 0 76.1139 12.9017 982 65.4552 75.0967 501.647
432 0 79.0758 12.2288 967 66.0941 75.7042 500.064
433 0 81.1175 11.7114 950 67.1179 75.2337 497.244
434 0 85.0904 12.9039 1098 65.0337 75.5018 497.565
435 0 85.1153 12.7357 1084 66.1983 75.1033 497.941
436 1 43.0586 11.3566 489 67.1697 75.0429 516.824
437 0 46.0876 11.3697 524 66.3454 74.4428 516.225
438 0 47.143 11.6454 549 67.7104 74.3388 514.193
439 0 49.0487 11.6823 573 66.9407 74.3246 514.201
440 0 50.0788 11.6416 583 66.9828 74.9434 512.491
441 0 52.0821 11.1555 581 67.9191 74.0379 512.802
442 0 54.0575 12.2092 660 66.6818 74.9227 511.861
443 0 54.1045 12.1801 659 67.2216 74.437 510.961
444 0 56.0474 13.1317 736 65.5557 74.2391 510.341
445 0 57.0662 12.0912 690 67.7826 74.0956 509.265
446 0 60.1384 13.9179 837 64.5448 74.4504 506.892
447 0 62.0708 12.7435 791 65.6764 74.8875 507.778
448 0 64.1751 13.1359 843 65.5136 75.1471 506.986
449 0 66.099 12.6326 835 65.224 75.3174 507.447
450 0 68.0899 14.0843 959 63.3869 75.0803 504.881
451 0 70.1334 12.0485 845 65.9834 75.9112 502.116
452 0 71.118 12.3035 875 66.4469 75.2926 502.018
453 0 74.185 13.8438 1027 63.6563 75.2863 501.86
454 0 77.108 12.5149 965 65.371 76.0642 499.229
455 0 78.0514 13.7602 1074 63.9097 75.5251 496.428
456 0 80.0935 13.8463 1109 63.5284 75.541 500.068
457 0 81.2501 10.8061 878 67.3189 75.32 498.834
458 0 82.098 12.1318 996 66.2982 75.5673 493.274
459 0 88.1079 12.4166 1094 65.224 75.8117 493.904
460 1 46.0336 12.0781 556 63.2968 75.2842 516.257
461 0 46.0141 12.1919 561 64.0392 75.3512 513.886
462 0 44.0472 10.1936 449 67.6325 75.3074 514.036
463 0 47.1068 12.1851 574 64.8415 75.0697 515.15
464 0 47.0429 11.8402 557 66.2244 74.9497 511.433
465 0 50.0769 10.6636 534 66.5468 75.4551 513.73
466 0 52.1519 12.8471 670 63.6537 75.2537 511.867
467 0 52.048 10.7785 561 66.4403 74.0731 512.918
468 0 54.0736 12.0022 649 65.1017 75.0971 508.455
469 0 57.0849 13.0507 745 62.7732 74.4188 511.24
470 0 58.0233 12.0469 699 64.6109 74.4592 509.971
471 0 59.1903 12.3331 730 64.0918 74.8164 508.921
472 0 63.1085 14.0393 886 61.2156 74.5214 507.502
473 0 62.0906 11.3222 703 65.9616 74.4694 506.347
474 0 67.1612 13.2666 891 62.7015 75.0595 504.916
475 0 69.1558 11.7127 810 65.421 74.8518 502.432
476 0 70.1106 11.2964 792 65.7803 74.6313 503.179
477 0 74.0554 12.3016 911 64.5686 74.775 500.926
478 0 74.0831 10.1778 754 67.26 74.3806 503.398
479 1 38.0368 11.0157 419 65.2912 73.7494 517.16
480 0 38.0967 9.84337 375 66.6853 73.9493 516.587
481 0 40.0954 12.2458 491 64.3401 74.4073 515.112
482 0 42.0112 10.9733 461 65.4035 74.4902 514.844
483 0 43.0409 10.4319 449 64.8151 74.1514 517.292
484 0 45.0912 9.82453 443 65.9029 74.9661 517.935
485 0 46.0682 11.4613 528 63.8371 75.1989 516.305
486 0 46.0669 12.0911 557 63.5691 75.0862 515.706
487 0 49.0524 12.293 603 63.4328 74.723 514.95
488 0 51.0854 10.6684 545 65.1963 75.578 515.16
489 0 54.0737 13.5926 735 60.8517 75.6694 514.808
490 0 55.0329 10.9207 601 64.6972 75.4576 513.136
491 0 55.0534 12.5151 689 63.3774 75.2801 511.274
492 0 55.1124 10.8506 598 65.7375 75.0033 512.662
493 0 60.065 12.037 723 63.1743 74.6556 510.039
494 0 59.0548 10.3802 613 66.2904 74.7928 508.316
495 0 61.2174 12.0554 738 63.1477 74.5772 510.331
496 0 62.0384 11.5412 716 64.7654 74.2374 508.654
497 0 65.0556 11.8207 769 64.0065 74.2952 507.085
498 0 68.0486 12.3294 839 63.1299 74.4505 505.67
499 0 72.0524 13.2542 955 61.69 74.3969 504.626
500 0 73.0439 11.3767 831 64.4272 74.8592 503.832
501 0 75.1769 11.9718 900 63.5367 74.4056 502.491
502 0 77.1805 12.4643 962 63.2048 75.106 502.516
503 1 41.0557 8.98779 369 64.9458 74.458 520.396
504 0 40.0558 10.9347 438 63.7785 74.6918 518.509
505 0 44.171 10.233 452 63.8142 74.5442 520.918
506 0 44.0667 11.301 498 62.8695 74.2128 519.46
507 0 48.0968 11.6432 560 61.4232 74.6982 519.421
508 0 49.0396 12.2146 599 61.2755 74.2621 517.149
509 0 50.1853 12.7328 639 60.9296 74.5571 516.146
510 0 53.1102 12.8601 683 60.0322 74.7247 516.469
511 0 52.1019 12.2452 638 62.047 74.6583 514.611
512 0 53.0991 12.6367 671 61.2727 74.0805 513.551
513 0 53.0466 11.8575 629 63.3402 74.5294 513.302
514 0 57.1349 10.869 621 63.2528 74.2158 515.105
515 0 58.0493 12.61 732 60.9454 74.153 514.47
516 0 61.11 12.4366 760 61.4566 74.3263 510.126
517 0 62.0916 13.0291 809 60.8912 74.2855 509.108
518 0 62.0962 10.983 682 64.5528 74.1892 508.752
519 0 66.2832 13.6535 905 60.0807 74.4309 509.705
520 0 67.151 15.1152 1015 59.1744 73.9902 505.991
521 0 70.2414 12.0299 845 63.0036 73.8331 507.494
522 0 73.2052 12.2942 900 62.8744 74.0578 505.24
523 0 74.1767 12.8882 956 62.636 74.0617 501.967
524 0 78.1584 13.2679 1037 61.1861 73.8284 505.558
525 0 80.3724 13.2633 1066 61.4709 74.3584 504.163
526 0 81.1747 11.8387 961 64.5224 73.9802 501.024
527 0 84.1867 11.8784 1000 63.943 73.946 501.418
528 0 87.1035 12.9157 1125 63.5156 73.6631 499.707
529 1 45.1579 9.32284 421 65.6817 74.1568 519.09
530 0 46.0484 11.3359 522 64.1054 73.8908 518.441
531 0 49.1309 10.8689 534 64.367 73.6873 517.906
532 0 50.2044 10.517 528 64.1724 73.8049 520.53
533 0 49.0841 11.5312 566 64.9558 73.7615 517.247
534 0 49.1112 11.9117 585 65.4889 73.8291 513.836
535 0 53.078 12.4534 661 63.8502 74.1468 514.92
536 0 54.1581 10.377 562 67.0071 74.2687 515.238
537 0 55.1222 12.1911 672 64.4702 73.4985 514.379
538 0 59.1415 12.7998 757 63.0872 73.1215 512.238
539 0 58.1241 11.1486 648 66.2299 73.6944 511.563
540 0 60.106 12.5778 756 64.4167 73.496 511.226
541 0 64.1584 12.36 793 63.6267 73.1009 511.146
542 0 64.0619 12.2069 782 64.4591 73.3824 509.56
543 0 64.1974 11.7918 757 65.8085 73.3554 507.378
544 0 68.1577 13.0286 888 63.3254 74.0957 506.797
545 0 72.0728 11.974 863 63.7022 73.1796 506.614
546 0 71.0399 10.7264 762 67.0236 73.5525 503.005
547 0 75.077 12.5338 941 63.6419 73.3953 503.75
548 0 74.0979 10.0543 745 68.1691 73.506 500.129
549 0 80.0748 13.4499 1077 63.1941 73.2423 499.767
550 0 83.1065 12.9111 1073 63.2954 72.9711 499.158
551 0 84.0721 11.7042 984 65.0772 73.4329 497.881
552 1 41.0527 9.35383 384 64.4245 73.1458 519.904
553 0 41.0625 9.71689 399 64.8797 73.6366 515.832
554 0 44.0189 10.5636 465 63.5871 72.9398 516.492
555 0 43.0123 9.36941 403 65.6452 73.5881 514.923
556 0 46.051 11.2484 518 62.9363 72.7934 514.678
557 0 45.0576 9.92064 447 64.8702 73.8031 513.935
558 0 49.1103 11.3418 557 62.3537 73.8097 514.47
559 0 49.0617 11.5161 565 62.3912 73.1062 513.65
560 0 52.0949 9.98178 520 63.5404 74.6077 508.569
561 0 53.0486 10.5187 558 62.9229 74.2061 510.591
562 0 56.184 10.697 601 62.4426 73.6539 511.692
563 0 58.0566 11.5577 671 61.4247 73.5037 508.1
564 0 61.1117 12.3053 752 60.0971 73.9375 510.262
565 0 60.1434 10.7576 647 62.3879 73.9583 507.802
566 0 64.1824 11.4829 737 60.6526 74.1004 507.978
567 0 62.1137 11.2214 697 62.0803 74.4792 502.977
568 0 67.1355 11.38 764 61.8194 74.1387 502.918
569 0 69.1405 12.5252 866 60.3891 73.7667 502.51
570 0 72.165 13.0673 943 59.6808 73.8017 505.043
571 0 73.1916 11.6817 855 61.8795 73.6 503.922
572 0 76.2404 10.8997 831 63.3273 73.5138 497.61
573 1 40.0647 10.1087 405 60.837 74.0716 521.165
574 0 39.1067 11.4047 446 60.5987 74.7242 518.715
575 0 40.0163 10.1459 406 63.8522 74.0271 515.998
576 0 43.0521 9.08202 391 63.7008 74.3734 518.289
577 0 44.0436 9.85388 434 63.0161 74.2143 517.12
578 0 46.214 10.9923 508 62.7677 74.7815 512.555
579 0 47.0613 11.0282 519 62.7302 75.8786 514.318
580 0 49.2267 10.3602 510 63.0353 75.7961 513.267
581 0 50.0868 10.4219 522 62.9349 75.8276 513.312
582 0 50.091 9.40288 471 63.1316 76.1062 513.73
583 0 52.1804 10.1379 529 61.9584 76.2779 515.187
584 0 56.041 10.1533 569 62.1898 75.9104 509.497
585 0 58.2844 12.3361 719 59.1488 75.1502 510.765
586 0 56.1052 10.7833 605 62.0893 75.8314 507.916
587 0 61.1412 9.73158 595 62.0538 75.1496 509.708
588 0 60.1448 10.1754 612 62.2288 74.9918 505.887
589 0 61.1051 9.63913 589 63.6248 75.3854 503.666
590 0 65.1284 11.4236 744 61.1814 74.7688 505.276
591 0 67.204 10.5797 711 62.3558 74.7243 503.997
592 0 71.2172 12.2302 871 60.256 74.7819 503.265
593 0 73.1952 10.0416 735 63.5088 74.6789 501.577
594 0 76.3356 11.2922 862 62.2622 74.9733 499.927
595 0 78.3618 11.3576 890 62.9079 74.6202 501.563
596 0 80.4507 12.5294 1008 62.0159 75.0109 500.115
597 0 84.3202 11.1124 937 63.6798 74.5859 499.739
598 0 83.1471 9.15246 761 66.2549 75.2786 500.418
599 1 44.1729 10.2551 453 62.9073 75.0618 519.66
600 0 46.1149 10.8642 501 62.7465 74.994 517.742
601 0 46.0918 9.84992 454 64.2489 74.7379 517.467
602 0 49.1081 12.1976 599 61.2571 74.6644 515.524
603 0 51.1045 12.1516 621 61.4638 74.5926 512.725
604 0 52.1166 11.8197 616 61.3425 73.8961 514.839
605 0 52.0248 10.5911 551 63.5281 74.1343 514.227
606 0 55.077 11.493 633 61.752 74.1517 513.022
607 0 56.0752 12.9647 727 59.7249 74.7111 514.367
608 0 57.0647 11.1452 636 62.5393 74.4937 511.682
609 0 59.0655 12.5115 739 60.3126 74.6955 509.89
610 0 59.1726 11.12 658 62.0562 74.9681 509.594
611 0 61.121 11.4363 699 61.8841 74.8026 509.096
612 0 62.2168 9.85264 613 63.5318 75.5677 509.192
613 0 64.1816 11.5454 741 61.0661 73.9231 510.351
614 0 66.1936 12.6598 838 59.7208 75.0704 506.079
615 0 69.1128 12.7039 878 60.2027 74.402 502.858
616 0 70.1247 12.2781 861 60.3891 75.101 503.789
617 0 75.0901 10.4941 788 61.1764 75.585 505.336
618 0 74.195 10.7959 801 62.1373 75.4819 502.6
619 0 78.1556 11.2468 879 61.0876 75.3424 501.171
620 0 80.2295 11.9532 959 61.0584 75.4692 496.598
621 0 83.174 11.9869 997 60.7603 75.5577 497.631
622 0 83.2523 11.4712 955 61.0492 75.3141 498.354
623 1 43.0277 10.2957 443 60.9684 75.5102 516.797
624 0 41.1047 9.8529 405 62.5259 76.3531 516.844
625 0 46.1714 10.0928 466 61.5258 75.5536 516.71
626 0 43.1881 9.26182 400 63.825 76.0825 513.245
627 0 47.2088 10.0617 475 62.5221 75.4316 511.476
628 0 50.1612 10.7653 540 59.363 75.9648 514.344
629 0 50.0853 11.0012 551 60.4664 75.5699 510.886
630 0 50.0698 10.1059 506 61.7787 75.5 510.694
631 0 52.0675 10.8513 565 61.0319 75.2779 509.396
632 0 53.041 10.3128 547 61.8757 75.3949 509.927
633 0 54.1318 10.3267 559 62.6225 75.7496 508.712
634 0 58.0814 11.415 663 61.0317 75.9925 509.195
635 0 59.0478 10.8217 639 61.8153 76.1894 507.728
636 0 59.0526 10.4314 616 62.8571 76.5909 506.519
637 0 62.1113 11.3023 702 61.2635 76.3048 506.014
638 0 64.195 13.2097 848 59.2016 75.9234 504.868
639 0 65.093 11.3069 736 62.0503 76.2092 503.918
640 0 70.2332 12.1453 853 60.2497 75.9179 503.528
641 0 71.1946 12.0234 856 61.1028 75.9801 502.366
642 0 72.1266 10.745 775 62.5406 76.1032 504.97
643 0 74.1752 11.001 816 63.0723 76.2218 500.605
644 0 77.1803 11.078 855 62.4608 75.5918 499.794
645 0 81.3215 11.9034 968 61.3016 75.3926 497.496
646 0 84.2238 12.0631 1016 61.1919 75.3041 497.786
647 0 86.175 11.8596 1022 61.4892 75.5489 497.092
648 1 47.1031 10.3603 488 62.8115 75.8361 515.811
649 0 49.0294 9.83084 482 63.9191 75.4564 515.108
650 0 49.1431 12.7994 629 60.752 75.7393 513.569
651 0 50.1138 11.2943 566 62.8074 76.1767 514.152
652 0 51.0768 10.8464 554 64.4838 76.1065 510.35
653 0 54.0866 11.3891 616 63.0244 75.9821 509.531
654 0 54.1242 12.8224 694 62.1354 75.3689 507.239
655 0 54.0386 10.5665 571 66.035 74.4116 505.34
656 0 62.1391 12.4076 771 61.9131 75.2309 505.912
657 0 63.1718 13.677 864 60.1111 76.1412 507.853
658 0 64.2026 12.0556 774 62.9948 75.3385 506.838
659 0 67.2778 12.8423 864 62.0995 75.1157 504.792
660 0 68.2972 12.5335 856 62.8388 75.5759 503.492
661 0 67.4172 11.7329 791 64.5841 75.9621 502.558
662 0 71.2744 12.3046 877 63.2212 75.5621 503.197
663 0 73.2699 11.4645 840 64.2393 75.106 503.286
664 0 77.2099 13.405 1035 61.9401 75.3198 501.137
665 0 74.1092 11.9553 886 64.6332 75.2302 498.872
666 0 80.2414 12.936 1038 62.4509 75.2755 497.349
667 0 83.1104 13.2715 1103 62.5222 75.0707 495.636
668 0 86.104 12.3688 1065 63.0854 74.8479 496.515
669 1 46.0978 11.3671 524 63.1126 75.4466 513.267
670 0 46.137 10.7073 494 64.1376 75.5567 513.818
671 0 46.0673 10.8103 498 64.5482 75.7751 515.074
672 0 47.1448 11.5813 546 63.6923 75.7766 512.516
673 0 49.081 11.9598 587 63.3833 75.6695 510.048
674 0 49.1449 12.7785 628 62.4697 75.6099 511.334
675 0 52.0258 11.3021 588 64.5918 75.7891 509.362
676 0 53.0496 12.1207 643 63.818 75.4028 511.292
677 0 57.0332 12.8872 735 62.2803 75.7265 509.482
678 0 61.1469 14.3262 876 59.831 75.9224 508.376
679 0 58.0687 11.1075 645 65.8295 76.0046 507.781
680 0 60.1003 11.9633 719 63.7566 75.6134 507.662
681 0 64.2107 11.8672 762 63.2362 75.1129 508.206
682 0 66.1269 12.6877 839 62.5137 75.9321 504.843
683 0 65.0662 12.4489 810 64.216 75.9358 502.386
684 0 69.1682 12.2889 850 63.8247 75.1424 504.371
685 0 70.0506 13.0049 911 64.0351 75.022 501.516
686 0 71.1338 12.1321 863 65.0266 74.9015 497.89
687 0 71.0788 12.4932 888 65.9392 74.58 498.223
688 0 78.1911 12.2904 961 65.2414 75.6639 499.287
689 0 79.1078 12.2744 971 65.619 75.3656 498.427
690 0 83.0543 13.1721 1094 64.245 75.3071 494.669
691 1 42.0791 10.0763 424 65.4174 74.875 518.266
692 0 44.114 11.0623 488 66.8033 75.2275 514.678
693 0 44.0444 11.6701 514 65.6362 74.3658 515.13
694 0 49.0515 12.1709 597 63.0921 74.9665 516.884
695 0 47.0536 11.6675 549 65.4226 75.0984 516.326
696 0 49.0483 11.9882 588 65.5204 74.1258 513.879
697 0 52.0999 13.0518 680 63.5441 74.5221 514.441
698 0 54.0956 12.3115 666 64.3123 74.4219 513.324
699 0 52.028 10.8403 564 67.5869 74.6294 511.954
700 0 55.0413 11.7003 644 65.6071 74.7143 510.121
701 0 59.2681 12.3338 731 64.1601 74.6142 506.9
702 0 57.1249 10.5558 603 66.8624 75.0829 507.741
703 0 62.047 12.7323 790 63.5481 74.6772 507.882
704 0 63.1048 11.8692 749 63.7356 75.1295 509.597
705 0 65.0927 12.6589 824 63.5765 75.1116 505.492
706 0 66.2059 10.845 718 65.0668 74.5515 507.202
707 0 70.1729 14.507 1018 60.388 75.0737 504.627
708 0 71.2152 12.8905 918 63.0762 74.4085 502.91
709 0 74.0937 11.4045 845 63.7787 74.4059 501.502
710 0 76.0859 11.763 895 63.4961 74.6737 500.835
711 0 78.2336 11.8108 924 64.0574 74.5011 496.44
712 0 82.1292 12.7117 1044 63.0211 75.0249 496.694
713 0 84.1191 11.0558 930 64.9742 74.5075 494.361
714 1 42.0448 10.9407 460 63.5761 75.1304 517.024
715 0 44.0744 11.5713 510 62.5176 74.9078 516.853
716 0 42.1229 11.8225 498 62.8293 75.1145 516.715
717 0 41.1065 9.65785 397 67.393 74.9496 516.212
718 0 45.0567 10.8752 490 66.098 75.2592 514.202
719 0 49.1289 11.8057 580 64.0776 75.6828 514.443
720 0 49.0837 12.3666 607 63.5453 75.229 514.885
721 0 50.0996 11.2177 562 65.9644 75.5836 511.263
722 0 51.051 13.5747 693 62.4271 75.0606 513.377
723 0 54.0515 12.2106 660 64.047 74.5348 511.868
724 0 57.1266 12.7611 729 62.9369 75.2771 510.129
725 0 56.0988 10.9806 616 65.6364 75.0974 508.802
726 0 59.054 13.4453 794 62.694 74.9232 506.616
727 0 59.0245 10.9107 644 66.337 74.3059 505.947
728 0 63.1685 11.1923 707 64.7397 74.1556 507.825
729 0 65.1071 12.0417 784 64.023 74.2781 506.051
730 0 66.2523 12.06 799 63.8022 74.8874 507.109
731 0 69.0986 10.7238 741 65.5479 74.5695 502.835
732 0 72.0929 13.5242 975 62.2872 74.639 499.465
733 0 73.1249 11.4598 838 65.4988 74.8401 501.296
734 0 77.4128 12.6852 982 62.9012 74.6823 500.963
735 1 40.0153 9.77127 391 64.8951 74.8286 517.015
736 0 42.1704 12.6866 535 61.7421 75.1346 515.914
737 0 42.0347 10.3248 434 63.2903 75.159 518.007
738 0 43.1065 10.4625 451 63.9734 75.1574 516.319
739 0 46.0951 11.4763 529 62.9471 74.9527 515.457
740 0 45.0883 11.5551 521 64.2188 75.7083 513.464
741 0 47.1003 11.2314 529 64.2174 75.4839 511.537
742 0 48.1115 11.4526 551 63.9964 74.8094 511.786
743 0 50.0658 12.0042 601 62.9884 75.4027 512.286
744 0 50.0775 11.8217 592 63.8328 74.728 511.414
745 0 55.0444 12.7533 702 61.282 74.0242 510.548
746 0 54.0502 11.1748 604 62.8129 74.6556 510.685
747 0 58.0459 11.1291 646 62.7833 74.8715 509.872
748 0 60.1732 11.3173 681 62.6314 74.9295 508.021
749 0 59.0793 9.98658 590 64.5593 75.561 509.502
750 0 61.033 12.78 780 61.509 75.159 505.06
751 0 65.1527 11.7109 763 61.5256 74.6619 505.91
752 0 66.1081 10.9366 723 63.0152 74.6072 502.024
753 0 67.3034 11.3664 765 62.719 74.7686 503.872
754 0 71.1522 11.8338 842 61.7328 74.7375 503.578
755 0 72.199 12.3963 895 61.3955 74.3475 499.429
756 0 76.3238 11.2547 859 62.4389 74.5611 498.162
757 0 79.1859 12.4265 984 60.997 73.9624 497.311
758 0 81.0497 11.7952 956 61.6318 75.2395 498.163
759 1 43.1946 11.3209 489 61.591 74.5992 515.665
760 0 44.0586 11.235 495 61.0384 74.6929 517.261
761 0 45.0942 11.9528 539 61.7458 75.2263 513.796
762 0 48.0909 10.7713 518 62.9923 74.8649 514.577
763 0 45.0765 10.9813 495 64.1172 74.4081 514.042
764 0 50.077 12.1213 607 62.2076 74.8138 512.75
765 0 52.0711 11.6571 607 63.2455 74.5766 510.998
766 0 53.0632 11.948 634 63.052 75.418 509.446
767 0 56.083 10.3596 581 64.2685 74.8658 511.88
768 0 56.148 11.3628 638 63.3354 74.7194 511.053
769 0 60.0922 11.5156 692 62.5029 75.1243 509.845
770 0 62.0646 12.4064 770 61.6831 75.3675 507.321
771 0 61.1008 12.2584 749 62.773 75.4339 504.458
772 0 64.127 12.8963 827 61.0556 75.2975 506.698
773 0 68.0853 13.0865 891 60.9125 75.4882 502.818
774 0 66.039 10.9632 724 64.4254 75.3343 502.315
775 0 70.1582 11.3743 798 63.0752 75.6178 502.5
776 0 74.0559 10.087 747 63.3962 75.2436 505.245
777 0 76.2025 11.5875 883 62.7418 74.9943 500.516
778 0 78.0595 11.7474 917 62.1134 75.0731 501.926
779 0 80.0836 12.437 996 61.8785 75.3484 499.159
780 0 85.08 11.7771 1002 62.4671 74.6317 496.207
781 0 89.1124 11.5248 1027 62.6008 75.224 495.86
782 1 44.0435 8.60512 379 65.3668 74.934 517.327
783 0 46.0452 10.0336 462 63.5584 74.8506 513.532
784 0 48.0328 11.5338 554 62.018 74.8285 513.125
785 0 50.0128 12.3568 618 61.1133 74.5518 512.141
786 0 51.0386 11.7362 599 61.6828 74.8781 512.092
787 0 52.1048 11.688 609 62.1199 75.0772 509.493
788 0 54.1184 12.177 659 61.5599 74.7253 509.029
789 0 57.1349 11.1316 636 63.2437 74.5409 509.049
790 0 57.1282 12.0431 688 62.3125 74.8445 509.471
791 0 58.0632 12.7619 741 61.3792 74.5101 508.822
792 0 61.0624 13.0686 798 60.9273 74.5401 506.246
793 0 66.1146 12.8413 849 60.1225 74.4829 507.015
794 0 65.1221 12.6071 821 61.1571 75.0901 504.039
795 0 69.0772 12.667 875 60.12 75.1497 504.923
796 0 70.0524 12.9903 910 60.3253 74.778 503.093
797 0 72.1284 11.8261 853 61.4185 74.5428 501.586
798 0 77.1688 12.9068 996 59.1195 74.5632 502.096
799 0 79.2449 13.9946 1109 57.89 74.6285 500.333
800 0 81.1353 12.4607 1011 60.0079 74.9238 495.513
801 0 83.1963 13.6304 1134 58.8228 74.7372 495.958
802 0 84.1569 12.4648 1049 60.7836 74.8341 493.18
803 1 43.083 10.7003 461 62.3861 74.564 515.05
804 0 45.1686 11.2025 506 62.753 74.4308 512.978
805 0 47.0479 11.669 549 61.6794 74.7468 513.76
806 0 49.0846 11.5311 566 62.2438 74.8852 513.359
807 0 50.0691 11.1646 559 62.8426 75.0877 510.843
808 0 54.0618 14.6314 791 58.3755 73.8154 512.114
809 0 53.0756 11.9264 633 62.3002 74.5687 512.408
810 0 55.2918 12.0452 666 61.7628 74.1231 511.889
811 0 57.1148 12.3261 704 61.4915 74.9688 509.588
812 0 61.0954 13.2579 810 59.4815 74.8494 507.977
813 0 62.0795 13.1444 816 59.1752 75.1679 510.279
814 0 64.119 12.9603 831 59.9374 75.302 508.757
815 0 66.1894 11.2858 747 61.4204 74.9839 507.475
816 0 70.2458 13.467 946 58.6776 74.8203 507.309
817 0 73.4004 13.2016 969 58.6491 74.677 506.645
818 0 73.1299 12.3069 900 60.6567 74.8767 505.442
819 0 75.1712 13.1965 992 59.1048 75.0494 500.298
820 0 78.1223 12.8772 1006 59.1422 75.1342 502.449
821 0 81.1117 12.4643 1011 59.5945 75.1414 500.834
822 0 82.2277 12.5505 1032 59.4787 75.1948 497.068
823 0 85.178 11.9514 1018 60.0049 74.5825 496.638
824 0 89.0911 12.5826 1121 59.4692 75.0178 497.029
825 1 47.0386 10.587 498 60.9257 75.0301 516.982
826 0 50.0272 11.1539 558 59.7079 74.7939 517.821
827 0 49.091 13.1592 646 58.743 75.0882 515.933
828 0 51.1083 11.7398 600 60.4083 74.9017 514.43
829 0 53.0574 12.6844 673 59.7727 74.6746 513.229
830 0 55.1075 12.3758 682 60.1716 75.0601 512.306
831 0 57.0817 10.704 611 61.6138 75.3715 513.034
832 0 58.0879 13.0148 756 59.6468 75.0754 511.357
833 0 61.1311 14.4117 881 57.6822 74.1294 511.499
834 0 60.0358 11.3266 680 61.4676 74.7647 511.6
835 0 66.0534 15.8962 1050 55.7438 74.8724 509.557
836 0 65.1086 11.0892 722 61.2964 74.6565 510.181
837 0 70.1192 14.1331 991 57.9284 74.4985 508.43
838 0 70.0634 12.5172 877 60.4424 74.4344 505.738
839 0 73.0833 12.8073 936 60.3686 73.9947 503.838
840 0 75.1189 12.1407 912 61.0976 74.6118 504.484
841 0 78.1509 13.5507 1059 60.2946 74.6997 502.357
842 0 82.1235 13.2483 1088 59.9228 74.7408 503.584
843 0 82.0603 11.0772 909 63.5732 74.9483 500.589
844 0 87.0917 12.527 1091 61.5399 75.6508 501.321
845 0 91.1551 13.4167 1223 60.6419 75.0303 499.642
846 1 39.0391 10.8609 424 66.0212 74.7217 519.297
847 0 44.0429 11.4661 505 64.596 75.0139 521.822
848 0 47.0187 14.2284 669 61.4514 75.2272 520.495
849 0 49.0883 13.4248 659 62.7178 74.352 520.202
850 0 49.1046 12.7687 627 63.8549 74.764 519.989
851 0 49.0261 10.1579 498 67.9277 75.0201 519.954
852 0 53.0867 12.9223 686 64.2988 74.6735 518.948
853 0 54.0596 13.3186 720 64.3556 74.8972 516.046
854 0 56.0715 11.6458 653 66.3384 74.9035 515.335
855 0 58.1071 12.9588 753 65.0956 74.8871 513.96
856 0 59.0434 12.1775 719 66.0626 74.4061 513.935
857 0 62.0421 13.9744 867 63.3322 74.2561 513.364
858 0 64.0581 12.9414 829 65.2183 73.9783 511.11
859 0 64.0862 13.123 841 65.4067 74.2212 511.9
860 0 67.1081 12.9194 867 65.8478 74.0531 510.582
861 0 70.0876 13.6115 954 66.6289 73.8606 508.852
862 0 73.1342 12.0737 883 68.4519 74.9853 509.993
863 0 77.0612 13.1454 1013 66.8134 73.6249 508.618
864 0 78.1602 13.2548 1036 66.832 73.9865 507.064
865 0 79.158 11.7234 928 68.8287 74.542 506.585
866 0 83.1208 14.497 1205 65.9062 74.1958 503.29
867 0 85.0767 13.9051 1183 67.1462 74.0617 501.633
868 0 87.3781 12.6347 1104 69.5444 74.702 501.736
869 0 90.117 12.7057 1145 69.7895 74.8908 500.278
870 0 93.1708 12.6005 1174 69.7385 74.7888 499.67
871 0 96.1693 13.9546 1342 68.7362 74.1788 496.908
872 0 98.1863 13.6679 1342 69.0134 74.0209 495.423
873 0 102.264 14.4528 1478 68.2605 74.0907 493.256
874 1 50.012 12.377 619 72.3942 74.4006 513.759
875 0 55.0545 11.1344 613 72.4568 73.491 516.367
876 0 58.0849 11.3282 658 72.4088 74.6884 517.074
877 0 58.1426 13.6045 791 69.9064 74.9343 513.923
878 0 60.1021 11.5304 693 72.3521 75.0173 514.232
879 0 63.1232 13.6242 860 69.5233 75.0465 513.152
880 0 64.2846 13.1291 844 69.8246 74.8199 512.816
881 0 66.1663 12.121 802 71.9925 75.0075 509.268
882 0 69.2693 14.653 1015 67.7448 74.2335 509.447
883 0 71.1139 14.5541 1035 67.8222 74.9594 508.21
884 0 75.1108 13.1938 991 68.9909 74.7245 508.523
885 0 77.106 14.4606 1115 68.1247 74.9444 505.334
886 0 79.1098 13.4244 1062 69.8418 75.2024 504.165
887 0 84.2898 15.3637 1295 66.2463 74.7282 503.847
888 0 86.209 13.2585 1143 68.9781 75.2266 502.563
889 0 89.1788 14.9139 1330 66.1872 75.1083 503.271
890 0 92.0855 12.9011 1188 69.5926 75.186 501.095
891 0 97.1467 13.6906 1330 67.6241 75.0662 500.868
892 0 97.1986 13.7348 1335 68.1491 75.1206 495.646
893 1 47.1401 14.0857 664 68.1386 75.0015 520.083
894 0 48.0336 13.3656 642 68.7181 74.419 519.185
895 0 50.0661 13.6819 685 67.9956 74.3095 517.018
896 0 52.1703 13.4943 704 67.4432 74.3835 516.733
897 0 54.2052 13.3751 725 67.6538 74.0869 515.826
898 0 55.1605 14.2856 788 66.6599 74.8959 513.574
899 0 57.1031 13.712 783 67.0575 75.318 512.558
900 0 60.0874 13.2806 798 66.7018 74.8434 514.64
901 0 62.1219 13.6828 850 65.9882 75.1753 511.7
902 0 67.2273 14.0419 944 65.1896 74.7278 508.462
903 0 67.1701 13.1904 886 66.0768 74.5339 509.907
904 0 69.1044 13.8341 956 65.8159 74.1841 507.063
905 0 70.1184 14.3899 1009 65.3806 74.002 506.091
906 0 74.1878 13.2906 986 66.2049 74.0254 504.018
907 0 76.1541 13.1969 1005 65.6289 74.5104 505.282
908 0 79.1269 14.6347 1158 63.8333 74.9024 503.675
909 0 80.0465 12.7801 1023 66.9629 74.5367 502.38
910 0 83.0714 12.4592 1035 66.6966 75.487 500.564
911 0 87.1032 14.3852 1253 64.1309 75.8524 499.378
912 0 89.1395 12.9909 1158 65.9465 76.3273 497.89
913 0 92.1358 13.3607 1231 65.0699 76.247 498.33
914 0 96.1602 14.975 1440 63.2111 75.091 494.758
915 0 99.4054 12.1422 1207 66.198 74.7539 494.215
916 0 101.243 12.87 1303 65.4044 74.5932 492.653
917 0 105.168 13.3025 1399 64.7806 74.5018 491.266
918 1 53.0849 11.9997 637 65.6578 74.113 513.67
919 0 56.0618 11.9154 668 65.774 74.2874 513.421
920 0 58.1208 14.0913 819 63.3004 74.8901 512.322
921 0 61.2071 12.6129 772 64.6917 74.8368 511.334
922 0 63.1063 12.4235 784 64.6033 74.06 510.673
923 0 65.0716 12.6937 826 64.4613 73.3959 508.253
924 0 68.0676 12.0028 817 65.1322 74.0502 507.61
925 0 71.1307 12.7231 905 64.021 74.1757 506.29
926 0 72.1179 12.0358 868 65.3053 73.7235 508.235
927 0 78.2404 13.1134 1026 63.4172 74.3275 505.301
928 0 79.0796 13.7203 1085 63.7613 73.8147 502.648
929 0 79.0405 13.1072 1036 65.2654 74.3774 500.578
930 0 83.1195 11.9226 991 66.4924 74.5045 502.776
931 0 84.3366 12.0232 1014 67.0927 74.5838 499.621
932 0 91.1299 12.8608 1172 66.605 74.3592 497.935
933 0 92.1801 12.2152 1126 68.1909 74.2549 497.34
934 0 94.134 12.8009 1205 68.2133 74.9544 491.133
935 1 53.1098 11.5233 612 66.7353 74.9134 517.243
936 0 52.1893 12.4738 651 67.0445 74.8234 516.224
937 0 54.102 12.8091 693 66.43 73.8976 515.118
938 0 56.0901 11.6063 651 68.4347 74.6406 514.037
939 0 59.075 13.4575 795 65.7937 75.234 512.36
940 0 58.2029 11.5115 670 69.6284 74.8866 511.09
941 0 61.1784 12.9131 790 67.2949 74.4557 510.814
942 0 64.1125 11.9477 766 68.4347 73.9386 509.554
943 0 66.127 12.2492 810 68.021 74.4296 508.149
944 0 71.2262 12.4814 889 66.8133 74.9055 508.011
945 0 72.1087 12.3286 889 67.6299 74.7278 505.519
946 0 71.1728 11.6618 830 69.3265 75.2735 502.966
947 0 76.239 13.0248 993 66.9698 75.0806 502.212
948 0 79.2262 12.8114 1015 66.4897 75.0749 504.821
949 0 82.1252 12.5662 1032 67.1608 75.3062 500.83
950 0 83.1209 13.3901 1113 66.1707 74.841 499.014
951 1 43.0228 11.3428 488 66.8607 74.6434 518.834
952 0 45.0284 11.2818 508 66.6811 74.6516 518.215
953 0 46.0529 11.6822 538 66.316 75.2584 517.924
954 0 45.0638 11.8499 534 66.5899 74.9026 518.878
955 0 52.1161 11.8006 615 65.3561 74.6065 515.286
956 0 50.0205 10.7756 539 68.1484 74.449 516.07
957 0 53.0509 12.1016 642 65.8785 74.5748 512.234
958 0 56.11 12.3686 694 64.8026 75.6297 512.537
959 0 57.1471 11.6541 666 65.5526 75.2522 513.191
960 0 58.1547 11.6414 677 65.6603 75.226 509.654
961 0 60.091 11.882 714 65.4384 75.5966 510.536
962 0 63.0871 11.9834 756 64.9683 75.832 508.181
963 0 63.051 14.1155 890 62.7348 75.8247 507.155
964 0 66.1356 11.8695 785 65.3287 75.4955 507.097
965 0 67.0455 12.9614 869 63.9114 75.1059 506.284
966 0 72.0955 12.9828 936 63.2917 75.0726 504.689
967 0 73.0936 12.4087 907 64.0066 74.9735 503.267
968 0 75.1016 11.2647 846 64.9917 75.1241 503.005
969 0 77.1892 12.709 981 63.4536 74.9653 502.336
970 0 80.1403 11.9291 956 64.1663 75.3159 501.051
971 0 85.1081 13.2772 1130 62.4549 74.8124 498.545
972 0 86.1424 12.4329 1071 63.3996 75.0355 498.445
973 0 88.1316 12.6515 1115 63.235 75.2511 495.738
974 0 91.0793 12.3189 1122 63.115 74.9198 498.949
975 1 49.0511 11.2944 554 63.2581 75.0126 518.37
976 0 48.0704 10.8175 520 64.1538 75.5904 517.931
977 0 51.0424 11.3827 581 63.821 75.0138 515.341
978 0 50.0322 12.1122 606 62.7954 74.4488 517.521
979 0 53.1515 13.2828 706 61.6884 75.5765 515.412
980 0 55.0712 12.6745 698 62.4542 75.7579 513.44
981 0 56.1145 13.5972 763 61.4128 75.0367 511.67
982 0 56.0781 11.8585 665 63.5985 74.9444 512.008
983 0 59.052 13.141 776 61.433 74.5992 511.736
984 0 61.1026 11.9635 731 62.87 75.368 508.066
985 0 64.0698 12.143 778 62.3239 75.6581 506.377
986 0 64.1832 13.3836 859 60.6019 75.6298 507.645
987 0 67.0722 13.6569 916 60.5218 75.6026 504.617
988 0 70.1315 13.9025 975 59.5333 75.681 502.277
989 0 72.0758 12.9447 933 60.537 75.1275 502.033
990 0 74.0373 14.8304 1098 58.408 75.4699 499.526
991 0 77.0982 13.4244 1035 59.8976 75.0454 498.617
992 0 78.1858 12.5854 984 61.2846 75.3079 497.967
993 0 81.1503 14.1959 1152 59.1771 75.6675 494.963
994 0 86.1696 14.1117 1216 58.8405 74.9959 496.086
995 0 85.1748 11.8228 1007 61.708 75.4052 494.464
996 0 91.3081 13.0218 1189 59.8856 75.1766 492.22
997 0 93.0627 13.7864 1283 59.0023 75.4022 495.182
998 0 95.1701 12.5565 1195 60.8385 74.9874 491.439
999 1 51.0303 12.2084 623 60.7721 74.5393 512.388
1000 0 54.0363 12.5841 680 59.8603 74.9088 510.981
1001 0 56.0412 13.0261 730 59.2329 74.9342 512.441
1002 0 56.0777 13.4278 753 59.1408 74.9442 512.297
1003 0 58.1553 13.464 783 59.7395 75.4176 507.679
1004 0 59.0623 12.9186 763 59.865 74.4037 510.303
1005 0 61.1574 12.7703 781 60.4942 74.854 506.638
1006 0 64.0597 15.2202 975 56.9795 75.1467 509.222
1007 0 66.0813 13.0899 865 59.5434 75.2786 506.022
1008 0 67.1044 13.1586 883 59.2299 74.5266 505.288
1009 0 71.06 14.3541 1020 57.5627 74.1931 504.102
1010 0 71.0957 13.1513 935 59.4535 74.7187 501.852
1011 0 74.1322 13.5164 1002 58.4002 74.1996 501.402
1012 0 79.0679 12.7991 1012 58.7836 74.3449 500.812
1013 0 80.1506 13.013 1043 58.3845 74.4928 499.546
1014 0 84.0752 12.0487 1013 59.079 74.2448 500.432
1015 0 85.1162 12.4183 1057 58.7597 73.9404 496.048
1016 0 90.1879 12.3298 1112 58.3067 73.9173 497.146
1017 0 94.1692 12.7112 1197 57.9566 74.0317 493.854
1018 0 94.0381 11.4847 1080 59.7583 74.1398 492.453
1019 0 98.0931 12.1109 1188 59.1515 73.7205 490.016
1020 1 50.0969 12.2762 615 58.7561 73.8016 514.859
1021 0 55.1489 12.9286 713 56.913 74.425 514.773
1022 0 54.0737 11.7987 638 58.6442 73.453 515.234
1023 0 56.1177 11.5293 647 59.2952 73.7388 512.655
1024 0 57.1277 12.0257 687 58.885 74.1004 511.237
1025 0 59.0439 11.9911 708 57.8644 73.8291 514.905
1026 0 62.1999 11.672 726 57.8154 74.1281 512.733
1027 0 62.0444 11.1855 694 59.1369 73.8228 512.086
1028 0 66.0506 11.7789 778 58.4126 73.7005 511.851
1029 0 64.0816 12.3124 789 58.4119 73.763 509.677
1030 0 71.1044 13.2059 939 57.0064 73.0841 509.024
1031 0 74.0684 12.6235 935 57.7668 73.6492 506.463
1032 0 77.1414 13.0151 1004 57.2888 73.2958 505.169
1033 0 79.2514 13.4383 1065 56.8638 73.2254 505.284
1034 0 82.0445 13.127 1077 57.2396 73.3853 504.54
1035 0 82.1733 11.9869 985 58.7056 73.7066 503.694
1036 0 85.0723 12.2954 1046 58.8566 73.3996 499.709
1037 0 90.0581 13.2248 1191 57.639 73.0244 501.145
1038 1 47.0814 13.4023 631 56.1014 73.3867 523.412
1039 0 48.0413 11.9064 572 59.5455 72.715 519.778
1040 0 49.1373 11.6612 573 59.3857 72.7417 520.951
1041 0 53.042 13.1594 698 57.1891 73.2278 519.799
1042 0 51.0225 11.5635 590 60.6017 73.3881 517.273
1043 0 53.0822 13.0175 691 59.1129 73.741 517.11
1044 0 55.0997 11.1797 616 60.302 73.5211 518.403
1045 0 55.0381 11.7918 649 60.9938 73.3806 513.992
1046 0 57.0591 12.0051 685 60.4686 73.5869 516.12
1047 0 61.1056 12.9121 789 59.2763 73.3739 513.02
1048 0 62.0432 12.1045 751 60.6178 73.1864 513.752
1049 0 65.2174 12.926 843 59.3926 74.0178 512.552
1050 0 66.0822 12.5298 828 60.3044 73.2995 509.447
1051 0 68.0846 13.2042 899 59.6496 72.8854 512.634
1052 0 69.0412 12.2536 846 61.5355 72.9929 508.582
1053 0 73.0721 13.9451 1019 60.2875 72.3572 506.093
1054 0 76.0241 13.9824 1063 60.4064 72.3631 505.846
1055 0 77.0794 11.5336 889 63.6817 72.7312 506.528
1056 0 81.0962 13.0092 1055 61.7962 72.2038 505.851
1057 0 83.2222 12.1001 1007 63.3803 73.0626 504.252
1058 1 41.075 9.6896 398 64.8342 73.4347 524.555
1059 0 42.0235 12.7548 536 62.334 73.5728 522.965
1060 0 42.0137 11.0202 463 64.8143 73.4816 523.693
1061 0 44.029 12.9233 569 62.2724 73.6309 523.448
1062 0 46.1223 13.9195 642 61.2009 73.8489 523.134
1063 0 48.1347 12.0911 582 63.5326 73.2766 520.222
1064 0 47.0914 13.7817 649 61.9985 73.1988 521.972
1065 0 50.2079 12.0499 605 63.9653 73.7603 520.683
1066 0 52.0914 15.2425 794 60.3766 73.5718 520.446
1067 0 53.0446 12.7252 675 63.4415 73.9096 518.154
1068 0 56.1455 11.8264 664 63.622 73.9925 519.229
1069 0 57.0794 13.1221 749 63.1415 73.6916 516.963
1070 0 58.1355 11.9204 693 64.9711 73.1486 518.006
1071 0 60.0825 13.1153 788 62.9911 73.3325 515.536
1072 0 60.1414 11.3566 683 65.5681 73.6838 515.887
1073 0 65.0657 13.6016 885 62.365 73.574 514.74
1074 0 65.0412 12.8226 834 64.0971 74.0252 513.783
1075 0 69.0373 14.8615 1026 61.6676 73.424 511.174
1076 0 70.0552 12.4188 870 64.7379 73.4931 510.34
1077 0 71.0928 14.6288 1040 62.3115 73.8692 509.292
1078 0 75.0701 12.5616 943 64.5323 73.3839 507.165
1079 0 79.0758 13.3543 1056 63.1932 74.0142 507.769
1080 0 82.0966 12.4244 1020 64.3353 74.2294 507.548
1081 0 82.0972 12.1198 995 65.799 73.9759 503.894
1082 1 45.1637 11.4472 517 66.4468 74.0928 522.385
1083 0 48.0944 11.9141 573 65.0035 74.2845 523.939
1084 0 48.0617 12.8169 616 64.4724 74.2403 522.42
1085 0 51.0412 13.4597 687 63.2606 74.6026 520.572
1086 0 54.0925 12.5341 678 63.615 73.9086 519.785
1087 0 52.0378 13.5671 706 63.2521 74.4306 516.241
1088 0 56.0365 13.2771 744 62.9314 74.7258 516.141
1089 0 59.078 11.6118 686 65.0029 74.2653 516.404
1090 0 60.0303 12.2105 733 64.2074 74.8104 514.797
1091 0 62.0835 14.0617 873 62.3952 74.0894 513.858
1092 0 64.0807 12.9212 828 63.7331 74.8478 512.25
1093 0 66.1427 12.3521 817 64.2264 74.5985 511.31
1094 0 69.1786 11.4053 789 64.9658 74.5703 510.798
1095 0 71.1531 12.2412 871 64.2755 74.814 508.916
1096 0 75.0953 12.7971 961 63.5869 74.7867 507.781
1097 0 77.0919 12.8159 988 63.7935 74.6245 507.085
1098 0 79.154 11.446 906 65.4128 74.4294 508.254
1099 0 84.081 14.046 1181 62.166 74.5284 505.637
1100 0 84.128 12.6474 1064 64.6485 75.0592 504.633
1101 1 42.0671 11.3866 479 66.2777 74.6848 522.653
1102 0 43.0985 9.95394 429 68.0047 73.9277 524.266
1103 0 46.0403 12.2067 562 65.4199 74.3523 523.833
1104 0 48.1046 12.0363 579 66.3955 74.8964 521.879
1105 0 50.1976 12.3711 621 65.6956 74.7053 523.037
1106 0 50.0461 13.5076 676 65.9379 74.2899 520.67
1107 0 53.0468 14.3081 759 64.1581 73.7299 520.794
1108 0 54.0686 11.8368 640 67.7734 73.6641 520.103
1109 0 53.1055 12.6352 671 67.7079 74.2027 517.069
1110 0 56.1275 14.8412 833 64.563 74.4574 517.298
1111 0 60.1112 13.3919 805 65.7193 74.3441 516.276
1112 0 60.0608 14.6352 879 65.0853 74.1251 515.283
1113 0 63.1254 14.2415 899 65.5428 74.327 514.279
1114 0 63.0588 13.7649 868 66.3053 74.265 513.453
1115 0 62.0706 12.083 750 69.452 73.9333 510.331
1116 0 68.197 14.1355 964 65.8734 74.0353 511.845
1117 0 71.1768 14.4429 1028 65.5778 74.6624 509.255
1118 0 75.1639 15.1269 1137 64.0809 74.7432 510.965
1119 0 75.1064 13.5807 1020 66.6696 74.2382 508.615
1120 0 76.1509 12.7379 970 68.0979 73.9928 508.312
1121 0 83.3199 14.4983 1208 65.457 74.101 507.439
1122 0 84.1094 13.9105 1170 66.3889 74.2009 505.366
1123 1 42.074 11.7175 493 69.8053 74.3083 520.947
1124 0 45.0778 12.3121 555 68.1081 75.2072 521.422
1125 0 47.108 12.397 584 69.1216 74.8956 521.591
1126 0 48.2464 13.8871 670 66.8716 74.4761 522.076
1127 0 52.1581 13.7083 715 65.9776 75.0406 523.057
1128 0 53.2482 13.5779 723 66.6888 74.4288 519.884
1129 0 55.0432 13.8073 760 66.5184 74.6171 520.482
1130 0 56.132 14.1274 793 66.6129 74.4792 518.405
1131 0 58.1039 14.5601 846 65.6407 74.3664 517.358
1132 0 60.1485 13.6495 821 66.3094 74.3325 518.597
1133 0 59.0614 13.2066 780 68.1692 74.3372 517.17
1134 0 66.4741 14.6824 976 64.9088 74.2326 515.381
1135 0 67.2752 15.5035 1043 64.3384 74.1256 514.453
1136 0 69.3025 14.213 985 65.4071 74.6477 515.223
1137 0 71.1804 13.0092 926 66.9417 74.4406 513.14
1138 0 75.2114 15.1706 1141 64.9211 74.5872 508.938
1139 0 75.0907 13.7034 1029 66.9757 74.5219 508.839
1140 0 76.0653 12.3972 943 68.2556 74.3849 511.487
1141 0 80.1865 12.3337 989 68.5966 75.1365 508.377
1142 0 82.036 13.0796 1073 67.3812 75.2898 508.002
1143 0 84.315 12.2991 1037 68.595 74.7898 504.426
1144 0 88.1123 12.9267 1139 68.173 74.1782 502.144
1145 1 45.1095 13.4561 607 67.5832 74.7298 523.199
1146 0 47.1435 13.4059 632 67.2563 74.943 522.261
1147 0 47.0769 12.5115 589 68.4431 74.3922 520.557
1148 0 48.0766 12.3553 594 69.0909 74.4916 519.606
1149 0 47.0437 12.0739 568 70.088 74.8609 519.799
1150 0 54.2874 13.4838 732 65.8948 74.7514 520.997
1151 0 56.0133 13.0148 729 66.738 74.6639 519.675
1152 0 58.1341 13.7613 800 65.62 74.1438 518.298
1153 0 58.2595 11.9466 696 68.2328 74.829 515.802
1154 0 60.13 11.6913 703 68.212 75.1337 514.684
1155 0 62.1437 11.6504 724 68.5884 74.6119 514.349
1156 0 64.1664 10.7845 692 68.6879 74.6026 514.237
1157 0 69.3478 13.9442 967 64.7766 74.4819 511.372
1158 0 67.0886 13.7728 924 65.3864 74.4026 511.09
1159 0 70.0681 11.7457 823 68.469 74.407 505.768
1160 0 74.0993 12.0244 891 67.7722 74.2031 509.044
1161 0 78.2991 11.8775 930 67.3441 74.5785 507.553
1162 0 78.1245 12.6081 985 67.1452 73.865 504.364
1163 0 81.1528 11.4475 929 68.6943 74.0775 501.335
1164 0 86.079 12.0355 1036 67.8948 74.0888 502.946
1165 0 88.0678 13.4442 1184 65.7576 74.1943 501.131
1166 1 45.2135 12.6069 570 67.3351 74.3 522.4
1167 0 46.0412 11.316 521 69.3916 74.4741 518.509
1168 0 47.1689 10.4094 491 69.6314 74.3972 520.664
1169 0 52.1782 12.4381 649 67.0508 74.6965 517.855
1170 0 50.1134 12.8109 642 67.3567 74.1776 518.073
1171 0 53.0758 11.1162 590 68.5932 74.2305 518.692
1172 0 57.1086 12.4325 710 66.8648 74.1746 515.708
1173 0 57.1193 13.9708 798 65.2193 74.1278 516.574
1174 0 59.1836 12.5035 740 67.2757 74.3122 512.634
1175 0 60.1836 13.0933 788 66.5825 74.835 512.029
1176 0 66.2427 12.3636 819 65.9902 74.5372 513.751
1177 0 65.3382 12.7491 833 66.3529 74.4274 513.025
1178 0 68.2361 12.5447 856 67.0608 75.4428 510.02
1179 0 74.1116 13.7495 1019 64.6506 75.0864 511.113
1180 0 75.0698 12.5883 945 66.1482 74.3016 510.674
1181 0 78.2073 12.3134 963 66.3645 74.4777 508.155
1182 0 81.4871 13.5113 1101 65.257 73.7657 504.33
1183 0 83.2495 13.7058 1141 64.9369 74.0894 505.277
1184 0 85.2053 12.8278 1093 65.7054 73.8536 506.029
1185 0 89.3195 12.4721 1114 66.1616 74.8564 502.264
1186 0 93.1801 13.372 1246 65.1942 74.6429 500.929
1187 0 96.2667 13.9716 1345 64.1792 74.0201 498.158
1188 0 98.2382 14.0475 1380 64.137 74.0138 498.234
1189 0 101.305 13.5235 1370 64.989 74.6985 497.021
1190 1 54.3375 12.0543 655 66.1756 74.5008 518.366
1191 0 56.2439 13.2459 745 64.8617 74.5315 517.698
1192 0 56.349 12.5113 705 66.2014 74.6142 516.47
1193 0 58.1827 15.6404 910 62.0385 74.7429 515.503
1194 0 59.2254 10.1139 599 67.8614 74.803 517.967
1195 0 63.1608 13.0936 827 64.1886 75.422 515.635
1196 0 65.1476 13.4157 874 63.6201 75.9153 516.293
1197 0 66.2493 13.0869 867 64.6782 74.5905 512.475
1198 0 67.3195 13.5771 914 63.9464 74.4945 512.943
1199 0 71.3038 13.0708 932 64.2071 75.0858 510.282
1200 0 74.5461 13.2133 985 63.4447 75.3888 511.8
1201 0 75.1858 15.2555 1147 61.8962 75.4394 507.314
1202 0 80.2812 14.9724 1202 61.6897 75.525 507.712
1203 0 83.3259 12.7451 1062 64.258 75.4604 507.459
1204 0 86.673 15.1143 1310 61.587 75.2359 505.065
1205 0 87.0989 13.6971 1193 63.4191 75.4032 503.225
1206 0 89.2058 12.7794 1140 64.9439 75.007 501.458
1207 1 46.1955 12.4038 573 64.6091 74.3996 523.963
1208 0 47.2764 12.4375 588 65.0476 74.5357 523.486
1209 0 50.1637 11.5023 577 65.3362 74.8579 524.333
1210 0 50.2103 12.7862 642 64.8318 75.0016 520.967
1211 0 53.4415 13.0423 697 63.9426 75.1234 521.052
1212 0 56.4031 13.7581 776 63.1946 75.3531 520.216
1213 0 56.3214 13.0323 734 64.5463 75.0232 517.336
1214 0 58.3773 13.5498 791 63.9646 75.11 518.482
1215 0 59.274 14.104 836 62.8529 75.1136 518.37
1216 0 63.168 14.3585 907 62.3991 75.2216 516.366
1217 0 65.3097 12.6934 829 64.6068 74.7756 514.829
1218 0 66.4168 12.4667 828 64.9384 74.7283 515.128
1219 0 67.1829 12.5478 843 65.6928 75.1246 514.853
1220 0 68.2474 12.3961 846 66.1052 75.0697 512.884
1221 0 74.2497 13.899 1032 63.874 74.5 509.555
1222 0 77.3487 13.8981 1075 63.494 74.8456 509.846
1223 0 78.4478 14.1368 1109 63.835 74.1407 507.044
1224 0 84.3619 14.094 1189 62.8654 73.8234 508.373
1225 0 85.2797 14.3059 1220 63.1746 74.5459 508.675
1226 0 88.2951 15.1424 1337 62.6604 74.8444 505.328
1227 1 46.3522 13.4837 625 64.2528 74.6112 523.16
1228 0 46.3079 12.784 592 65.0726 74.8902 524.549
1229 0 49.3358 13.5196 667 64.6477 74.2414 523.229
1230 0 49.276 12.4604 614 67.0375 74.4072 519.84
1231 0 52.2441 14.1069 737 64.6798 74.6282 519.023
1232 0 56.2523 13.0839 736 64.3668 74.841 521.091
1233 0 54.4856 14.0771 767 63.8488 74.09 519.967
1234 0 57.4748 12.562 722 65.9197 74.6537 519.018
1235 0 57.2502 13.3449 764 65.3979 74.7657 517.459
1236 0 61.2113 15.5364 951 62.2093 74.1504 517.304
1237 0 63.403 13.3905 849 64.51 74.8127 517.339
1238 0 63.2709 13.1182 830 65.0072 74.6964 517.134
1239 0 67.3131 14.8411 999 62.8228 75.3263 513.134
1240 0 69.4707 13.4445 934 64.6552 74.7966 512.627
1241 0 72.2793 13.7522 994 63.998 74.7586 512.896
1242 0 74.2937 13.9581 1037 64.4166 74.729 511.05
1243 0 74.3035 13.1488 977 64.9969 75.1423 512.25
1244 0 78.2129 14.7035 1150 63.7444 75.2887 507.042
1245 0 83.1527 13.7939 1147 63.4891 75.9503 510.016
1246 0 83.4993 13.1738 1100 65.2573 75.2691 505.555
1247 0 86.1347 12.6662 1091 65.8112 75.1402 506.538
1248 0 89.2709 13.1062 1170 65.8974 75.3 503.13
1249 0 93.4307 14.3101 1337 63.9925 75.2401 501.848
1250 1 49.1826 12.9314 636 64.5818 75.805 523.642
1251 0 50.4076 13.3313 672 65.8333 75.6652 522.374
1252 0 52.2544 12.4966 653 66.5084 75.7259 521.104
1253 0 53.3102 13.4683 718 64.8203 75.2423 522.423
1254 0 55.3361 13.2825 735 64.9075 74.9918 522.324
1255 0 55.3799 12.5858 697 66.3831 75.3802 520.954
1256 0 58.398 14.7437 861 63.5064 75.1603 517.93
1257 0 61.2042 13.2344 810 64.4395 75.0914 517.615
1258 0 63.3676 15.6231 990 62.3525 75.105 516.439
1259 0 65.1997 15.3988 1004 62.8317 75.2819 514.498
1260 0 68.2549 14.5484 993 63.4622 75.1803 515.839
1261 0 68.1483 14.3511 978 64.6135 74.725 513.496
1262 0 69.3534 11.6361 807 67.8761 74.6282 514.509
1263 0 74.4178 14.4992 1079 64.1362 75.2474 511.453
1264 0 77.32 14.4206 1115 64.7534 74.2637 509.783
1265 0 79.2429 14.3483 1137 65.2621 74.8575 509.877
1266 0 82.3807 13.9717 1151 66.1642 75.0182 508.603
1267 0 83.4099 14.159 1181 66.4682 74.3599 506.188
1268 0 85.2446 12.5287 1068 68.6854 74.7987 504.956
1269 0 89.3709 14.3223 1280 67.0352 74.4789 502.888
1270 0 91.3322 13.4454 1228 67.5977 74.6596 505.219
1271 1 46.3373 12.5169 580 69.4086 74.0466 522.881
1272 0 49.1712 13.4428 661 67.4266 73.5991 523.219
1273 0 50.233 12.7605 641 68.6131 74.039 521.644
1274 0 52.1683 13.3798 698 67.1246 74.8668 523.951
1275 0 53.2554 13.4071 714 67.874 74.2521 521.258
1276 0 53.4536 14.4798 774 66.9496 74.6292 520.463
1277 0 55.145 14.3077 789 67.3283 75.0773 520.355
1278 0 56.2509 13.9909 787 67.3583 74.9174 519.663
1279 0 59.1738 14.9728 886 66.254 74.5237 518.804
1280 0 63.3144 14.6096 925 66.4919 75.1308 517.604
1281 0 64.13 14.377 922 67.0521 74.9631 516.066
1282 0 65.2588 13.3928 874 69.1396 74.4668 514.891
1283 0 68.4644 15.7162 1076 65.8448 74.8392 514.29
1284 0 71.2479 14.0776 1003 67.1186 74.3101 513.518
1285 0 72.3372 14.4601 1046 67.5105 74.8222 512.468
1286 0 78.0928 15.4944 1210 65.105 75.2248 514.561
1287 0 77.5289 14.3172 1110 68.2703 75.3081 508.426
1288 0 81.6122 14.3606 1172 67.9369 74.4104 508.137
1289 0 82.4058 13.9432 1149 68.906 74.8207 505.693
1290 0 87.1642 13.7671 1200 68.6983 74.7108 507.942
1291 0 89.5648 14.1462 1267 68.4712 75.3781 506.957
1292 0 91.5268 14.9464 1368 67.5884 74.2712 505.015
1293 1 46.2531 14.0531 650 67.7708 74.9169 524.351
1294 0 48.2161 13.7713 664 68.7741 74.5663 523.863
1295 0 49.3544 15.1557 748 67.3342 73.7045 522.971
1296 0 51.277 13.5928 697 69.1478 74.9469 523.217
1297 0 54.1384 17.0674 924 64.119 74.8528 523.824
1298 0 56.1763 14.3833 808 67.2314 74.0483 521.645
1299 0 57.1868 14.6537 838 66.8878 74.3389 521.858
1300 0 58.2612 15.1044 880 66.7909 74.8466 520.553
1301 0 59.252 14.2611 845 67.6391 75.3018 522.899
1302 0 61.1834 16.9654 1038 64.7678 75.2033 520.339
1303 0 62.1849 13.8458 861 68.7933 75.5912 519.598
1304 0 64.2071 15.6836 1007 67.1817 74.5919 515.959
1305 0 65.3324 13.9441 911 69.1306 74.3798 517.822
1306 0 66.1828 12.8885 853 71.3177 75.0961 516.522
1307 0 70.1427 14.5703 1022 69.1722 74.5098 516.397
1308 0 71.3518 13.8189 986 70.4138 74.8935 513.841
1309 0 74.2582 14.5708 1082 69.5582 74.842 511.065
1310 0 78.2216 15.4177 1206 68.1791 75.9005 509.944
1311 0 80.4727 15.7445 1267 67.7522 75.6243 511.5
1312 0 81.287 14.2581 1159 69.8758 75.3589 511.292
1313 0 85.4175 14.3413 1225 70.2106 75.4457 509.116
1314 0 88.3078 14.5967 1289 69.5462 75.4616 508.495
1315 0 88.3095 13.1356 1160 71.4647 75.8224 506.164
1316 0 94.4118 15.1252 1428 68.7563 76.1737 505.713
1317 0 96.4776 15.5062 1496 68.8884 75.3576 504.395
1318 1 48.2194 15.3465 740 69.4541 74.8068 523.882
1319 0 52.3257 16.2826 852 67.5563 75.0153 524.736
1320 0 54.5897 14.9296 815 69.4528 74.6307 525.47
1321 0 55.267 14.4028 796 71.5477 75.5289 523.857
1322 0 53.2317 13.3943 713 74.9607 75.3801 521.374
1323 0 56.3307 14.5214 818 74.0098 74.7763 521.835
1324 0 59.3829 15.0043 891 72.9439 75.0516 521.208
1325 0 60.354 12.7912 772 76.1049 74.7293 520.535
1326 0 63.1278 16.0151 1011 72.364 74.7102 518.708
1327 0 62.3936 14.7932 923 74.6197 74.9144 521.377
1328 0 66.2504 16.3471 1083 71.9741 74.5051 518.797
1329 0 67.4295 16.2688 1097 72.5132 74.9234 518.648
1330 0 69.6433 14.603 1017 75.3854 75.9184 518.03
1331 0 72.5283 14.2289 1032 76.4012 75.2045 514.956
1332 0 72.5328 15.0415 1091 75.373 74.9395 516.556
1333 0 77.3123 14.9653 1157 75.5134 75.229 515.574
1334 0 78.3581 16.3097 1278 74.2316 75.4523 513.449
1335 0 79.2499 14.4732 1147 77.599 75.1186 511.949
1336 0 81.2825 13.6192 1107 79.7028 75.495 509.493
1337 0 87.2701 15.1484 1322 76.0961 74.7443 511.057
1338 0 88.2275 14.542 1283 77.8846 74.9548 507.078
1339 0 92.2845 15.5172 1432 76.1501 74.7898 504.9
1340 0 94.446 15.3739 1452 75.5441 74.3175 506.311
1341 0 98.3439 15.6593 1540 76.0948 75.2058 503.201
1342 0 100.157 14.4373 1446 77.9986 75.2773 504.18
1343 1 52.5163 14.8144 778 76.2918 74.9846 524.032
1344 0 54.3196 14.2306 773 76.2846 75.2342 526.072
1345 0 54.2124 15.3655 833 76.7683 75.0792 524.121
1346 0 59.3304 14.7479 875 76.7646 74.808 522.462
1347 0 59.337 14.5272 862 78.1427 74.1879 520.502
1348 0 60.5045 13.5031 817 80.9082 74.601 519.148
1349 0 63.5646 14.4892 921 78.9935 75.6895 519.008
1350 0 65.574 14.4722 949 77.9621 75.4299 521.244
1351 0 66.3241 14.1427 938 81.0032 75.7281 518.167
1352 0 68.2315 15.7845 1077 78.0696 75.2804 517.294
1353 0 71.314 14.1767 1011 80.2275 75.5321 516.774
1354 0 73.334 14.9862 1099 79.7416 75.0146 517.357
1355 0 75.3724 15.0586 1135 79.9806 74.4106 515.249
1356 0 77.373 15.5222 1201 80.149 74.8526 512.366
1357 0 79.3225 13.464 1068 83.647 74.9757 511.566
1358 0 82.3343 15.0848 1242 80.0998 75.2214 512.886
1359 0 85.3678 14.4551 1234 81.6418 75.2342 511.007
1360 0 89.2742 15.3012 1366 79.3302 75.7182 508.974
1361 0 91.3833 14.4665 1322 81.1256 75.8661 506.598
1362 0 95.3015 15.2359 1452 80.8623 75.1529 504.612
1363 0 96.7077 15.5624 1505 79.9415 75.1555 504.339
1364 0 100.325 15.7688 1582 79.7598 74.8748 502.769
1365 0 101.213 13.9409 1411 83.1899 75.6931 501.19
1366 1 54.3797 15.7779 858 80.0186 74.789 523.387
1367 0 55.5048 15.5662 864 80.316 75.191 524.922
1368 0 58.2903 13.5528 790 83.1076 75.4937 523.386
1369 0 60.4208 14.0018 846 83.1265 75.9409 522.812
1370 0 61.1409 15.1944 929 82.0807 76.1023 520.784
1371 0 64.2558 15.0492 967 82.1065 75.8108 520.545
1372 0 65.2443 14.9438 975 81.7713 75.6462 519.756
1373 0 68.4467 14.084 964 84.4772 76.1587 517.921
1374 0 69.229 13.7081 949 85.3246 76.1886 517.948
1375 0 71.3291 15.1551 1081 82.5125 74.7493 517.409
1376 0 73.3345 15.777 1157 81.1945 75.3276 516.406
1377 0 74.287 15.319 1138 81.8963 76.333 516.986
1378 0 78.6214 14.4999 1140 83.9728 75.5175 513.185
1379 0 81.3602 15.0196 1222 82.9043 76.221 512.395
1380 0 82.306 13.5956 1119 85.5871 76.0134 513.149
1381 0 85.7675 15.9967 1372 82.6757 75.4803 509.386
1382 0 87.2923 14.5374 1269 85.4768 76.015 509
1383 0 91.4463 16.4687 1506 81.3991 75.0837 508.581
1384 0 93.3199 14.7236 1374 84.6456 75.04 506.208
1385 0 95.5003 14.513 1386 85.3081 75.8918 503.634
1386 0 96.3054 14.4125 1388 85.7738 75.5749 503.004
1387 0 101.319 15.8607 1607 82.4151 75.6179 501.597
1388 0 105.296 16.5153 1739 81.0104 75.3767 499.93
1389 0 109.321 15.3492 1678 82.357 75.295 498.874
1390 1 59.2749 14.728 873 82.449 75.2165 523.806
1391 0 61.2592 14.8876 912 82.2423 75.5307 521.883
1392 0 63.367 15.1972 963 82.1983 75.2534 521.864
1393 0 66.228 15.3561 1017 81.12 75.2281 519.724
1394 0 67.2328 14.9332 1004 83.1116 75.1494 519.09
1395 0 69.48 16.1053 1119 80.5782 75.5889 517.561
1396 0 71.208 15.2511 1086 81.5129 75.2726 517.859
1397 0 74.2214 15.3729 1141 81.4829 76.199 516.496
1398 0 75.2805 14.7847 1113 82.5004 75.6226 515.245
1399 0 78.4094 16.2736 1276 80.2218 75.5165 512.031
1400 0 81.2974 16.0768 1307 80.5149 74.7131 512.448
1401 0 81.6857 14.1396 1155 83.4268 75.981 512.416
1402 0 84.2648 15.7717 1329 81.0956 74.8879 511.637
1403 0 88.31 15.8872 1403 80.7106 75.9109 510.286
1404 0 89.38 15.1488 1354 81.7836 74.1551 509.476
1405 0 92.2893 15.5489 1435 81.5596 74.1916 505.415
1406 0 95.6479 14.7416 1410 81.4567 74.7574 507.737
1407 0 98.3969 14.9192 1468 81.5906 75.4673 505.485
1408 0 101.262 16.1166 1632 79.9896 75.3266 500.745
1409 0 104.485 14.8634 1553 81.6639 74.8081 500.633
1410 0 108.178 15.1233 1636 81.1125 75.5416 499.194
1411 0 112.109 15.4314 1730 80.2532 75.4555 496.551
1412 1 56.4197 13.9845 789 82.3523 75.9506 523.872
1413 0 57.0942 14.66 837 83.0406 76.0275 521.374
1414 0 61.4422 15.006 922 81.1041 75.6041 523.187
1415 0 61.2265 14.9935 918 81.976 76.22 522.108
1416 0 63.0841 15.0593 950 82.7905 76.4042 520.636
1417 0 65.0853 15.5027 1009 81.8315 76.4103 519.482
1418 0 68.1024 13.9936 953 83.5383 76.4606 519.023
1419 0 70.2597 16.7379 1176 79.7338 75.7194 518.166
1420 0 71.2364 14.7537 1051 83.0048 76.255 518.3
1421 0 74.4068 15.805 1176 81.4158 76.159 516.616
1422 0 74.2034 16.0909 1194 82.4657 76.3015 514.541
1423 0 78.1681 15.8504 1239 81.3559 76.3688 515.086
1424 0 80.4118 15.0475 1210 81.6711 75.6876 515.847
1425 0 81.1116 16.841 1366 80.4231 75.9129 511.872
1426 0 85.3397 17.237 1471 79.3419 76.1999 510.734
1427 0 87.2491 17.1807 1499 79.8879 76.2288 509.357
1428 0 93.1829 17.1383 1597 78.2392 75.9217 509.607
1429 0 94.316 16.3175 1539 80.3619 76.1845 507.692
1430 0 97.134 17.1516 1666 78.3764 76.2635 507.495
1431 0 100.336 17.531 1759 77.7118 75.83 504.794
1432 1 51.2183 14.5261 744 82.0188 75.8844 527.493
1433 0 53.4012 14.7562 788 82.4036 75.783 527.099
1434 0 52.2727 14.3478 750 84.332 75.3653 524.812
1435 0 57.2583 14.8275 849 82.1472 75.6796 523.882
1436 0 55.5656 14.5054 806 82.8325 75.727 524.711
1437 0 58.3311 15.8749 926 80.1911 75.4773 524.441
1438 0 59.2825 15.6707 929 81.3262 75.3832 522.592
1439 0 60.5937 14.3414 869 83.3038 75.0322 521.592
1440 0 63.2459 16.1275 1020 80.0284 75.4373 522.583
1441 0 65.199 15.2456 994 82.5916 75.2435 519.593
1442 0 67.3211 15.2107 1024 82.3447 75.4141 518.716
1443 0 69.2048 16.0538 1111 80.9163 74.8434 518.057
1444 0 69.216 15.1555 1049 82.8122 74.7531 517.474
1445 0 72.6874 14.8719 1081 82.7438 75.6124 515.217
1446 0 74.4296 16.3107 1214 80.9102 75.2883 514.11
1447 0 77.2351 16.3527 1263 79.3064 75.5059 516.196
1448 0 80.276 16.2689 1306 79.9043 75.304 511.778
1449 0 80.3804 14.2074 1142 83.43 75.1226 509.663
1450 0 85.4501 15.5529 1329 80.6464 75.216 511.245
1451 0 88.2012 16.8592 1487 78.6274 75.1708 510.342
1452 0 90.3535 15.8489 1432 80.0957 75.4902 507.172
1453 0 93.295 15.0919 1408 80.3743 74.7067 506.554
1454 0 98.536 15.639 1541 79.2693 75.0247 504.561
1455 0 96.3557 13.3671 1288 83.4992 74.7158 504.246
1456 0 103.289 15.5002 1601 79.0231 75.5559 500.98
1457 0 104.282 15.7362 1641 78.8885 75.1164 501.33
1458 0 109.493 15.5261 1700 78.9182 75.0994 498.21
1459 0 109.288 14.0547 1536 81.6374 74.7936 497.731
1460 0 115.504 16.0081 1849 78.2201 75.4246 495.241
1461 0 119.439 14.3839 1718 80.039 75.3749 498.129
1462 1 58.2502 15.5193 904 79.5918 75.3772 522.509
1463 0 61.163 14.1916 868 82.0392 75.3836 520.848
1464 0 62.2099 15.1905 945 81.1439 75.6688 520.649
1465 0 62.1398 15.3042 951 81.9159 74.694 520.084
1466 0 67.3679 13.0923 882 83.4739 75.4569 519.116
1467 0 66.2595 14.2923 947 82.0032 74.9884 519.081
1468 0 67.6024 15.3249 1036 81.5492 75.0096 517.048
1469 0 68.588 14.1716 972 83.4218 75.106 516.11
1470 0 73.5204 15.3835 1131 81.5747 75.3431 514.895
1471 0 72.8854 14.9001 1086 82.8932 75.2468 515.21
1472 0 74.6304 15.1145 1128 83.133 76.016 514.939
1473 0 77.6501 16.4971 1281 79.6706 76.0445 516.012
1474 0 79.4758 16.181 1286 81.5607 75.7006 512.468
1475 0 80.7323 14.7401 1190 83.0345 74.9857 513.279
1476 0 84.5453 16.3818 1385 81.4917 74.9264 510.76
1477 0 84.6551 14.4705 1225 83.698 74.782 512.265
1478 0 88.4268 15.6174 1381 82.3867 75.2744 509.358
1479 0 91.4235 16.09 1471 80.4514 75.4997 511.058
1480 0 92.2425 15.3617 1417 83.4051 75.0953 506.278
1481 0 97.3166 15.4547 1504 82.2839 74.6184 505.517
1482 0 100.417 14.9776 1504 83.1596 74.6902 503.913
1483 0 103.615 14.3512 1487 83.9462 74.4149 502.509
1484 0 105.338 15.0752 1588 83.8992 74.5315 500.832
1485 0 110.52 15.5356 1717 82.385 74.1817 499.577
1486 1 53.4817 13.8178 739 83.134 74.6184 526.185
1487 0 56.6638 14.136 801 83.5506 75.1835 523.935
1488 0 56.3453 12.7074 716 87.3869 75.0978 522.642
1489 1 126.684 15.5189 1966 84.0544 74.4028 493.827
1490 0 130.828 16.8542 2205 81.2984 74.6154 492.422
1491 0 134.408 15.2596 2051 84.295 74.3564 490.489
1492 0 138.627 15.2279 2111 84.7409 74.6291 488.95
1493 0 142.649 15.2052 2169 84.7782 74.7727 486.053
1494 0 148.426 16.7153 2481 83.3837 74.9016 480.677
1495 0 151.7 15.5504 2359 85.5011 74.6299 478.515
1496 0 156.497 12.7798 2000 88.7355 74.529 480.68
1497 0 160.528 12.814 2057 88.3379 74.8444 480.202
1498 0 167.83 13.758 2309 86.7952 75.1122 476.244
1499 1 77.2903 15.3965 1190 87.5059 75.4412 514.062
1500 0 79.5205 15.1785 1207 87.5559 74.4159 510.829
1501 1 183.556 15.9788 2933 83.1763 74.9928 467.784
1502 1 134.573 16.4743 2217 83.0943 75.2607 489.556
1503 0 137.005 14.7878 2026 85.9812 74.7833 486.492
1504 0 139.994 15.3221 2145 85.3194 74.7189 482.832
1505 0 144.583 14.8288 2144 85.7826 74.4002 482.954
1506 0 149.864 15.2605 2287 84.7202 75.028 483.562
1507 0 153.326 15.4443 2368 85.0574 74.9869 476.932
1508 0 157.397 15.3751 2420 85.3145 74.6876 476.951
1509 0 164.654 15.3899 2534 85.2506 74.7257 473.526
1510 0 168.668 13.6363 2300 87.5439 75.0874 475.677
1511 0 174.817 15.4562 2702 84.7716 75.0163 468.665
1512 0 181.617 17.636 3203 80.4187 75.5654 468.847
1513 0 186.584 17.4988 3265 81.2646 74.7556 463.312
1514 0 190.666 16.2588 3100 84.1648 74.2755 459.835
1515 0 196.59 15.6213 3071 85.3768 74.6724 455.318
1516 1 129.533 13.8421 1793 87.8946 75.5231 489.764
1517 0 134.606 14.4273 1942 87.2029 74.981 488.44
1518 0 140.64 15.5361 2185 85.4508 75.5455 483.083
1519 0 145.758 15.0592 2195 85.9472 75.0542 481.961
1520 0 148.541 14.777 2195 86.9904 74.6296 479.827
1521 0 155.595 14.859 2312 86.0779 75.0895 478.145
1522 0 159.6 14.6178 2333 86.6648 74.8114 474.126
1523 0 165.527 15.3087 2534 84.4152 75 473.805
1524 0 170.5 15.824 2698 84.3176 75.3432 468.534
1525 0 175.651 14.0733 2472 86.4296 74.8892 469.669
1526 1 79.8285 13.3536 1066 86.2251 75.6754 513.739
1527 0 83.509 14.4176 1204 84.5955 75.2193 512.926
1528 0 85.3169 13.4557 1148 86.493 74.3563 510.305
1529 0 88.4003 15.2601 1349 84.0504 74.6323 506.816
1530 0 89.5198 14.6336 1310 84.4359 75.2519 506.961
1531 0 93.1914 16.2461 1514 80.4366 74.8758 508.869
1532 0 93.4552 13.4396 1256 87.0748 75.2643 503.154
1533 0 98.3536 15.0071 1476 82.8191 74.7676 504.801
1534 0 99.4405 13.8776 1380 85.3246 74.608 501.999
1535 0 104.352 14.8057 1545 82.5366 74.6343 503.315
1536 0 107.467 15.335 1648 82.2057 74.5752 500.57
1537 0 112.903 14.8889 1681 81.9358 74.3843 498.571
1538 0 115.586 14.1539 1636 83.2665 74.3148 498.014
1539 0 117.427 14.2983 1679 83.9738 73.8231 496.214
1540 1 48.493 14.1464 686 82.707 73.5875 526.347
1541 0 50.3158 15.1444 762 80.3307 74.0249 526.247
1542 0 49.539 15.4424 765 81.0824 74.081 525.608
1543 0 50.44 14.1951 716 83.521 74.0601 524.747
1544 0 55.3432 14.4733 801 81.5992 74.3258 525.323
1545 0 54.9826 15.3867 846 81.1194 74.6017 523.227
1546 0 55.5161 14.8786 826 81.5194 75.0533 524.804
1547 0 57.4231 14.3844 826 83.0545 74.1913 522.521
1548 0 59.4184 13.346 793 83.8058 74.57 521.131
1549 0 62.2664 15.8352 986 79.4331 75.0385 520.793
1550 0 62.5813 15.9153 996 79.756 74.7731 518.258
1551 0 66.0041 14.7264 972 80.0741 74.2644 519.455
1552 0 69.5545 15.8724 1104 77.0163 74.4511 519.341
1553 0 69.5314 16.3811 1139 77.3187 73.6769 518.141
1554 0 73.3931 15.3284 1125 77.8773 74.7004 516.103
1555 0 75.2091 14.7721 1111 79.1818 74.1521 515.418
1556 0 77.2055 15.4782 1195 78.2753 74.2527 513.838
1557 0 79.2154 15.7924 1251 77.3301 74.2094 513.208
1558 0 83.2958 15.8591 1321 76.0961 74.4497 510.549
1559 0 85.299 16.4011 1399 76.0615 74.4853 509.165
1560 0 87.1931 15.4829 1350 77.7948 73.8541 508.501
1561 0 89.3639 14.592 1304 79.1595 74.7837 507.935
1562 0 95.4512 14.7719 1410 77.4929 74.7411 505.918
1563 0 98.5086 15.6332 1540 76.8006 74.4877 501.559
1564 0 100.285 15.8348 1588 76.4106 74.3879 500.324
1565 0 103.481 15.684 1623 76.6131 74.7733 500.092
1566 0 107.541 15.8917 1709 74.959 74.6852 503.222
1567 0 110.33 16.4054 1810 75.2006 73.8409 495.212
1568 1 56.1632 14.0127 787 77.1004 74.3647 522.055
1569 0 59.3783 14.0961 837 76.8865 74.0048 520.055
1570 0 59.2682 15.6745 929 74.1432 74.226 520.108
1571 0 62.4524 14.8113 925 76.1978 74.4216 518.735
1572 0 66.629 16.3142 1087 73.2824 74.6559 517.161
1573 0 66.2401 15.1419 1003 75.9192 75.1007 517.596
1574 0 67.3008 15.0221 1011 76.2255 75.3541 517.342
1575 0 68.2464 14.814 1011 76.7903 74.4876 514.815
1576 0 72.3144 15.0039 1085 76.0516 74.2608 514.687
1577 0 73.3323 15.532 1139 76.2941 74.6242 514.064
1578 0 75.1267 13.8166 1038 78.4952 74.8902 514.902
1579 0 77.323 14.9761 1158 77.6978 74.19 511.948
1580 0 81.3111 14.8811 1210 76.9554 74.5355 513.335
1581 0 83.2839 14.7087 1225 78.7657 74.5739 508.421
1582 0 85.4868 14.9731 1280 78.2234 75.0211 509.473
1583 0 88.3143 14.9579 1321 78.3452 74.779 508.003
1584 0 91.5686 14.6229 1339 78.8842 74.2636 506.177
1585 0 93.4401 14.8651 1389 78.0122 74.7336 507.469
1586 0 96.5584 14.3436 1385 78.478 75.2794 503.595
1587 0 101.372 14.7477 1495 78.2709 74.5492 500.712
1588 0 103.228 14.5794 1505 78.691 74.3515 499.999
1589 1 54.4855 12.7924 697 78.5524 74.3601 522.666
1590 0 58.1964 14.6057 850 77.4576 74.4918 520.664
1591 0 62.2315 14.9281 929 75.6642 74.2508 521.686
1592 0 62.2236 14.014 872 77.1021 74.4828 521.369
1593 0 63.2378 14.6748 928 77.194 74.6293 518.324
1594 0 64.6246 14.0813 910 79.4407 74.111 517.327
1595 0 69.5399 15.2718 1062 76.7194 74.2646 517.04
1596 0 67.36 12.3812 834 81.536 74.6295 517.538
1597 0 73.3345 16.0634 1178 75.9754 74.4397 514.778
1598 0 73.5475 14.562 1071 78.1625 74.7171 515.186
1599 0 74.3497 14.8891 1107 79.1337 74.5935 511.652
1600 0 76.3788 14.3757 1098 79.3707 74.7131 514.672
1601 0 78.413 13.008 1020 81.8774 75.2529 512.513
1602 0 83.5052 15.4601 1291 77.2455 75.1418 513.502
1603 0 85.3482 14.5053 1238 78.9023 74.7658 510.823
1604 0 87.4384 14.5016 1268 79.3541 73.6467 509.778
1605 0 89.4909 14.5937 1306 79.7711 73.7381 509.029
1606 0 92.3578 15.1476 1399 79.0314 73.9821 508.507
1607 0 94.6276 15.5874 1475 78.7437 73.802 507.106
1608 0 97.4664 13.697 1335 80.967 73.5925 508.443
1609 0 100.452 14.7733 1484 80.2547 74.5047 505.023
1610 0 105.431 15.3845 1622 78.7602 74.0117 503.734
1611 0 106.369 14.7224 1566 79.8946 74.3263 503.012
1612 0 109.578 15.5323 1702 79.9589 73.4313 498.476
1613 0 113.66 14.6313 1663 80.6302 73.6975 500.018
1614 0 116.278 14.3794 1672 81.549 73.9809 496.498
1615 0 121.461 14.6632 1781 80.7973 74.5806 494.987
1616 1 63.4153 14.271 905 80.4751 73.7138 520.431
1617 0 67.4842 14.0181 946 80.6903 74.593 520.247
1618 0 67.4078 13.6038 917 83.2388 74.5431 517.313
1619 0 70.5491 14.1603 999 81.7377 74.5105 517.329
1620 0 72.5994 13.8155 1003 81.679 74.9162 517.137
1621 0 75.3762 14.819 1117 80.4861 75.3563 516.153
1622 0 76.7847 15.1593 1164 80.5026 75.1744 515.122
1623 0 77.7752 13.9505 1085 83.5419 75.0525 513.669
1624 0 81.3217 15.2112 1237 80.6289 75.0744 513.276
1625 0 82.4142 15.4221 1271 81.3989 75.2234 512.526
1626 0 86.5675 15.1327 1310 81.1038 75.0496 512.202
1627 0 89.599 16.5739 1485 78.9003 75.1832 511.299
1628 0 90.6351 16.8809 1530 78.8065 75.3817 510.748
1629 0 92.398 15.1302 1398 82.6974 75.1409 508.064
1630 0 95.6203 15.5615 1488 81.4126 74.5282 508.386
1631 0 99.5525 15.5898 1552 81.9414 74.5451 505.988
1632 0 101.806 15.7555 1604 82.2431 74.586 503.256
1633 0 105.896 14.6654 1553 83.2408 74.6652 503.451
1634 0 107.61 15.4632 1664 81.9772 74.6791 501.52
1635 0 111.549 15.0965 1684 82.6081 74.6247 499.335
1636 0 114.561 14.7083 1685 83.6605 74.1703 495.241
1637 0 120.759 14.6987 1775 82.7577 74.1887 495.805
1638 0 121.818 14.5299 1770 84.0797 74.4328 492.162
1639 0 125.929 14.9609 1884 83.2606 74.19 491.528
1640 0 130.608 15.8642 2072 81.8475 74.5767 487.843
1641 0 137.986 15.893 2193 80.1459 74.1505 489.019
1642 1 71.2183 13.8026 983 83.4639 74.0539 518.376
1643 0 72.6468 14.8802 1081 82.1221 73.9843 517.351
1644 0 74.5915 14.5727 1087 82.7406 74.4177 516.268
1645 0 77.027 15.9425 1228 81.1327 74.548 512.798
1646 0 80.6347 16.8786 1361 78.4901 73.7612 512.752
1647 0 83.7429 15.3565 1286 81.2006 74.6275 512.473
1648 0 83.6433 15.5542 1301 80.4681 74.2875 513.783
1649 0 85.7531 15.7312 1349 81.0311 74.3558 510.184
1650 0 88.675 15.7654 1398 81.1824 74.4363 508.498
1651 0 89.6877 15.3644 1378 81.8396 74.0726 507.469
1652 0 93.9397 15.0841 1417 81.8271 73.9816 504.742
1653 0 97.5621 15.7028 1532 80.8806 73.7552 505.649
1654 0 101.731 15.7376 1601 80.2374 74.0706 504.32
1655 0 103.726 15.6759 1626 80.9551 74.7085 502.26
1656 0 108.781 15.9771 1738 80.2963 74.3769 499.555
1657 0 110.426 15.1233 1670 81.9784 74.1695 498.303
1658 0 114.791 15.1842 1743 81.5095 74.1853 496.906
1659 1 59.3879 13.6896 813 79.9975 73.9729 522.578
1660 0 59.569 13.8998 828 79.9106 74.43 523.717
1661 0 63.3574 14.947 947 77.0528 74.2059 523.11
1662 0 62.4237 13.6326 851 80.7474 74.1469 519.253
1663 0 65.8888 16.3609 1078 76.6503 73.8386 518.767
1664 0 67.6239 15.2757 1033 78.3998 74.3737 518.031
1665 0 69.9366 14.1843 992 80.2218 74.1905 517.4
1666 0 71.5855 14.3884 1030 80.5223 74.7418 516.041
1667 0 72.6896 15.4768 1125 78.6 74.5387 518.735
1668 0 75.0904 14.6623 1101 81.0282 74.5204 515.621
1669 0 77.6235 15.047 1168 79.9212 74.7894 515.377
1670 0 80.5508 15.7168 1266 79.4668 75.1003 514.419
1671 0 79.5764 13.4462 1070 84.9888 74.2813 511.624
1672 0 83.3838 14.3913 1200 81.8483 74.2275 513.08
1673 0 85.5716 14.7596 1263 81.673 74.7918 511.341
1674 0 86.5396 14.6754 1270 83.5677 75.0346 508.824
1675 0 89.6463 15.3938 1380 82.3942 74.3848 507.047
1676 0 91.2596 15.5929 1423 81.8166 73.884 507.717
1677 0 95.4415 14.6268 1396 82.8739 74.1963 507.701
1678 0 97.84 15.0348 1471 82.6744 73.5867 503.886
1679 0 99.849 14.0612 1404 84.0548 74.3789 504.396
1680 0 103.782 14.4822 1503 83.3387 74.2242 502.274
1681 0 107.755 14.2731 1538 83.0936 74.2679 501.319
1682 0 110.065 14.864 1636 82.209 74.6974 499.46
1683 0 112.554 13.1226 1477 85.3243 74.1462 498.269
1684 0 118.685 14.231 1689 83.3641 74.3771 496.811
1685 1 62.8973 15.4061 969 78.0578 74.7957 522.747
1686 0 63.9776 16.2557 1040 77.7231 74.8288 520.509
1687 0 65.5229 14.8956 976 79.3146 74.7316 521.481
1688 0 67.7399 14.5409 985 81.5827 74.4142 517.356
1689 0 66.5005 12.842 854 84.3009 73.6276 518.689
1690 0 69.7445 13.7932 962 82.396 74.369 519.266
1691 0 72.6759 14.9293 1085 81.7936 73.6249 516.899
1692 0 71.4191 13.0077 929 85.5931 73.7535 516.751
1693 0 74.6166 14.4472 1078 83.5417 73.7894 514.83
1694 0 78.7507 15.6062 1229 81.0382 73.6509 514.866
1695 0 80.597 14.4795 1167 83.7549 74.3753 513.568
1696 0 82.6561 14.5664 1204 83.2085 73.8322 512.303
1697 0 84.5019 14.8991 1259 84.2264 74.1747 511.238
1698 0 88.7531 14.7713 1311 83.6217 74.2166 511.621
1699 0 88.9378 14.8981 1325 83.9872 73.9509 507.103
1700 0 91.4395 15.3763 1406 84.0142 73.7212 507.655
1701 0 94.6054 15.5911 1475 83.1986 73.337 507.249
1702 0 95.6979 14.0233 1342 86.7265 73.994 506.654
1703 0 100.007 14.639 1464 84.5424 73.5184 506.066
1704 0 102.471 14.3748 1473 85.725 73.239 502.971
1705 0 106.417 15.4957 1649 82.6598 73.1498 503.399
1706 0 108.826 13.6089 1481 87.2005 74.2377 500.334
1707 0 112.645 15.9705 1799 83.2179 73.6587 498.33
1708 0 114.475 14.2039 1626 85.4686 73.8376 498.931
1709 0 118.162 14.0231 1657 85.8316 73.5238 495.346
1710 0 123.005 15.3653 1890 83.781 74.0127 494.851
1711 0 125.71 16.1005 2024 82.3434 73.915 494.519
1712 0 129.89 14.9049 1936 84.6172 72.9256 492.364
1713 1 68.0768 12.8384 874 88.5698 73.4359 515.96
1714 0 72.5117 14.1908 1029 83.9242 73.311 518.371
1715 0 72.7999 13.9149 1013 85.6387 73.5183 515.963
1716 0 76.8941 13.5511 1042 86.619 73.9415 514.536
1717 0 78.7656 14.2067 1119 85.1519 73.3512 515.86
1718 0 81.8683 13.9859 1145 85.7293 73.9389 513.061
1719 0 83.7226 14.2136 1190 85.3185 73.3647 511.959
1720 0 85.7792 15.4816 1328 83.0392 73.5964 511.413
1721 0 88.5772 14.7781 1309 84.3216 73.9526 510.613
1722 0 91.4538 14.5538 1331 84.3253 73.4485 507.583
1723 0 94.866 15.9172 1510 81.6954 74.1159 506.552
1724 0 97.7843 15.4626 1512 82.4332 74.3406 505.061
1725 0 101.742 14.7234 1498 82.4179 74.3645 504.143
1726 0 103.812 14.0061 1454 82.9484 74.2614 504.615
1727 0 109.861 14.7277 1618 81.6347 74.5031 500.031
1728 0 110.759 15.4119 1707 80.471 74.0252 500.548
1729 0 115.91 14.7959 1715 81.6834 73.9178 496.464
1730 0 119.732 14.9166 1786 80.794 74.1265 493.235
1731 0 123.955 14.2793 1770 81.2785 73.8898 495.119
1732 0 127.978 13.9165 1781 81.1943 73.8978 492.459
1733 0 133.89 14.2355 1906 80.8867 73.8158 486.061
1734 0 137.991 14.798 2042 79.454 73.788 483.757
1735 0 142.659 15.6878 2238 77.9839 73.1966 482.58
1736 0 147.676 14.6672 2166 79.2368 73.7281 479.807
1737 0 152.743 14.2593 2178 79.4077 73.7704 478.093
1738 0 159.945 16.1868 2589 75.8745 74.0313 477.431
1739 0 163.936 15.2681 2503 77.6604 74.3024 471.412
1740 0 168.125 14.5249 2442 79.1962 74.2645 470.885
1741 0 173.057 13.9954 2422 80.275 74.1718 466.228
1742 0 180.952 15.4793 2801 77.4888 73.9257 464.632
1743 0 186.289 14.8908 2774 78.1647 73.8641 464.559
1744 0 190.093 13.909 2644 79.8786 73.5518 460.59
1745 0 197.831 15.7205 3110 76.8293 73.8154 458.549
1746 0 201.888 13.6809 2762 80.2169 73.3023 453.504
1747 0 209.166 15.9252 3331 76.3503 73.423 450.345
1748 0 215.821 14.841 3203 77.4296 73.6647 449.089
1749 0 222.772 15.765 3512 75.6407 73.6458 449.003
1750 0 230.364 16.6041 3825 74.4353 73.3341 443.197
1751 0 235.918 15.9971 3774 75.7557 74.1584 436.247
1752 0 244.774 15.116 3700 76.9146 73.1924 437.506
1753 0 252.788 17.0815 4318 73.8092 73.6197 431.898
1754 0 260.087 15.5294 4039 76.381 73.1443 425.406
1755 1 53.8029 13.2521 713 72.2202 73.3618 525.414
1756 0 56.7877 12.4147 705 74.6156 74.5532 521.821
1757 0 57.635 13.065 753 73.8845 73.6228 523.197
1758 0 58.454 12.4714 729 76.5322 73.7421 519.957
1759 0 59.8124 13.743 822 74.6338 73.6484 519.271
1760 0 62.823 14.4215 906 72.362 73.0993 521.318
1761 0 61.6538 14.1597 873 74.8499 73.4593 517.868
1762 0 64.7374 14.6901 951 73.5563 73.6236 516.826
1763 0 66.1407 12.3071 814 76.0737 74.0528 518.061
1764 0 68.8316 14.4556 995 73.2372 73.7709 519.033
1765 0 71.9101 13.8784 998 74.1423 73.3297 515.77
1766 0 69.895 13.6061 951 75.53 73.1493 514.511
1767 0 74.6464 14.6692 1095 72.9452 73.5799 515.678
1768 0 78.6537 14.7228 1158 72.1857 73.9352 513.742
1769 0 81.7689 15.1158 1236 70.9029 74.75 514.844
1770 0 81.2906 14.2944 1162 73.1652 74.8416 510.503
1771 0 82.8144 14.0193 1161 73.0568 74.0129 511.966
1772 0 85.4082 14.9868 1280 71.857 73.725 509.856
1773 0 89.2366 14.9826 1337 72.1167 73.6058 506.967
1774 0 90.1332 14.1568 1276 74.123 73.3691 506.418
1775 0 93.9032 14.6853 1379 71.7273 73.1595 508.515
1776 0 96.7399 15.0093 1452 72.343 73.4325 504.205
1777 1 53.7641 14.3776 773 70.1229 73.3622 525.95
1778 0 53.1358 13.9078 739 72.8539 73.8322 523.437
1779 0 54.1156 12.7874 692 74.8136 74.3931 523.704
1780 0 55.1392 13.3299 735 74.1469 73.6912 522.914
1781 0 55.9176 13.6451 763 74.0931 74.1442 522.489
1782 0 57.5434 13.6245 784 72.9043 73.6837 522.44
1783 0 62.6028 14.6479 917 70.5278 74.0709 521.347
1784 0 63.6729 15.5796 992 69.38 73.878 519.319
1785 0 63.9834 14.4725 926 71.2786 73.7592 519.5
1786 0 69.8276 15.4667 1080 68.7361 73.5417 519.446
1787 0 69.7482 13.5487 945 72.0455 74.2614 517.365
1788 0 75.0467 15.9767 1199 67.5012 73.6622 515.446
1789 0 76.1434 15.2475 1161 68.9724 73.8122 512.984
1790 0 79.8762 15.6743 1252 68.0511 74.0966 511.253
1791 0 80.7675 14.5727 1177 70.226 74.1427 508.018
1792 0 83.9277 14.7031 1234 69.7277 74.3598 508.213
1793 0 87.1992 14.7134 1283 68.6157 74.3196 509.476
1794 0 91.0251 14.106 1284 69.764 73.9953 507.166
1795 0 92.8606 16.7132 1552 67.422 74.5966 502.151
1796 0 94.8482 14.9607 1419 69.284 74.3333 501.528
1797 0 100.961 15.0949 1524 68.1778 74.4245 502.44
1798 0 104.126 15.0202 1564 68.3222 73.7903 499.461
1799 1 56.4542 13.5154 763 69.1704 73.3001 520.571
1800 0 56.9697 13.4282 765 69.7255 73.2706 517.903
1801 0 60.032 13.6261 818 69.9218 74.0856 519.697
1802 0 61.0256 14.7643 901 68.677 73.7136 520.34
1803 0 62.0504 13.9242 864 70.7778 74.0127 518.35
1804 0 65.022 15.5332 1010 67.8911 74.0852 517.983
1805 0 67.2179 13.1364 883 71.3737 74.2163 516.428
1806 0 70.1019 17.4888 1226 65.2488 74.013 517.379
1807 0 70.7721 15.3309 1085 67.8866 73.5594 516.394
1808 0 72.8344 15.5696 1134 68.3245 73.59 513.425
1809 0 74.1546 15.6295 1159 68.3382 74.2882 512.561
1810 0 76.988 15.6518 1205 68.0531 74.2523 510.472
1811 0 80.1256 16.886 1353 66.1892 74.0983 510.922
1812 0 79.1637 15.3732 1217 68.6261 73.3057 510.214
1813 0 86.2407 18.5527 1600 63.8306 73.3969 508.932
1814 0 85.8394 16.4843 1415 67.3802 73.0876 507.136
1815 0 89.4906 16.9068 1513 66.2842 73.2664 507.24
1816 0 91.9175 16.0361 1474 67.3725 73.7185 506.458
1817 0 93.978 15.642 1470 67.8095 73.7694 506.003
1818 0 98.0115 16.7837 1645 66.0796 73.5216 504.351
1819 0 101.012 17.1366 1731 65.7464 74.3813 499.923
1820 0 104.042 16.2915 1695 66.554 74.2897 499.856
1821 0 107.981 15.1693 1638 68.1074 73.5378 497.15
1822 0 113.683 17.7951 2023 64.6026 73.7825 495.095
1823 0 115.812 15.2229 1763 67.557 73.4969 495.001
1824 0 119.428 16.3278 1950 66.3472 74.162 492.297
1825 1 59.4071 13.1971 784 68.2143 74.0638 519.672
1826 0 64.1792 14.3816 923 66.2654 73.5634 519.217
1827 0 65.0383 14.9297 971 67.1596 73.7271 516.48
1828 0 68.5896 14.4774 993 66.7382 73.0816 518.656
1829 0 67.4487 13.6103 918 68.9684 73.6656 516.614
1830 0 71.939 16.2638 1170 65.3556 74.5444 517.318
1831 0 71.3925 15.9541 1139 66.3169 74.1694 514.191
1832 0 71.6137 14.4246 1033 69.456 73.3001 513.942
1833 0 74.1371 14.8374 1100 69.1264 73.3327 512.59
1834 0 74.1502 14.5785 1081 70.6781 73.815 507.451
1835 0 79.0123 16.2886 1287 68.0917 73.3201 510.168
1836 0 80.9037 17.0944 1383 67.423 72.8865 510.394
1837 0 83.4283 16.9607 1415 67.1314 73.2919 508.881
1838 0 85.1138 14.51 1235 71.4421 73.7409 506.867
1839 0 88.7525 16.2362 1441 68.467 73.7446 507.578
1840 0 91.1232 16.4502 1499 67.8379 73.483 507.007
1841 0 93.0662 15.3976 1433 69.6692 74.0223 503.696
1842 0 98.1741 16.104 1581 68.1423 73.4915 503.75
1843 0 99.0846 15.8148 1567 69.3152 73.9049 499.208
1844 0 103.244 15.6038 1611 69.1527 74.1117 498.344
1845 0 107.433 15.4701 1662 68.8514 74.1336 499.041
1846 0 109.109 14.4075 1572 71.4084 73.7583 491.218
1847 1 56.3874 13.691 772 68.2707 73.921 522.198
1848 0 59.4342 14.6717 872 68.5619 74.0505 521.819
1849 0 61.2446 16.0831 985 66.3604 74.0437 522.706
1850 0 58.3206 14.266 832 71.0913 73.8606 517.78
1851 0 58.9961 13.3907 790 74.219 73.8886 515.951
1852 0 62.0379 15.684 973 70.8592 74.0103 517.283
1853 0 64.591 13.6242 880 74.0693 73.7875 516.302
1854 0 67.116 14.0503 943 74.0944 73.5228 516.904
1855 0 67.7642 13.1633 892 75.5269 73.8722 515.677
1856 0 68.1004 13.2305 901 75.7358 74.222 516.347
1857 0 72.2338 14.9653 1081 73.4709 74.2664 517.502
1858 0 73.6962 14.5191 1070 75.4748 74.1028 515.115
1859 0 75.2421 13.9948 1053 76.6705 74.1035 513.629
1860 0 76.3296 15.289 1167 74.6941 73.9434 515.894
1861 0 79.3865 15.3679 1220 75.827 73.309 511.861
1862 0 81.4454 14.3777 1171 77.3245 73.9539 509.974
1863 0 83.6113 14.1847 1186 77.7513 73.9342 510.749
1864 0 86.1175 15.6879 1351 75.8053 73.3893 507.662
1865 0 89.7582 14.0934 1265 77.2885 73.3281 509.05
1866 0 92.3922 15.5857 1440 76.2188 73.9479 506.014
1867 0 93.1683 14.8334 1382 77.9551 73.4949 504.884
1868 0 96.0581 15.272 1467 77.2522 73.1506 502.606
1869 0 101.399 15.5525 1577 76.2765 74.0533 502.848
1870 0 102.453 14.4945 1485 78.3091 73.8626 502.444
1871 0 106.946 13.9416 1491 79.4494 73.6264 499.826
1872 0 111.068 15.1439 1682 78.2241 73.6504 496.819
1873 0 112.325 14.0752 1581 80.4877 73.9374 495.268
1874 0 116.288 14.1975 1651 81.1629 73.1799 491.558
1875 0 121.524 14.0054 1702 81.0758 72.9418 492.325
1876 1 68.4948 13.8989 952 79.6019 73.6155 514.685
1877 0 70.6712 13.1454 929 80.0161 73.3778 515.235
1878 0 73.2135 14.806 1084 78.2869 73.3127 516.052
1879 0 76.1534 15.7314 1198 79.1018 73.202 511.006
1880 0 75.8571 13.7495 1043 81.9454 73.5321 511.573
1881 0 77.2323 14.5794 1126 80.3766 72.9734 513.72
1882 0 79.5495 14.5821 1160 81.9905 73.5897 509.3
1883 0 82.3483 14.1229 1163 83.1427 73.6096 508.34
1884 0 86.7044 13.967 1211 83.0619 73.531 506.875
1885 0 87.0959 12.7101 1107 85.6477 73.308 506.9
1886 0 87.9356 13.8852 1221 84.8133 73.2351 503.785
1887 0 92.4935 13.6334 1261 84.9112 73.5638 504.622
1888 0 95.4719 14.6326 1397 83.1088 73.3472 503.521
1889 0 97.6567 13.6191 1330 84.0511 72.7564 504.004
1890 0 102.039 14.4749 1477 83.2701 73.0657 500.829
1891 0 104.339 14.7405 1538 83.3316 73.1899 498.488
1892 1 54.8039 12.5903 690 85.0609 73.4333 520.448
1893 0 56.7185 12.7648 724 83.2307 73.9765 523.405
1894 0 57.1512 12.9306 739 85.843 73.4912 520.773
1895 0 59.584 14.6852 875 82.0537 73.496 522.337
1896 0 62.3898 14.3774 897 82.9777 73.4548 520.156
1897 0 62.7804 13.3322 837 86.1912 73.6941 515.581
1898 0 63.3876 12.9678 822 87.2482 73.5852 515.818
1899 0 66.4361 13.6221 905 84.7856 73.9812 517.986
1900 0 68.3427 14.4565 988 84.413 72.8684 515.153
1901 0 71.5271 14.2184 1017 83.8997 73.8712 514.119
1902 0 72.4716 13.8675 1005 85.1542 73.5721 512.914
1903 0 74.4575 13.8737 1033 84.6612 73.6563 512.646
1904 0 77.6021 14.9223 1158 83.2945 73.9206 511.911
1905 0 79.577 14.464 1151 83.9522 73.3093 508.234
1906 0 83.382 16.2865 1358 80.0979 73.1797 509.164
1907 0 85.3398 16.1472 1378 80.8462 73.4601 507.366
1908 0 88.2238 15.9141 1404 80.3034 73.0271 506.665
1909 0 89.2652 13.6111 1215 85.0387 72.5926 503.676
1910 0 93.9741 15.7065 1476 81.0495 73.6226 503.418
1911 0 96.7131 15.1272 1463 82.0827 73.9344 500.975
1912 0 96.325 13.7348 1323 85.294 73.5246 499.389
1913 0 103.373 14.5493 1504 83.0446 72.5352 498.068
1914 0 105.799 14.4331 1527 83.1827 73.4774 497.598
1915 0 108.357 13.8616 1502 84.2916 73.5413 494.389
1916 0 111.548 15.2759 1704 82.0059 73.169 492.292
1917 0 118.704 17.0508 2024 78.1225 73.4718 492.018
1918 0 117.277 13.8731 1627 83.9822 72.8703 491.232
1919 0 124.292 16.0026 1989 79.8829 73.1383 489.094
1920 1 53.9871 11.5027 621 80.3172 74.0483 524.655
1921 0 55.4256 13.3512 740 79.9257 74.0365 521.057
1922 0 56.4228 15.2775 862 78.0336 73.9246 519.678
1923 0 59.1181 13.4138 793 79.4981 73.8335 521.264
1924 0 56.7697 15.0785 856 80.465 73.4696 519.194
1925 0 62.5422 14.838 928 78.5657 73.431 520.718
1926 0 60.8079 13.1891 802 82.8404 73.091 517.766
1927 0 63.2975 13.3181 843 81.5813 74.0202 520.949
1928 0 66.1042 13.9023 919 81.1643 73.9782 518.264
1929 0 67.5902 14.9874 1013 79.2656 73.4314 519.394
1930 0 69.1794 12.9374 895 82.514 73.3408 517.082
1931 0 71.2509 14.6525 1044 79.2347 73.7308 518.161
1932 0 73.4088 13.9902 1027 80.4722 73.665 516.772
1933 0 75.9758 16.0446 1219 76.8638 73.233 514.834
1934 0 79.6083 16.2671 1295 75.5537 72.8973 516.239
1935 0 81.3067 15.8412 1288 76.788 72.6724 513.655
1936 0 83.5802 14.4771 1210 77.7984 72.8818 512.745
1937 0 86.609 14.8714 1288 77.4138 71.9503 510.73
1938 0 89.5105 16.2327 1453 75.0688 71.6359 510.152
1939 0 92.6076 15.3119 1418 75.7384 71.2292 509.948
1940 0 92.6459 15.1868 1407 76.8323 72.3795 506.533
1941 0 97.248 15.2805 1486 76.2409 71.3573 504.118
1942 0 102.128 16.1268 1647 74.1287 71.3103 504.703
1943 0 106.517 15.162 1615 75.3263 71.2799 504.817
1944 0 107.38 14.416 1548 76.741 71.281 498.497
1945 0 112.18 14.7798 1658 75.7135 71.6309 499.525
1946 0 117.754 14.3689 1692 76.081 71.9858 498.046
1947 0 121.521 15.5447 1889 74.2684 72.0148 496.399
1948 0 125.507 14.5889 1831 75.4025 70.7581 494.602
1949 0 127.167 13.9974 1780 76.4635 71.4298 492.442
1950 1 65.1036 13.9316 907 76.6913 70.6483 517.831
1951 0 66.6558 15.4825 1032 73.9399 71.5426 520.64
1952 0 66.5334 14.8497 988 75.502 71.3138 516.276
1953 0 68.9284 13.4778 929 77.2207 71.6652 514.913
1954 0 71.5713 14.503 1038 75.7177 71.9162 516.209
1955 0 72.4427 15.8056 1145 74.0856 71.7432 516.916
1956 0 75.265 14.4689 1089 76.2911 71.0753 513.446
1957 0 79.9121 12.5263 1001 78.969 71.1678 513.333
1958 0 78.121 15.54 1214 75.7792 71.7274 513.401
1959 0 81.8779 14.0209 1148 78.223 71.811 512.519
1960 0 85.2825 16.0408 1368 75.8955 72.2142 511.263
1961 0 86.2644 16.0321 1383 76.585 71.9761 507.501
1962 0 88.1427 15.9968 1410 76.9766 72.2021 507.951
1963 0 93.3739 14.8436 1386 77.2828 71.982 506.984
1964 0 93.6989 16.1155 1510 76.0742 71.5536 505.441
1965 0 98.4216 15.4641 1522 77.5966 72.0848 501.057
1966 0 102.245 16.3529 1672 75.3349 72.4833 502.207
1967 0 102.9 14.6938 1512 78.707 73.1825 500.263
1968 0 109.287 16.7175 1827 74.462 71.9836 500.229
1969 0 108.667 16.7115 1816 76.1564 72.7302 496.459
1970 0 111.019 15.1596 1683 79.5657 72.0024 498.185
1971 0 114.008 16.7883 1914 77.8198 71.1223 493.536
1972 0 115.719 15.1833 1757 80.617 72.2618 491.421
1973 0 122.171 15.0691 1841 79.8724 72.3188 489.844
1974 0 127.551 16.1347 2058 77.6652 72.8931 489.996
1975 0 132.099 15.9124 2102 78.0842 72.5514 487.377
1976 0 135.898 16.0488 2181 78.1215 73.7189 487.33
1977 1 74.9902 15.202 1140 77.7439 73.1044 515.307
1978 0 73.4175 15.0645 1106 80.5036 72.6926 513.233
1979 0 77.2836 14.3239 1107 81.0578 73.4851 513.285
1980 0 82.5249 14.2987 1180 80.1958 73.2932 512.931
1981 0 83.5714 15.4 1287 79.7933 73.4903 511.047
1982 0 86.2439 15.3982 1328 80.0738 72.9315 508.913
1983 0 88.066 15.2613 1344 81.3579 72.8787 507.889
1984 0 88.4635 15.9953 1415 81.5039 73.0657 503.572
1985 0 93.0945 15.1459 1410 81.8461 72.9397 505.372
1986 0 95.1058 16.6551 1584 80.1881 73.4931 503.594
1987 0 100.042 15.2636 1527 82.3373 73.4663 501.781
1988 0 99.7754 15.2242 1519 83.0138 73.6833 499.462
1989 0 100.306 15.1437 1519 84.6695 73.6419 494.909
1990 0 107.908 15.9581 1722 81.8432 73.9483 497.498
1991 0 107.434 15.0046 1612 84.2208 74.3387 494.456
1992 0 111.585 16.2836 1817 81.9934 74.0044 492.873
1993 0 117.832 17.0242 2006 79.7343 73.9217 490.737
1994 1 58.5547 11.4252 669 88.1166 74.7982 515.193
1995 0 64.0066 14.2954 915 81.8426 74.3825 515.814
1996 0 62.4442 15.1175 944 81.7807 74.3051 515.073
1997 0 64.5845 15.561 1005 81.0547 74.6149 514.297
1998 0 67.7296 14.1297 957 83.3553 74.3511 512.995
1999 0 72.455 14.6988 1065 81.6526 74.6873 512.887
2000 0 74.3277 14.6379 1088 81.2537 74.012 514.115
2001 0 74.553 14.5668 1086 82.2256 73.8425 510.916
2002 0 74.3944 14.4634 1076 83.6487 73.9238 510.426
2003 0 80.1922 14.8643 1192 82.0889 73.7248 508.204
2004 0 79.7113 13.85 1104 84.5924 74.3705 507.737
2005 0 84.0107 15.3671 1291 81.543 73.3253 507.048
2006 0 85.4985 14.6669 1254 81.3876 74.2153 507.654
2007 0 90.2149 14.7869 1334 80.8786 73.6387 505.46
2008 0 91.9552 14.6484 1347 81.6719 73.9094 503.581
2009 0 94.8481 16.0572 1523 79.5417 73.803 501.459
2010 0 97.0406 13.7056 1330 82.918 73.6571 500.987
2011 0 99.4959 15.2871 1521 80.8218 73.4938 497.918
2012 0 104.364 14.1715 1479 81.4929 73.332 498.464
2013 0 108.601 16.1969 1759 77.9028 73.9386 496.196
2014 0 112.266 15.0891 1694 78.7934 73.559 495.831
2015 0 114.868 15.4003 1769 79.2058 73.4206 490.939
2016 0 117.819 12.8332 1512 83.6495 72.916 486.589
2017 1 45.7533 11.6494 533 80.227 73.424 521.167
2018 0 47.6463 13.0965 624 75.1907 73.3397 525.117
2019 0 47.9566 13.1369 630 76.7619 73.7571 524.354
2020 0 51.8249 13.9701 724 75.721 74.1326 523.424
2021 0 49.5624 12.2875 609 80.7586 74.1938 521.036
2022 0 53.1859 13.2366 704 78.6349 73.5866 520.057
2023 0 53.6603 12.6723 680 80.0676 73.5882 521.666
2024 0 53.6656 12.2984 660 81.1758 73.9636 520.43
2025 0 56.3517 12.7769 720 80.6139 73.8167 519.879
2026 0 59.8233 14.3757 860 76.4128 73.9686 522.293
2027 0 59.8922 14.1588 848 78.1061 73.6792 520.546
2028 0 55.5346 12.8568 714 82.8235 73.4692 515.98
2029 0 59.4964 15.8329 942 77.1539 73.4416 516.731
2030 0 66.0067 15.6954 1036 74.5415 73.1332 519.24
2031 0 62.4217 13.6331 851 79.7485 72.5476 512.855
2032 0 71.4661 16.1335 1153 74.2437 72.9835 515.853
2033 0 71.2096 13.7762 981 77.737 73.8196 515.949
2034 0 75.2673 15.89 1196 73.8512 72.8905 514.213
2035 0 77.1168 14.5364 1121 76.0776 72.8528 511.73
2036 0 76.8556 14.6639 1127 76.1668 72.8216 509.887
2037 0 79.5364 15.5778 1239 75.5004 72.845 508.26
2038 0 84.5776 14.3064 1210 76.5058 73.0107 506.091
2039 0 83.4124 13.679 1141 78.1884 73.2673 504.203
2040 0 86.3964 13.6927 1183 78.0008 72.847 505.574
2041 0 88.5838 14.1561 1254 78.1419 73.425 502.262
2042 0 94.6577 15.0859 1428 75.7948 73.2269 501.569
2043 0 96.3044 15.6691 1509 76.2618 72.8038 498.849
2044 0 98.799 14.6358 1446 77.473 72.269 500.337
2045 0 102.273 15.2043 1555 77.0135 72.6142 499.334
2046 0 104.389 14.5993 1524 78.6968 72.6975 492.492
2047 0 106.499 13.8404 1474 78.9912 72.9118 495.56
2048 1 56.2884 12.0451 678 78.5354 73.4145 520.288
2049 0 57.5172 12.4832 718 79.2827 73.585 517.932
2050 0 58.5099 12.0151 703 80.8478 73.5619 516.331
2051 0 62.3012 14.1731 883 77.4621 72.8426 515.511
2052 0 64.5178 14.5076 936 76.7938 72.8419 514.248
2053 0 64.4622 13.9151 897 78.4515 72.2609 512.251
2054 0 69.4043 14.4948 1006 76.3241 73.2584 512.921
2055 0 71.4704 15.6428 1118 75.0143 72.6476 513.277
2056 0 73.4898 14.4782 1064 77.016 72.6297 509.662
2057 0 75.3256 13.6209 1026 77.5575 73.4805 511.197
2058 0 76.4312 13.8556 1059 78.611 72.3069 507.069
2059 0 78.2319 13.3961 1048 79.2481 72.7901 505.542
2060 0 82.3255 13.7139 1129 81.4216 72.6289 506.809
2061 0 85.3315 14.0862 1202 81.1273 72.7379 503.533
2062 0 87.4046 13.7521 1202 81.5898 73.0258 503.491
2063 1 42.2602 12.5414 530 81.2736 73.9415 522.713
2064 0 44.4375 11.8369 526 82.6559 73.4981 524.074
2065 0 41.5492 12.0099 499 85.0721 73.8958 522.912
2066 0 49.4823 12.0447 596 82.5906 73.3406 523.226
2067 0 49.9452 13.7551 687 79.3828 73.4003 523.408
2068 0 50.2677 15.119 760 77.4263 73.0737 524.117
2069 0 49.6901 14.4496 718 79.773 72.6797 522.623
2070 0 51.5124 13.5113 696 81.8391 72.5647 519.957
2071 0 52.534 13.8577 728 80.706 72.5055 521.563
2072 0 55.4435 14.0684 780 79.732 72.7641 520.972
2073 0 54.6991 13.1081 717 82.378 72.8884 519.312
2074 0 54.5014 13.174 718 82.0306 72.8259 518.595
2075 0 59.758 15.9309 952 77.3393 72.3887 518.618
2076 0 61.4061 14.4937 890 79.6225 72.3303 517.811
2077 0 63.4071 14.7144 933 79.6088 71.9336 515.603
2078 0 65.5008 13.664 895 81.8257 71.9609 513.191
2079 0 69.0087 14.0852 972 81.0329 71.9753 511.742
2080 0 73.3234 15.2202 1116 78.1586 72.0905 515.853
2081 0 74.2769 14.8633 1104 79.981 72.1232 512.739
2082 0 76.0867 14.7332 1121 79.9456 71.9902 513.504
2083 0 80.1184 16.6628 1335 77.1588 71.7528 511.983
2084 0 81.7978 15.4894 1267 79.5328 72.0126 510.215
2085 0 85.622 15.0779 1291 80.4911 72.2928 508.277
2086 0 84.9495 14.2791 1213 82.2506 72.0692 507.747
2087 0 88.1822 16.7721 1479 78.6924 72.0203 505.266
2088 0 90.3225 15.1789 1371 80.8665 71.9978 507.248
2089 0 94.5835 15.2987 1447 81.0263 72.4402 503.026
2090 0 96.3513 14.2292 1371 82.6543 72.4719 502.117
2091 0 100.248 15.9106 1595 79.5674 72.2458 503.443
2092 0 104.527 15.862 1658 79.7569 72.0989 500.988
2093 0 106.137 14.9241 1584 82.2058 72.5379 495.622
2094 0 109.023 16.0792 1753 80.4444 72.4501 496.082
2095 0 111.539 14.3447 1600 84.1425 72.7006 492.231
2096 0 116.2 16.2306 1886 80.2922 71.8393 495.994
2097 0 118.178 15.5528 1838 82.444 71.9864 492.03
2098 0 123.414 15.3953 1900 81.8495 71.551 495.462
2099 0 127.33 15.2124 1937 82.285 71.6113 491.211
2100 0 128.891 16.0989 2075 82.2569 72.2896 484.154
2101 0 135.508 14.6634 1987 84.0272 72.2632 485.349
2102 0 136.883 15.1443 2073 84.0376 72.1302 481.996
2103 0 144.785 15.2156 2203 83.626 72.1807 481.666
2104 0 145.394 13.6457 1984 86.1018 72.0958 482.151
2105 0 153.24 15.2441 2336 83.2286 72.244 479.797
2106 1 79.8289 13.9799 1116 85.4597 72.5672 508.888
2107 0 81.9071 12.5752 1030 87.501 72.6223 508.064
2108 0 88.3194 14.391 1271 82.6208 72.5791 511.096
2109 0 89.1797 13.7812 1229 84.0065 72.5427 508.071
2110 0 93.1795 14.6492 1365 82.3319 71.8557 507.413
2111 0 96.5695 14.7251 1422 82.0893 71.6997 507.105
2112 0 95.3507 14.2736 1361 84.5276 72.3982 502.826
2113 0 99.414 14.8168 1473 83.129 71.7427 502.377
2114 0 101.308 14.2239 1441 84.3747 72.4976 500.816
2115 0 104.016 14.3536 1493 85.0382 72.4092 498.01
2116 0 108.126 15.2415 1648 82.074 71.7597 500.802
2117 0 111.339 15.5291 1729 83.0278 71.9277 494.634
2118 0 116.24 15.2186 1769 83.2719 72.329 492.822
2119 0 121.491 15.7131 1909 81.9864 71.9838 493.238
2120 0 123.578 15.1241 1869 83.1418 72.3323 491.915
2121 0 128.536 14.8597 1910 83.5314 72.2555 490.231
2122 0 130.961 15.3099 2005 83.3017 72.4479 486.862
2123 0 136.951 15.4362 2114 83.8018 72.0147 484.082
2124 0 138.862 15.5838 2164 84.2024 71.6788 480.967
2125 1 57.3023 13.7342 787 79.6353 72.7942 523.464
2126 0 57.7656 13.4682 778 83.7725 72.6311 519.168
2127 0 60.0571 12.6713 761 83.4823 71.5834 522.507
2128 0 63.7865 14.329 914 80.8118 71.7998 520.846
2129 0 59.8422 12.1653 728 87.8036 72.478 518.328
2130 0 62.748 13.61 854 85.2717 72.2377 518.077
2131 0 64.9797 14.2198 924 83.5162 72.9026 518.33
2132 0 69.5758 12.5906 876 86.5936 72.5457 515.11
2133 0 67.7033 12.7173 861 87.5412 72.2079 514.211
2134 0 67.3379 12.8308 864 88.6655 72.0984 513.94
2135 0 74.573 15.3004 1141 82.8931 72.135 513.912
2136 0 78.1013 16.7219 1306 80.0965 72.2496 513.237
2137 0 78.1101 15.4654 1208 82.6084 72.2036 516.055
2138 0 79.2607 14.282 1132 85.9161 71.8436 513.166
2139 0 84.2907 15.1974 1281 83.434 71.9618 511.351
2140 0 86.163 14.9948 1292 84.6625 72.0836 508.908
2141 0 89.2486 16.426 1466 82.2292 71.8056 508.879
2142 0 89.692 14.6167 1311 86.0374 72.4638 507.293
2143 0 91.4932 14.9519 1368 85.9773 72.1806 505.347
2144 0 92.4798 14.414 1333 87.6137 71.2753 503.028
2145 0 101.553 15.7159 1596 83.916 71.859 502.346
2146 1 51.5004 12.6601 652 85.7301 72.181 524.296
2147 0 49.5513 13.9653 692 84.604 71.9436 526.204
2148 0 50.792 13.9983 711 86.398 71.6568 522.795
2149 0 51.4936 12.8948 664 88.9111 72.1868 522.139
2150 0 52.485 12.9751 681 89.138 72.0705 521.382
2151 0 53.3634 13.9234 743 88.5478 72.3876 519.001
2152 0 57.4669 14.1821 815 86.5497 72.3669 519.888
2153 0 56.3933 14.5407 820 87.189 72.6 516.779
2154 0 55.3119 13.6137 753 90.6175 72.5365 516.607
2155 0 61.5232 15.4901 953 85.4019 72.042 517.26
2156 0 62.4082 15.1423 945 86.0265 71.7429 516.857
2157 0 65.4686 13.9762 915 88.2601 71.5279 515.382
2158 0 64.2866 13.4865 867 90.143 71.9619 515.872
2159 0 69.7453 13.8074 963 88.4787 71.4361 515.498
2160 0 69.7639 14.3197 999 88.6757 71.965 513.159
2161 0 74.696 14.6594 1095 86.9516 71.495 512.64
2162 0 72.4391 15.1162 1095 88.4 71.3041 509.61
2163 0 76.4641 16.6876 1276 84.7571 71.4169 509.002
2164 0 79.4133 15.199 1207 87.2245 71.5162 508.925
2165 0 82.5469 16.4149 1355 84.7771 71.6945 507.156
2166 0 87.1933 15.047 1312 86.4901 71.4832 505.312
2167 0 85.3746 13.6457 1165 90.927 71.5983 502.425
2168 0 88.348 14.907 1317 88.0858 71.4996 500.957
2169 0 92.661 15.3894 1426 86.669 71.3962 501.78
2170 0 92.3746 13.337 1232 91.4805 72.1575 498.682
2171 0 102.025 15.0061 1531 86.371 71.887 499.596
2172 0 101.531 15.7883 1603 86.1597 72.1734 498.047
2173 0 103.283 13.826 1428 90.8095 72.3971 494.081
2174 0 110.905 14.9858 1662 87.5548 71.6167 495.559
2175 0 117.227 15.5511 1823 84.4191 72.2172 498.137
2176 0 120.352 15.9615 1921 83.974 71.9693 496.346
2177 0 123.274 15.7291 1939 86.0227 72.4054 491.831
2178 1 65.5297 13.6427 894 86.2931 72.5034 517.321
2179 0 64.1563 12.5163 803 87.7846 72.3773 518.336
2180 0 64.7552 11.2578 729 91.9218 72.6008 515.8
2181 0 70.5187 14.0246 989 86.3913 72.5915 515.948
2182 0 72.5394 14.3508 1041 85.7954 72.3833 516.981
2183 0 71.3079 14.7249 1050 86.5743 72.519 515.781
2184 0 74.5417 15.5484 1159 85.2735 72.3658 516.618
2185 0 75.879 15.2084 1154 86.2678 71.7123 516.92
2186 0 78.3866 15.9338 1249 85.2042 71.3467 515.223
2187 1 166.317 15.6749 2607 86.789 71.7503 474.624
2188 0 168.864 14.6094 2467 89.0296 71.3328 468.14
2189 0 174.776 14.6015 2552 88.4487 71.8542 470.212
2190 0 179.21 15.5739 2791 87.0512 71.9319 466.37
2191 1 87.0124 15.0668 1311 89.386 72.3082 508.268
2192 0 90.3181 14.6925 1327 90.1281 72.0414 505.984
2193 0 93.5261 14.1565 1324 90.287 72.315 507.552
2194 0 93.427 15.3382 1433 88.903 72.0544 507.643
2195 0 97.3797 15.3009 1490 89.4295 71.8336 505.548
2196 0 101.075 14.9888 1515 90.3842 72.0422 504.209
2197 0 103.647 15.8133 1639 88.6742 71.119 501.919
2198 0 106.857 15.8998 1699 88.578 71.309 501.637
2199 0 111.465 16.0858 1793 87.3017 72.1896 500.492
2200 0 113.413 15.2011 1724 89.4501 72.1676 495.697
2201 0 116.155 15.4966 1800 89.5367 71.3817 495.552
2202 0 120.679 14.3604 1733 90.9723 71.3041 495.503
2203 0 127.091 15.005 1907 88.775 72.2292 494.211
2204 0 128.424 14.2808 1834 90.1532 71.5273 492.869
2205 0 133.254 14.6712 1955 89.4512 71.4691 489.408
2206 0 139.443 15.3969 2147 88.0158 71.5612 486.733
2207 0 144.395 15.5407 2244 87.7286 71.4893 484.286
2208 0 147.233 15.5468 2289 87.0677 71.4924 482.917
2209 0 149.809 14.0378 2103 90.6619 71.816 476.329
2210 0 157.961 15.6304 2469 86.808 71.7485 476.832
2211 0 164.37 16.177 2659 85.3005 71.9552 476.59
2212 0 169.235 15.4342 2612 86.7952 72.062 472.774
2213 0 176.208 15.6633 2760 86.0598 71.4366 469.999
2214 1 81.587 13.6909 1117 90.6535 72.171 509.833
2215 0 87.7116 14.7529 1294 86.7883 71.3563 511.567
2216 0 92.6286 14.9954 1389 86.3376 71.9294 508.382
2217 0 90.6722 14.5138 1316 88.4985 72.1003 505.409
2218 0 95.0592 14.2017 1350 88.5318 72.0718 504.441
2219 0 96.6479 13.9165 1345 89.3569 71.7911 503.168
2220 0 103.045 14.2656 1470 86.8551 71.6292 505.593
2221 0 104.02 13.7281 1428 88.5847 72.0546 500.91
2222 0 108.254 13.0711 1415 88.7823 71.3746 501.389
2223 0 110.643 14.3525 1588 86.5202 71.8766 499.423
2224 0 116.454 13.6963 1595 87.9273 72.0853 496.471
2225 0 118.695 14.651 1739 85.5538 72.1397 497.408
2226 0 123.275 14.3339 1767 86.5988 71.9185 491.592
2227 0 127.983 14.4472 1849 85.298 72.1406 492.823
2228 1 64.937 13.721 891 83.9214 72.6891 521.101
2229 0 67.2852 13.8366 931 84.1461 72.695 520.22
2230 0 69.4411 13.6951 951 85.0421 73.0105 518.339
2231 0 68.1678 13.9069 948 86.289 72.8418 516.599
2232 0 69.5781 15.8383 1102 83.5526 72.8421 515.917
2233 0 74.3902 14.0207 1043 85.6338 73.1045 515.788
2234 0 73.8955 12.9101 954 89.5367 72.9843 513.196
2235 0 73.3449 15.5294 1139 86.086 72.3828 514.365
2236 0 77.8221 14.7516 1148 85.5131 72.6054 515.348
2237 0 81.1375 14.3953 1168 86.3587 72.5556 512.619
2238 0 84.1884 15.3228 1290 84.745 72.831 512.631
2239 0 87.2691 15.435 1347 84.4989 72.3935 510.849
2240 0 87.017 14.5604 1267 87.3275 72.7096 507.804
2241 0 91.225 14.0641 1283 87.3227 72.3819 508.175
2242 0 94.2504 14.4827 1365 86.2689 72.9582 508.121
2243 0 96.0714 14.9472 1436 85.1713 73.0348 507.7
2244 0 99.0596 13.3657 1324 87.9388 72.5551 504.563
2245 0 101.768 15.3389 1561 84.2921 72.7572 501.279
2246 0 109.508 16.492 1806 80.9153 73.139 502.156
2247 0 109.966 15.5958 1715 82.9848 73.4076 499.942
2248 0 116.06 15.4747 1796 81.9855 72.7951 500.161
2249 0 116.168 14.875 1728 83.7587 72.7697 497.322
2250 1 62.0181 14.2378 883 80.983 72.8992 524.612
2251 0 62.8454 15.0051 943 80.6426 72.9523 524.239
2252 0 61.8225 13.7167 848 85.0424 72.9917 518.896
2253 0 66.0272 14.3426 947 82.4351 73.1742 520.04
2254 0 68.6668 13.5728 932 82.3691 73.0483 520.313
2255 0 67.5781 12.5188 846 86.5236 72.8558 516.829
2256 0 70.8746 15.2382 1080 80.8611 73.2546 518.469
2257 0 72.7898 14.013 1020 82.8902 73.7314 515.913
2258 0 78.0031 15.5635 1214 78.5502 72.8204 517.395
2259 0 74.7948 14.0919 1054 83.3691 72.8947 512.925
2260 0 77.8397 15.5833 1213 80.3364 72.5952 514.458
2261 0 80.9463 15.257 1235 80.3992 72.2915 513.39
2262 0 86.7218 14.5753 1264 80.1938 72.8687 511.044
2263 0 84.4118 15.0808 1273 80.3189 73.1555 511.628
2264 0 89.6464 13.9771 1253 81.0918 72.7741 510.231
2265 0 91.5589 15.3235 1403 78.8831 73.1796 508.137
2266 0 92.016 14.9539 1376 80.1555 73.2558 502.356
2267 0 98.3204 15.3478 1509 78.114 72.56 506.068
2268 0 98.9528 14.613 1446 80.0961 73.4191 500.208
2269 0 105.293 16.5159 1739 76.0305 72.8068 501.875
2270 0 106.345 14.0956 1499 79.6064 73.0881 501.061
2271 0 108.685 14.8502 1614 78.6537 73.6004 499.308
2272 0 108.611 12.4849 1356 83.3488 73.649 494.279
2273 0 118.69 13.7249 1629 79.4512 73.0436 496.608
2274 0 117.641 14.5952 1717 79.8393 72.8276 492.047
2275 0 121.974 14.5687 1777 79.269 72.7811 492.465
2276 0 128.194 14.0022 1795 79.8156 72.9047 488.128
2277 1 45.4911 14.3984 655 73.9328 73.7771 527.049
2278 0 46.3677 14.5144 673 75.1308 73.789 525.284
2279 0 46.8028 11.0891 519 82.027 73.7958 522.41
2280 0 46.4654 9.92135 461 85.4317 74.5531 521.557
2281 0 50.1173 12.6304 633 79.466 74.4076 523.554
2282 0 55.5852 13.4748 749 74.996 73.9973 527.678
2283 0 54.6886 13.7689 753 77.6295 73.8672 523.979
2284 0 50.3389 13.0714 658 81.5456 73.8936 521.663
2285 0 54.2229 14.7724 801 77.6005 73.0437 525.155
2286 0 56.6332 14.0907 798 78.0326 73.2005 524.149
2287 0 57.7238 13.9457 805 80.0522 73.6621 522.222
2288 0 58.8265 13.7693 810 80.0358 73.7383 522.301
2289 0 59.6973 14.7913 883 78.6908 74.12 521.492
2290 0 59.6426 14.6204 872 79.4266 73.5768 521.586
2291 0 61.1573 14.4709 885 80.0531 73.1006 520.911
2292 0 65.8018 16.185 1065 76.9746 72.9925 519.921
2293 0 67.6482 15.3293 1037 78.0849 72.9547 519.585
2294 0 70.1667 15.791 1108 76.8267 73.2301 518.933
2295 0 70.8798 14.9408 1059 78.7422 73.3012 517.634
2296 0 66.6912 14.6796 979 81.4024 73.5332 511.135
2297 0 74.7252 14.8544 1110 78.8135 72.6378 515.753
2298 0 78.5881 14.6333 1150 77.92 74.0826 515.606
2299 0 77.8735 15.8591 1235 77.5336 73.9506 514.965
2300 0 79.0828 13.7704 1089 79.8118 73.9238 509.356
2301 0 81.1726 13.9086 1129 79.543 73.8104 509.066
2302 0 87.2578 13.3856 1168 79.6541 73.792 507.472
2303 0 89.1858 15.2715 1362 76.8407 73.5191 509.979
2304 0 91.3968 15.9962 1462 76.2517 73.5629 508.166
2305 0 92.2046 14.316 1320 79.0371 72.7432 505.464
2306 0 97.4555 16.5306 1611 75.4109 72.5611 506.764
2307 0 98.5852 15.905 1568 76.4726 73.5274 505.255
2308 0 104.968 16.062 1686 76.0445 73.7438 501.739
2309 0 102.983 13.4197 1382 81.835 73.4906 496.656
2310 0 106.966 14.4251 1543 80.4031 72.7978 496.38
2311 0 111.403 14.5508 1621 80.2634 73.0999 494.11
2312 0 110.541 14.5195 1605 80.7128 73.1738 494.331
2313 0 110.515 15.1201 1671 81.7319 72.997 487.931
2314 0 114.629 13.234 1517 84.0468 73.0745 488.487
2315 0 122.604 14.8282 1818 80.5391 73.2365 491.552
2316 0 129.321 15.5659 2013 79.4451 72.917 491.029
2317 0 131.278 15.0824 1980 81.153 73.0894 487.161
2318 0 134.091 15.2583 2046 81.6349 73.0894 483.964
2319 0 138.122 15.2184 2102 81.1846 73.1774 484.816
2320 0 144.31 15.73 2270 80.6313 72.9969 481.682
2321 0 146.995 16.4019 2411 80.1037 73.2066 481.143
2322 0 150.721 15.3064 2307 82.3112 73.6016 475.935
2323 0 157.099 15.277 2400 82.0525 73.2033 475.867
2324 0 162.237 16.1184 2615 80.4524 73.1759 475.621
2325 0 167.303 15.6961 2626 81.3987 73.4653 472.986
2326 0 168.09 14.9682 2516 83.1848 72.8402 468.362
2327 0 176.459 15.0573 2657 82.6394 73.3594 468.273
2328 0 181.257 16.9704 3076 79.7718 73.16 467.144
2329 0 185.723 15.787 2932 82.6269 72.7851 459.304
2330 0 189.227 14.9028 2820 83.6911 73.2954 459.207
2331 0 196.644 15.0424 2958 83.1481 73.0382 458.955
2332 0 203.447 15.9796 3251 81.4657 73.3599 455.9
2333 0 210.66 16.1113 3394 81.33 73.1164 455.516
2334 0 210.032 15.331 3220 83.6323 73.878 446.355
2335 0 215.292 14.0925 3034 84.7254 73.6374 453.174
2336 0 216.88 13.1271 2847 84.7815 72.6034 460.36
2337 1 156.356 13.2391 2070 84.2889 73.1246 487.015
2338 0 152.232 12.2576 1866 88.9577 73.9748 479.995
2339 0 156.657 15.6074 2445 84.1223 73.8883 478.966
2340 0 159.857 15.1322 2419 85.3716 73.5577 476.668
2341 0 163.477 16.6018 2714 84.1658 73.2682 471.971
2342 0 165.391 14.499 2398 87.6497 72.8561 475.059
2343 0 171.586 15.5607 2670 86.9109 73.2341 467.173
2344 0 175.272 14.9197 2615 87.9885 73.5843 468.249
2345 0 182.588 15.9978 2921 86.2595 72.8655 464.576
2346 0 180.599 15.061 2720 88.9871 72.9533 458.839
2347 1 205.462 11.8903 2443 90.8502 73.1588 463.853
2348 0 198.703 14.187 2819 88.9642 73.7357 457.754
2349 0 203.742 14.6263 2980 88.8755 72.7376 450.771
2350 0 209.354 14.454 3026 80.0704 73.5334 447.579
2351 0 217.498 15.1771 3301 76.9752 73.877 447.805
2352 0 224.599 15.0134 3372 77.2963 72.6797 442.061
2353 0 232.754 15.6345 3639 75.64 73.3443 441.674
2354 0 239.941 14.2785 3426 77.852 73.2668 434.543
2355 0 249.456 15.8425 3952 75.3527 73.4684 431.653
2356 0 249.591 14.8523 3707 77.7853 72.9393 421.05
2357 0 255.162 12.6312 3223 78.2212 73.4558 437.207
2358 0 251.788 12.1332 3055 77.7669 74.0962 440.659
2359 1 130.079 12.9383 1683 73.1765 73.2187 485.571
2360 0 129.808 14.4521 1876 71.5714 73.4979 484.411
2361 0 135.915 13.6482 1855 72.3747 73.4819 481.722
2362 0 142.725 13.5155 1929 72.6599 73.0715 477.457
2363 1 68.7585 16.3325 1123 68.618 73.228 510.878
2364 0 74.0085 14.7145 1089 70.4931 72.8329 510.242
2365 0 81.6035 14.3131 1168 69.8913 74.3031 509.394
2366 0 80.3523 14.3493 1153 71.1691 74.2186 508.575
2367 0 83.9846 14.3598 1206 70.7819 73.1741 509.354
2368 0 85.6509 14.2672 1222 71.2169 72.8437 508.566
2369 0 82.887 16.613 1377 69.9332 73.7647 504.664
2370 0 90.0262 14.9401 1345 70.5851 73.229 507.419
2371 0 86.3805 13.2437 1144 75.1582 74.1285 502.038
2372 0 93.3387 13.3921 1250 73.7632 73.6432 503.668
2373 0 99.5312 15.2214 1515 71.3921 73.4574 501.454
2374 0 100.282 13.1529 1319 73.7248 73.6096 502.177
2375 0 105.058 16.6099 1745 69.3771 72.7335 500.338
2376 0 107.418 13.75 1477 73.4888 73.2505 497.399
2377 0 112.328 15.2946 1718 70.4208 73.94 498.838
2378 0 115.252 15.5833 1796 70.99 73.8925 495.609
2379 0 120.61 15.2972 1845 71.349 74.1116 493.682
2380 0 122.626 14.0426 1722 73.2904 73.8751 489.756
2381 0 127.358 15.2484 1942 70.9305 73.4063 490.261
2382 0 131.998 16.0381 2117 70.351 73.5314 487.766
2383 0 135.548 16.2747 2206 70.0956 73.4796 487.048
2384 0 139.548 15.0772 2104 71.8893 73.2077 481.792
2385 0 143.064 14.9654 2141 71.773 73.2186 483.129
2386 1 71.6644 13.9121 997 71.1454 73.5807 515.51
2387 0 73.3652 13.9576 1024 71.6982 74.3027 512.416
2388 0 73.9262 14.6633 1084 71.3404 73.8921 511.848
2389 0 77.2764 14.157 1094 70.5475 73.9086 512.824
2390 0 79.3144 13.6293 1081 72.6577 75.111 507.458
2391 0 80.9484 13.5271 1095 72.5954 75.1233 508.354
2392 0 84.1527 13.6538 1149 71.8425 74.2411 510.28
2393 0 86.6269 12.6289 1094 74.415 75.5283 505.006
2394 0 85.9621 14.2156 1222 72.6162 75.3723 505.396
2395 0 90.182 14.249 1285 71.6397 75.5362 505.955
2396 0 92.5795 14.8305 1373 71.6074 75.9403 501.572
2397 0 94.4348 16.2652 1536 69.0938 74.7285 502.917
2398 0 97.3719 12.4471 1212 74.1823 75.2863 500.575
2399 0 100.557 14.0021 1408 71.7173 75.7258 502.871
2400 0 104.596 15.4978 1621 70.3078 74.686 497.853
2401 0 104.873 12.7201 1334 73.985 74.6814 497.349
2402 0 109.709 15.5138 1702 69.2615 75.4113 497.972
2403 0 112.027 13.3272 1493 72.9216 75.5586 490.203
2404 0 116.268 13.8388 1609 70.9149 75.5246 495.35
2405 0 118.566 13.638 1617 71.995 75.8547 488.128
2406 0 125.688 15.4987 1948 69.0965 75.018 486.955
2407 0 121.643 10.3417 1258 76.663 74.8975 484.849
2408 1 70.0129 13.7832 965 69.085 74.7917 513.064
2409 0 71.9865 11.2382 809 72.1533 75.2645 510.066
2410 0 72.8097 13.6795 996 69.6757 75.003 509.56
2411 0 76.1592 14.8636 1132 68.1157 74.9965 509.541
2412 0 81.264 10.8658 883 72.7157 75.3884 509.753
2413 0 82.4223 14.268 1176 68.6429 74.8452 509.832
2414 0 82.867 14.831 1229 68.4719 74.9821 507.099
2415 0 85.7681 13.7347 1178 70.5297 74.9482 506.069
2416 0 86.914 13.0819 1137 72.0308 75.4398 502.945
2417 0 88.8183 11.0675 983 74.821 75.0264 500.829
2418 0 94.1921 14.3324 1350 69.037 74.9822 504.499
2419 0 94.2278 13.9449 1314 70.0609 75.038 505.908
2420 0 96.3658 10.6054 1022 75.7544 75.2114 500.944
2421 0 102.431 14.5952 1495 69.2689 75.4214 503.472
2422 0 103.182 14.392 1485 70.9825 75.435 499.146
2423 0 107.622 14.7832 1591 70.0811 75.3432 501.568
2424 0 107.919 15.3726 1659 69.9319 74.3864 498.807
2425 0 112.979 16.5959 1875 68.6309 75.4288 497.286
2426 0 113.66 14.429 1640 71.8262 74.8415 493.629
2427 0 121.287 14.8903 1806 70.5642 74.6478 494.879
2428 1 66.1776 12.4816 826 71.9697 75.1078 517
2429 0 68.513 13.6179 933 72.2015 75.1919 514.406
2430 0 70.0425 13.6631 957 71.7189 75.3647 514.489
2431 0 73.1439 13.74 1005 71.9224 73.992 515.347
2432 0 71.9968 13.195 950 74.3232 74.639 512.069
2433 0 75.6416 12.1626 920 75.3598 74.3185 509.787
2434 0 77.4084 14.5075 1123 71.6198 74.431 512.191
2435 0 81.3505 15.4148 1254 70.4498 74.3405 512.549
2436 0 83.2009 13.834 1151 72.344 74.4613 511.98
2437 0 85.1257 13.1453 1119 73.6756 75.2404 509.567
2438 0 89.4134 16.2615 1454 68.5784 75.4312 509.718
2439 0 90.1368 15.1326 1364 71.0535 75.1166 508.894
2440 0 92.1664 14.5823 1344 72.2969 74.8527 506.781
2441 0 94.3464 12.7403 1202 75.5707 74.0765 502.043
2442 0 97.9666 13.9537 1367 73.5099 74.4031 503.83
2443 1 16.029 7.79836 125 51.968 73.424 542.296
2444 0 12.0395 8.30596 100 52.21 72.59 543.11
2445 0 14.0483 10.9622 154 51.3701 73.1688 542.338
2446 0 15.0069 9.59558 144 52.4792 73.2917 540.236
2447 0 18.4162 11.2944 208 50.8558 72.8365 541.096
2448 0 13.0038 6.38276 83 54.0723 72.3976 542.94
2449 0 14.0246 5.77558 81 53.6667 72.284 542.778
2450 0 16.1306 10.6009 171 52.5439 73.0292 541.672
2451 0 17.1409 10.3262 177 52.435 72.6045 540.011
2452 0 17.4122 8.49981 148 52.8986 72.6014 541.561
2453 0 17.2158 7.37693 127 53.5984 71.1732 541.315
2454 0 16.2025 8.94925 145 53.1655 72.7241 541.614
2455 0 17.1465 10.731 184 52.9783 73.2391 539.31
2456 0 15.0827 11.6027 175 52.3257 72.7143 540.16
2457 0 17.1146 9.81618 168 53.2083 72.1845 540.625
2458 0 17.0696 7.49871 128 54.1953 72.1875 540.641
2459 0 16.2307 10.782 175 53 72.6743 540.954
2460 0 16.2413 12.5605 204 52.8333 73 541.142
2461 0 16.0281 8.67225 139 53.6331 73.036 541.784
2462 0 17.0253 8.39926 143 53.5804 72.7762 541.35
2463 0 15.0555 8.56831 129 54.6279 71.9612 540.403
2464 0 17.0991 11.0532 189 53.6296 72.8095 540.429
2465 0 16.2574 10.5183 171 53.8304 72.8772 541.041
2466 0 15.1219 11.5726 175 53.0686 72.5543 541.617
2467 0 17.2769 9.60821 166 53.4699 72.747 539.524
2468 0 18.3763 12.897 237 51.1139 72.7848 539.101
2469 0 16.101 11.6142 187 51.9626 72.5401 540.535
2470 0 17.0537 9.14759 156 52.9615 72.1282 538.558
2471 0 16.0086 8.55787 137 53.9416 73.4015 538.686
2472 0 18.2165 9.49688 173 52.2717 72.7457 541.069
2473 0 17.0463 12.6714 216 49.5694 73.7222 540.444
2474 0 15.1756 8.10513 123 53.3333 71.4146 539.569
2475 0 16.0376 9.22833 148 51.9797 73.3716 541.493
2476 0 16.0288 5.6149 90 53.4222 72.3111 542.011
2477 0 16.0132 8.11829 130 51.7615 72.3154 541.869
2478 0 16.2321 8.19365 133 51.7068 73.0075 541.451
2479 0 18.2705 12.6434 231 48.961 73.8225 541.242
2480 0 15.1416 10.0386 152 51.7434 73.0658 540.96
2481 0 16.0283 8.92173 143 51.4825 73.6224 541.322
2482 0 13.0219 3.6093 47 55.5106 72.5957 541.234
2483 0 15.0608 7.83489 118 51.7119 73.7966 540.67
2484 0 14.008 6.5677 92 52.9891 72.9674 539.815
2485 0 15.0197 5.12661 77 54.8961 73.1429 539.208
2486 0 15.1145 10.1228 153 51.4771 72.9869 539.183
2487 0 15.1246 9.58703 145 51.6621 73.1517 538.979
2488 0 16.1282 12.8966 208 48.6538 73.9038 541.13
2489 0 15.0009 4.39972 66 54.5455 71.5909 539.409
2490 0 14.0183 10.2723 144 51.9653 73.0347 538.91
2491 0 14.0607 7.18313 101 53.1881 72.3861 541.297
2492 0 16.011 8.49417 136 52.5515 71.8897 538.456
2493 0 16.0148 10.9274 175 51.0057 73.3429 540.257
2494 0 12.0314 3.49088 42 56.119 71.3571 540.833
2495 0 14.0188 6.20594 87 54.3793 72.7356 540
2496 0 16.0365 6.92172 111 53.9009 72.3694 541.387
2497 0 17.0965 11.3474 194 50.9794 72.5 540.655
2498 0 16.0438 7.91581 127 53.7244 72.9606 539.654
2499 0 18.2644 10.786 197 51.4569 72.8122 538.589
2500 0 15.0377 9.97492 150 53.0533 72.76 538.093
2501 0 16.1374 8.42762 136 52.7794 72.4412 541.279
2502 0 18.0962 10.5547 191 51.0733 72.8691 540.288
2503 0 16.0202 6.30453 101 55.2574 72.0792 540.257
2504 0 16.1197 9.80164 158 51.8797 72.4304 540.354
2505 0 14.0302 6.77111 95 55.0842 72.3684 538.968
2506 0 16.0588 6.53848 105 54.9048 72.5619 539.676
2507 0 16.1007 12.6703 204 51.6373 73.8578 538.603
2508 0 16.0128 10.9912 176 51.9545 72.7159 538.216
2509 0 17.0767 10.3065 176 52.0682 72.892 539.608
2510 0 16.158 12.4397 201 51.791 73.1244 539.209
2511 0 14.0115 6.8515 96 55.0521 72.75 539.948
2512 0 16.1202 8.87083 143 53.4126 71.979 537.42
2513 0 15.0253 7.98651 120 54.0917 72.6417 539.183
2514 0 15.2703 10.2159 156 52.9359 72.4551 538.667
2515 0 14.0047 9.56824 134 53.1269 71.7761 538.47
2516 0 15.0424 11.1685 168 51.7917 73.6726 539.071
2517 0 14.079 12.5719 177 51.5424 73.1525 537.333
2518 0 17.018 11.2821 192 52.3125 73.3177 537.635
2519 0 13.1331 5.17777 68 55.8676 71.5882 538.544
2520 0 16.0689 12.6331 203 51.4187 72.6995 537.177
2521 0 16.0511 9.90588 159 52.0943 73.1509 537.736
2522 0 12.1106 8.50497 103 52.9806 72.8738 537.825
2523 0 16.0902 12.057 194 51.5928 73.232 536.515
2524 0 15.1157 8.00494 121 53.6694 73.2397 537.702
2525 0 15.0126 9.72515 146 53.2397 73.4041 536.658
2526 0 13.0084 5.61174 73 53.9589 72.5068 538.315
2527 0 14.0986 8.22778 116 53.1034 73.3707 537.284
2528 0 17.0218 12.3959 211 50.3081 74.1327 536.962
2529 0 16.1833 10.69 173 52.3815 73.5549 535.792
2530 0 15.0143 6.46051 97 54.4021 72.4021 536.34
2531 0 16.063 8.15539 131 52.8779 73.4428 536.496
2532 0 16.1881 8.89541 144 52.3542 73.7986 536.611
2533 0 16.2756 9.70777 158 51.9114 73.7405 537.981
2534 0 16.0848 9.76079 157 51.586 74.535 537.369
2535 0 13.013 6.68561 87 53.5058 74.3448 538.115
2536 0 12.0072 6.49612 78 54.0385 73.8205 538.256
2537 0 16.0174 12.8611 206 49.8495 73.8884 537.578
2538 0 15.0431 7.77766 117 53.6068 72.8974 537.265
2539 0 12.0118 5.57783 67 55.7463 73.194 536.552
2540 0 16.0349 6.92242 111 52.8919 73.1261 535.522
2541 0 14.1249 12.1063 171 51.655 74.1462 537.105
2542 0 14.0025 8.71275 122 51.7869 73.2377 539.721
2543 0 14.0358 9.47578 133 52.2481 74.0827 537.18
2544 0 14.1472 5.08935 72 54.8889 73.4583 535.625
2545 0 13.0652 8.87854 116 53.7155 74.4397 536.491
2546 0 16.0236 10.2349 164 51.9573 74.7805 536.994
2547 0 16.0852 11.7499 189 51.8942 74.0159 536.413
2548 0 16.0115 9.24335 148 53.5608 73.7905 536.426
2549 0 17.0493 12.6692 216 51.1157 74.2222 535.824
2550 0 15.1526 7.45749 113 53.0885 73.5841 537.027
2551 0 16.09 12.1815 196 50.75 73.5357 536.929
2552 0 16.0159 10.6769 171 51.3099 73.5322 537.409
2553 0 16.0464 10.2827 165 51.5455 73.9333 538.194
2554 0 15.0112 8.39374 126 52.9365 73.5079 537.603
2555 0 16.011 4.12217 66 54.8333 73.2424 535.955
2556 0 15.0765 6.23488 94 53.617 73.8298 536.362
2557 0 17.2457 13.1047 226 49.5354 74.8363 536.894
2558 0 13.0771 5.58228 73 55.3836 73.5479 536.986
2559 0 15.0036 9.06452 136 52.3235 73.3824 537.941
2560 0 17.0436 11.0305 188 51.7606 74.367 537.814
2561 0 17.0518 7.97569 136 52.1544 72.7574 536.419
2562 0 19.0277 14.1898 270 50.0296 74.363 537.944
2563 0 18.0689 8.57828 155 52.1613 73.7871 537.194
2564 0 15.0206 9.8531 148 51.6622 74.7162 539.338
2565 0 17.1204 9.63763 165 51.9152 73.5394 537.461
2566 0 13.1138 12.6584 166 50.6988 73.9217 539.849
2567 0 15.0577 6.37548 96 53.8854 73.75 537.75
2568 0 17.0723 12.5935 215 50.8093 74.2 538.023
2569 0 17.0143 12.6364 215 51.6279 74.4698 536.8
2570 0 18.1085 7.62072 138 53.087 72.7101 537.442
2571 0 15.0249 13.9102 209 49.823 73.6938 538.909
2572 0 17.0268 10.3954 177 51.6328 73.8644 537.791
2573 0 16.0747 7.34071 118 51.9153 73.4153 539.517
2574 0 14.2194 10.1973 145 50.9241 74.1241 540.09
2575 0 17.0071 9.11382 155 51.5484 73.3936 539.516
2576 0 16.0088 8.74517 140 51.4357 73.1143 537.814
2577 0 12.1032 8.5928 104 51 73.4423 541.442
2578 0 17.0341 12.6804 216 48.8565 73.5833 539.333
2579 0 16.027 13.7269 220 49.4455 73.6591 538.336
2580 0 15.0229 8.78656 132 51.5833 73.0303 537.311
2581 0 18.2235 4.66431 85 53.2588 73.0471 536.424
2582 0 17.0169 13.1634 224 49.2277 74.3036 538.406
2583 0 15.0098 9.92683 149 50.8121 73.6107 538.369
2584 0 17.0148 10.5202 179 50.7095 73.0726 537.251
2585 0 16.1439 10.7781 174 49.5517 74.2529 538.695
2586 0 17.1261 7.24043 124 51.5161 73.9113 538.169
2587 0 14.0569 10.3863 146 49.7192 72.8973 537.918
2588 0 14.0116 9.49214 133 50.6015 72.8647 538.105
2589 0 15.0649 5.4431 82 53.1951 73.1341 538.963
2590 0 15.1877 14.3537 218 47.7569 73.3532 537.853
2591 0 14.0277 5.70301 80 52.775 72.9 539.375
2592 0 12.0623 6.05191 73 53.8082 72.8219 538.918
2593 0 15.0063 11.062 166 51.2831 74.3434 539.663
2594 0 18.01 7.71794 139 52.187 73.3885 538.223
2595 0 15.0647 4.97854 75 54.3333 72.5467 538.133
2596 0 17.0312 9.10095 155 52.7806 73.2581 536.587
2597 0 17.0875 6.96417 119 53.6387 74.2521 536.655
2598 0 16.1419 7.0004 113 51.5221 75.6991 539.602
2599 0 16.0156 5.93172 95 51.6842 75.2421 538.947
2600 0 16.0142 11.8645 190 50.1842 74.7947 538.416
2601 0 18.026 14.9229 269 49.0074 73.9108 537.256
2602 0 15.0094 5.19674 78 53.0897 73.7308 537.128
2603 0 19.1726 7.71937 148 52 73.7027 535.966
2604 0 16.0226 13.9178 223 49.3139 73.3812 537.323
2605 0 15.0176 9.7219 146 50.4521 72.7808 536.5
2606 0 16.015 14.0494 225 48.7156 73.4133 537.627
2607 0 18.0784 12.1139 219 49.3014 73.9224 536.16
2608 0 16.0216 10.6106 170 49.8765 72.7 536.988
2609 0 13.0216 10.521 137 50.6204 73.4453 536.161
2610 0 16.0184 11.1122 178 50.1348 73.5112 537.758
2611 0 16.0066 15.9309 255 46.6196 73.9882 538.439
2612 0 12.0311 8.14553 98 50.8776 74.1224 537.52
2613 0 12.079 7.28535 88 51.0909 72.4773 537.182
2614 0 14.0631 5.68866 80 51.8375 72.6875 537.5
2615 0 13.0686 8.95278 117 49.1282 73.094 538.906
2616 0 14.1619 6.63755 94 53.0532 73.3511 534.149
2617 0 15.0572 8.23527 124 49.8548 73.2984 536.137
2618 0 15.1557 5.54248 84 52.381 73.9881 534.619
2619 0 16.2457 7.6328 124 50.3871 74.121 534.927
2620 0 15.0854 8.55132 129 50.2093 73.6744 534.682
2621 0 13.0538 4.51976 59 51.0847 72.1186 535.237
2622 0 15.0951 7.41963 112 49.6071 72.8839 535.857
2623 0 13.0142 7.83761 102 50.1078 73.4804 536.451
2624 0 14.0105 7.70852 108 49.8148 73.213 536.194
2625 0 12.1601 8.88149 108 50.213 73.5093 534.768
2626 0 15.0705 9.09061 137 49.9562 73.2044 534.701
2627 1 160.676 13.8104 2219 72.795 73.5868 465.47
2628 1 85.2743 11.633 992 72.1835 74.1754 502.601
2629 0 87.7505 11.3618 997 74.5647 73.9087 496.366
2630 0 90.4141 14.0907 1274 70.1766 74.0589 501.535
2631 0 92.5435 12.5238 1159 71.0932 74.2356 503.444
2632 0 95.5692 13.4039 1281 71.2966 75.1577 498.875
2633 0 98.5945 14.3619 1416 68.6229 75.1893 500.989
2634 0 101.346 13.4292 1361 71.4776 74.964 496.867
2635 0 104.923 13.7434 1442 71.0062 74.4993 496.069
2636 0 105.105 12.9014 1356 72.8134 74.2441 492.822
2637 0 98.6464 14.6888 1449 72.9765 73.8682 487.375
2638 1 112.897 13.6584 1542 71.153 74.0233 492.903
2639 0 115.08 13.9903 1610 71.7373 74.736 484.858
2640 0 121.343 12.576 1526 72.6533 74.656 486.836
2641 0 121.412 12.5193 1520 74.054 74.7053 483.068
2642 0 129.775 15.1493 1966 69.0565 73.9201 484.9
2643 0 129.982 12.4479 1618 73.0457 74.5185 477.179
2644 1 73.8075 12.1939 900 68.6511 74.4744 512.002
2645 0 75.6578 11.2084 848 72.1427 74.5271 505.875
2646 0 78.6982 12.5797 990 70.0727 74.899 506.066
2647 0 73.0489 9.02135 659 78.0121 74.4583 432.548
2648 0 81.1278 12.092 981 71.4648 75.5178 502.231
2649 0 82.5182 11.5974 957 71.2957 75.1264 503.206
2650 0 85.7878 11.3652 975 72.7097 75.8554 499.118
2651 0 93.3758 14.6719 1370 66.9036 74.7993 500.311
2652 0 95.9655 15.318 1470 65.1415 74.7163 501.645
2653 0 94.8353 12.896 1223 69.5339 73.9943 499.626
2654 0 98.8584 13.4131 1326 68.3273 74.7926 498.354
2655 0 102.091 13.4782 1376 67.0669 74.7653 501.309
2656 0 106.466 15.3382 1633 65.4715 75.0686 498.017
2657 0 108.106 12.6265 1365 69.7817 75.1941 490.653
2658 0 110.562 12.4726 1379 70.277 75.058 486.484
2659 0 117.568 12.3247 1449 70.0876 74.6432 485.205
2660 0 118.231 11.6636 1379 71.0754 74.8194 484.259
2661 0 124.123 12.254 1521 70.0888 74.3287 482.536
2662 0 123.244 13.4692 1660 68.3488 75.1753 484.452
2663 1 71.5111 10.0824 721 71.3218 74.8252 506.924
2664 0 72.0089 10.4848 755 70.7576 74.9722 508.8
2665 0 77.0672 12.6643 976 67.3658 75.6824 508.287
2666 0 80.002 13.5372 1083 66.0296 75.7332 509.907
2667 0 83.0394 13.0661 1085 66.7124 75.4691 506.524
2668 0 85.8259 13.5507 1163 65.3448 74.3465 507.579
2669 0 88.9339 14.73 1310 62.8092 74.4832 509.556
2670 0 92.9178 14.1523 1315 63.5894 74.4738 507.989
2671 0 93.1852 13.6824 1275 65.8886 74.2824 502.94
2672 0 94.7653 14.5412 1378 65.225 74.6292 503.56
2673 0 96.9021 13.9522 1352 66.3528 74.2759 501.197
2674 0 99.813 13.9761 1395 66.0172 74.9921 499.951
2675 0 102.601 15.1948 1559 64.8839 75.2745 498.609
2676 0 103.417 15.3553 1588 65.2343 75.4288 496.732
2677 0 110.979 14.2189 1578 65.1318 74.654 499.13
2678 0 103.873 13.8246 1436 68.5606 74.9826 488.758
2679 0 113.293 15.8968 1801 64.8501 74.5769 491.665
2680 0 118.381 13.9718 1654 66.4123 74.4806 492.042
2681 0 125.089 15.0532 1883 64.4164 74.3999 493.757
2682 0 130.165 16.625 2164 62.9945 74.5578 486.555
2683 0 136.845 16.7489 2292 62.4298 74.2539 487.19
2684 0 137.379 13.7867 1894 67.425 74.2777 481.398
2685 0 137.43 14.1163 1940 67.4505 73.884 479.402
2686 0 142.336 16.2081 2307 64.7022 73.7729 479.762
2687 1 83.8541 14.6326 1227 63.8704 74.3896 511.896
2688 0 84.7287 10.7874 914 69.4398 74.4234 506.55
2689 0 86.7294 14.6086 1267 64.6109 74.1855 505.225
2690 0 87.9444 11.928 1049 66.7664 74.8322 506.571
2691 0 89.658 13.8972 1246 65.7648 74.5088 501.857
2692 0 82.0544 8.87216 728 72.7335 74.1429 415.449
2693 1 97.9634 13.9848 1370 64.8898 75.0832 500.994
2694 0 100.154 15.2265 1525 64.0859 74.8734 499.08
2695 0 100.475 13.2371 1330 66.7353 73.8932 497.974
2696 0 98.3966 14.8481 1461 66.0897 74.8392 494.024
2697 0 108.581 14.1369 1535 65.9857 74.6586 491.82
2698 0 110.43 12.9946 1435 67.4146 74.7603 490.476
2699 0 108.411 15.9025 1724 64.6734 75.384 488.814
2700 0 116.29 13.2083 1536 67.5104 75.332 488.908
2701 0 121.64 15.9158 1936 63.7758 75.0713 488.177
2702 0 128.835 16.9519 2184 62.0897 75.5719 491.468
2703 0 134.53 16.5762 2230 62.4677 75.7529 486.849
2704 0 137.49 15.2083 2091 63.8101 75.704 480.945
2705 0 135.685 14.2242 1930 65.9461 74.8756 476.188
2706 1 146.241 14.647 2142 65.1741 75.1111 475.496
2707 0 149.398 16.292 2434 63.0037 75.2506 479.224
2708 0 157.029 17.2006 2701 62.2758 75.0196 476.899
2709 0 157.716 14.4881 2285 65.3256 75.0595 476.963
2710 1 86.6004 14.4688 1253 63.5531 75.4557 509.612
2711 0 90.4719 15.2644 1381 62.1398 75.336 511.68
2712 0 94.1929 15.2878 1440 61.3833 75.3306 512.254
2713 0 94.7337 14.1238 1338 64.5314 74.7182 505.388
2714 0 93.6135 13.4275 1257 66.206 75.4972 504.289
2715 0 99.4975 14.2416 1417 65.3409 75.187 500.129
2716 0 102.028 13.6825 1396 66.5516 75.5064 498.761
2717 0 104.753 14.0711 1474 66.1791 75.3623 498.156
2718 0 108.743 14.6216 1590 64.9164 75.105 500.72
2719 0 108.459 13.9961 1518 67.2049 75.3979 493.386
2720 0 112.317 14.6638 1647 65.6897 75.9114 496.277
2721 0 115.925 12.9221 1498 68.4326 75.5854 493.567
2722 0 118.541 15.598 1849 65.4776 74.9508 491.476
2723 0 124.613 14.7817 1842 66.4311 76 487.562
2724 0 125.675 14.4819 1820 66.3775 75.4676 489.867
2725 0 130.422 17.2747 2253 63.7284 75.0018 486.752
2726 0 131.309 16.9904 2231 64.5312 74.9054 483.594
2727 1 72.4656 11.4399 829 68.0844 75.7214 512.123
2728 0 69.1092 10.8524 750 73.748 75.3373 440.084
2729 0 73.4701 12.2907 903 68.5781 76.0166 508.911
2730 0 80.2356 14.2456 1143 65.0018 75.4558 510.048
2731 0 82.226 13.8764 1141 65.6538 75.0578 509.189
2732 0 85.8216 14.7981 1270 64.8488 75.452 507.639
2733 0 81.5177 13.494 1100 68.0982 75.3291 502.44
2734 0 86.611 11.8692 1028 69.8171 75.7656 502.088
2735 0 86.5442 14.6746 1270 66.8583 75.5543 501.273
2736 0 92.1127 10.5957 976 73.6834 74.5697 408.849
2737 0 85.4803 11.8975 1017 72.4454 75.8977 496.743
2738 0 92.585 15.0564 1394 66.5007 75.632 503.275
2739 0 99.6132 14.0443 1399 67.1008 74.8856 500.306
2740 0 100.912 13.3879 1351 69.3553 74.8423 495.598
2741 0 103.657 14.876 1542 66.6556 75.5966 499.355
2742 0 104.501 12.5741 1314 71.6667 75.5023 489.495
2743 0 105.582 12.6158 1332 71.4332 75.6712 491.274
2744 0 111.496 15.2023 1695 67.9133 75.6183 491.397
2745 0 115.936 13.5247 1568 69.8214 75.7506 489.994
2746 0 120.776 13.1235 1585 69.9192 76.0196 485.228
2747 0 122.444 13.4429 1646 69.3967 76.0583 487.057
2748 0 129.555 16.2634 2107 65.2487 75.8842 487.871
2749 0 133.63 14.2259 1901 67.9832 76.1668 484.562
2750 0 132.223 12.2596 1621 72.0999 75.7828 474.848
2751 0 141.896 14.3485 2036 68.5599 75.026 479.165
2752 1 17.033 14.6774 250 45.876 75.064 538.876
2753 0 16.2829 2.88647 47 51.7021 77.3192 537.511
2754 0 17.0599 7.9133 135 48.437 76.1482 538.333
2755 0 15.2078 12.1648 185 48.0432 76.3027 540.276
2756 0 14.0646 9.5986 135 48.3852 76.5704 538.726
2757 0 16.2878 7.61304 124 49.7823 76.2984 540.548
2758 0 16.0911 12.4914 201 47.796 76.4378 542.204
2759 0 16.0934 7.58074 122 49.8934 77.377 542.213
2760 0 17.43 10.786 188 48.7287 76.3138 540.777
2761 0 17.2115 8.94752 154 49.9805 76.9805 541.591
2762 0 17.0653 10.6649 182 49.2692 76.0494 540.951
2763 0 17.1438 8.16621 140 50.1357 76.8143 541.757
2764 0 18.416 12.2719 226 48.5885 76.7655 541.376
2765 0 16.2497 7.50784 122 50.2951 77.3197 542.631
2766 0 16.0229 15.7899 253 47.2095 75.8458 541.379
2767 0 19.6228 9.42782 185 49.4595 77.3568 541.654
2768 0 18.1436 8.7083 158 49.7532 76.8671 539.285
2769 0 19.1011 10.4706 200 48.35 76.485 542.445
2770 0 16.2053 8.45402 137 50.1314 76.9708 541.62
2771 0 21.4233 8.44876 181 47.6796 76.547 543.155
2772 0 20.3554 8.64636 176 49.4318 77.0455 541.295
2773 0 18.1094 14.302 259 47.0348 77.2008 539.541
2774 0 19.4108 10.149 197 49.4873 77.6599 539.203
2775 1 59.2942 10.2371 607 69.0642 76.0478 518.265
2776 0 60.6885 11.8639 720 65.6931 75.6278 521.74
2777 1 19.0482 7.34977 140 48.7643 77.1857 542.336
2778 0 17.1364 7.1777 123 49.8049 77.6504 540.715
2779 0 17.0215 3.99495 68 51.3235 77.3529 542.309
2780 0 17.0065 13.2302 225 48.4667 76.3067 540.289
2781 0 15.0383 5.18676 78 52.4872 76.5 541.41
2782 0 16.0228 9.98579 160 50.6688 76.5125 541.156
2783 0 19.421 8.03254 156 50.8718 77.4872 541.75
2784 0 22.2835 9.02014 201 50.4677 77.1692 541.045
2785 0 22.4226 12.1306 272 49.0331 76.4448 540.224
2786 0 20.087 9.85713 198 49.6465 77.0404 539.667
2787 0 20.1398 8.93751 180 49.3944 76.4722 541.789
2788 0 20.2172 7.9635 161 49.9379 77.6273 537.578
2789 0 17.2593 8.51715 147 49.7687 77.4014 538.197
2790 0 19.2127 8.22372 158 50.2975 77.6456 539.177
2791 0 18.9186 12.0516 228 47.8509 76.8246 539.325
2792 0 19.042 8.98014 171 49.2281 77.6667 538.433
2793 0 19.3057 11.033 213 47.2207 77.5962 541.371
2794 0 17.0332 12.2702 209 47.2392 77.5263 539.531
2795 0 19.0849 8.38357 160 48.8688 78.1375 539.631
2796 0 18.0284 8.15382 147 48.483 77.517 538.551
2797 0 17.0063 4.58654 78 49.1923 77.5513 541.218
2798 0 18.0243 6.93509 125 49.016 77.36 540.072
2799 0 19.3063 9.94492 192 47.4375 78.2969 540.776
2800 0 17.0021 1.8233 31 50.1613 76.9032 543.936
2801 0 17.4293 10.098 176 48.2727 77.9034 540.983
2802 0 18.1604 11.5085 209 47.0191 77.7943 538.474
2803 0 16.3173 6.92516 113 48.8496 79.6018 537.54
2804 0 17.3608 4.14729 72 50.5833 79.1389 539.347
2805 0 19.2383 9.87612 190 48.4158 77.2947 538.937
2806 0 17.2566 3.24513 56 51.5179 77.7143 541.304
2807 0 18.0677 13.6155 246 47.0122 77.3577 540.394
2808 0 17.0028 7.11647 121 47.6116 77.9917 544.562
2809 0 17.106 6.02127 103 49.2913 77.6505 539.641
2810 0 15.0063 4.39814 66 49.4091 78.1212 544.076
2811 0 15.0034 11.1308 167 47.6048 78.2874 538.144
2812 0 16.0126 10.3044 165 47.9212 78.1515 540.836
2813 0 17.009 4.64461 79 49.3797 78.962 538.203
2814 0 18.3126 11.0853 203 47.6995 76.803 540.773
2815 0 16.0763 9.57933 154 48.3052 78.2857 540.675
2816 0 19.3003 12.6423 244 46.7459 77.168 540.398
2817 0 17.1269 8.46622 145 48.0828 77.2 542.821
2818 0 16.1216 6.7611 109 49.2752 78.1468 540.89
2819 0 17.0216 10.7511 183 48.2186 77.8852 540.268
2820 0 17.2494 7.53648 130 48.1846 77.8462 542.192
2821 0 18.0523 7.0351 127 47.937 77.8661 542.276
2822 0 14.0245 5.63301 79 49.2278 77.962 540.329
2823 0 16.325 11.1485 182 46.7912 77.5989 539.077
2824 0 17.3622 5.93243 103 48.9903 77.7379 541.777
2825 0 16.1914 3.89095 63 51.127 78.746 540.524
2826 0 15.0293 8.05094 121 48.1405 78.3884 541.975
2827 0 19.0694 4.87694 93 50.172 78.1936 541.419
2828 0 16.0497 3.30225 53 51.3019 78.7924 539.698
2829 0 19.062 11.3314 216 47.6204 78.3889 539.486
2830 0 19.1291 5.64585 108 49.5463 78.4167 541.222
2831 0 15.0712 3.31758 50 50.46 78.18 542.88
2832 0 19.0967 13.5625 259 46.8996 77.9073 540.734
2833 0 17.232 3.94614 68 51.0294 79.1765 540.985
2834 0 16.054 9.21886 148 48.2838 78.0405 541.176
2835 0 17.4122 10.2227 178 47.927 78 541.669
2836 0 18.3312 5.50974 101 49.6238 78.5248 540.158
2837 0 16.2388 12.932 210 47.3 77.9 540.029
2838 0 19.2071 8.74676 168 48.75 77.9167 539.827
2839 0 20.1163 6.41273 129 48.1085 77.6977 542.132
2840 0 19.3661 10.5855 205 47.0878 78.6293 541.688
2841 0 17.25 8.6377 149 47.8993 79.0738 540.537
2842 0 18.1634 6.55165 119 47.0588 79.0252 542.05
2843 0 16.4026 5.79177 95 48.4105 78.4737 541.095
2844 0 20.057 12.4645 250 46.548 78.208 539.736
2845 0 17.2131 4.41525 76 50.0395 79.6053 537.579
2846 0 15.0008 0.666629 10 54 81 535.9
2847 0 21.0881 9.24691 195 47.2923 79.0667 539.446
2848 0 16.1207 7.81602 126 48.1587 79.373 538.032
2849 0 16.0961 11.4313 184 47.2663 79.2391 539.212
2850 1 122.638 13.9517 1711 67.7183 77.5453 490.956
2851 0 126.862 13.9679 1772 68.1501 77.6162 487.369
2852 0 130.515 16.0441 2094 65.84 77.3042 486.988
2853 0 133.207 18.6027 2478 52.9944 76.6981 488.716
2854 1 16.1489 3.77734 61 50.6721 79.7213 540.557
2855 0 19.3629 7.43689 144 49.1667 79.8611 537.819
2856 0 15.072 3.38376 51 50.9804 80.1373 538
2857 0 14.0251 1.42601 20 53.6 80.3 539.55
2858 0 18.3482 7.19418 132 49.5758 80.7879 537.924
2859 0 16.2279 3.32759 54 49.4815 80.4815 542.574
2860 0 17.2718 10.3058 178 47.5112 79.1292 538.472
2861 0 17.2908 9.65831 167 48.2754 80.0778 538.413
2862 0 18.1097 10.9886 199 47.9196 79.5075 538.03
2863 1 88.5866 14.325 1269 70.0496 77.7368 499.516
2864 0 90.6263 14.9515 1355 68.8745 77.8745 499.456
2865 0 91.7792 13.6088 1249 71.8559 77.8703 500.709
2866 0 97.5297 14.816 1445 68.6893 77.7516 500.261
2867 0 99.0054 14.878 1473 69.6517 77.3714 500.498
2868 0 91.5176 16.7837 1536 71.0781 77.7708 497.471
2869 0 96.8035 15.0924 1461 72.3498 78.0493 498.641
2870 0 99.5373 16.6269 1655 68.7172 77.4779 502.144
2871 0 102.551 15.563 1596 69.7231 77.8565 500.756
2872 0 104.638 15.1856 1589 70.9012 76.7835 498.046
2873 0 105.499 13.2324 1396 73.9971 77.6848 493.923
2874 0 110.607 16.5631 1832 67.9591 77.4307 498.766
2875 0 113.941 15.0429 1714 70.1709 77.0251 493.91
2876 0 117.147 15.4336 1808 68.5968 77.4475 496.947
2877 0 118.415 14.7194 1743 71.1119 77.6116 490.704
2878 0 122.683 15.1122 1854 69.843 77.8873 490.345
2879 0 123.473 14.7643 1823 71.0406 77.5156 487.869
2880 0 128.74 13.935 1794 72.0128 77.7943 484.306
2881 0 132.127 14.7206 1945 70.8452 78.3949 483.505
2882 0 134.711 13.9409 1878 71.7859 77.7886 482.332
2883 1 76.7634 11.3466 871 73.1653 78.2916 508.341
2884 0 79.0634 12.8251 1014 71.5621 77.7308 508.894
2885 0 79.5316 13.7681 1095 71.2621 77.4219 505.544
2886 0 79.9491 11.7575 940 73.9936 77.9202 505.84
2887 0 80.4042 12.8849 1036 73.8591 77.2867 501.334
2888 0 82.3823 13.5709 1118 73.0537 77.5197 502.841
2889 0 88.3944 14.3335 1267 70.6314 77.6922 503.881
2890 0 87.6425 15.1068 1324 70.4018 77.605 501.46
2891 0 91.8974 13.3627 1228 71.912 77.8909 501.14
2892 0 90.7895 14.6493 1330 70.9353 78.506 500.817
2893 0 96.6207 15.5867 1506 68.7882 78.3845 502.877
2894 0 86.5372 13.8784 1201 74.9159 77.8451 490.935
2895 0 98.9362 14.666 1451 70.8263 77.6223 497.828
2896 0 104.561 14.2787 1493 70.8687 77.7448 496.141
2897 0 109.086 15.8591 1730 68.3237 77.9896 494.746
2898 0 108.678 14.7224 1600 70.4862 77.6388 491.047
2899 0 111.593 14.078 1571 71.1158 77.8262 489.064
2900 0 116.584 17.0606 1989 66.7873 78.1523 491.162
2901 0 122.403 14.8281 1815 69.0193 77.9879 488.444
2902 0 119.346 14.7637 1762 70.4989 77.8871 483.489
2903 0 122.848 15.4988 1904 69.6828 78.2757 481.394
2904 0 130.682 14.8069 1935 69.7943 78.2605 481.854
2905 0 132.865 14.9475 1986 69.6319 78.0161 478.796
2906 1 68.0959 10.8377 738 73.6409 78.6545 509.073
2907 0 71.7263 12.478 895 70.5207 78.6514 511.273
2908 0 68.3533 12.2013 834 72.1715 78.4472 510.681
2909 0 74.6595 13.354 997 70.8215 78.8937 509.142
2910 0 73.9464 13.4016 991 72.0151 78.3653 506.63
2911 0 75.3596 13.2432 998 72.2305 77.7074 506.047
2912 0 72.5825 14.0943 1023 72.2473 77.7234 503.742
2913 0 80.5365 13.1866 1062 70.5734 78.2185 510.359
2914 0 81.9284 13.5606 1111 71.487 77.6184 504.465
2915 0 84.9591 15.5134 1318 68.9385 77.7193 505.331
2916 0 85.8626 13.6614 1173 71.8244 77.9054 501.731
2917 0 90.9508 13.5458 1232 71.5333 77.8368 502.39
2918 0 89.7351 16.5933 1489 67.5017 77.2639 503.537
2919 0 91.7641 15.4309 1416 69.1773 77.6151 502.846
2920 0 96.601 14.917 1441 70.1194 77.3255 496.213
2921 0 99.4483 14.4397 1436 70.9136 77.6762 497.218
2922 0 99.3738 12.7901 1271 74.0732 77.9835 494.762
2923 0 102.684 14.9293 1533 70.0091 78.2127 496.623
2924 0 103.626 16.6465 1725 68.5293 77.3762 494.812
2925 0 109.783 13.6906 1503 72.3992 77.525 494.158
2926 0 113.063 14.1514 1600 72.0819 78.0994 489.284
2927 0 117.407 13.5937 1596 73.0501 77.0852 486.546
2928 0 111.251 15.3348 1706 72.4297 76.7884 485.031
2929 1 124.648 14.2882 1781 71.9686 77.2768 485.334
2930 0 127.86 15.7673 2016 70.1503 76.7827 483.635
2931 0 130.156 12.5542 1634 74.8819 76.9351 482.493
2932 0 127.508 12.807 1633 75.9633 77.1549 478.739
2933 0 131.467 14.3458 1886 74.0986 76.6569 475.556
2934 0 137.129 13.1482 1803 75.6129 77.102 475.651
2935 1 80.5764 12.9939 1047 72.1308 77.7593 508.053
2936 0 74.7153 13.6786 1022 74.2701 77.0959 502.873
2937 0 77.7153 12.1083 941 76.5069 76.526 502.951
2938 0 82.8678 14.7464 1222 71.9239 77.1375 505.083
2939 0 88.922 12.8315 1141 73.5968 76.6871 504.45
2940 0 90.2706 13.3488 1205 73.3776 76.4523 503.522
2941 0 94.1545 13.1274 1236 73.6845 76.6359 503.374
2942 0 94.3276 13.9196 1313 73.7776 77.1851 499.532
2943 0 91.2529 13.2818 1212 76.0545 77.1997 497.949
2944 0 93.0825 11.3448 1056 79.4583 76.1364 398.253
2945 1 104.554 12.5008 1307 75.935 76.8347 493.8
2946 0 101.625 15.8131 1607 72.448 77.2813 494.077
2947 0 109.643 12.331 1352 77.3876 77.0606 489.115
2948 0 108.531 13.2589 1439 76.5879 76.7324 489.967
2949 0 116.638 12.8689 1501 76.2985 76.7155 489.348
2950 0 117.518 13.9808 1643 75.2331 76.7218 484.323
2951 0 115.36 13.939 1608 76.3955 76.7332 484.554
2952 1 68.5235 14.1557 970 72.867 76.7536 513.424
2953 0 62.4528 12.5375 783 79.0996 77.4291 509.566
2954 0 68.8525 14.4657 996 74.8163 77.4247 510.417
2955 0 66.4091 14.0643 934 78.0525 77.3191 504.933
2956 0 72.6676 13.4723 979 75.3371 77.383 510.648
2957 0 75.1965 14.0166 1054 76.2002 77.5085 508.714
2958 0 77.8541 14.7969 1152 74.421 77.5217 509.605
2959 0 70.1077 13.4222 941 80.6249 77.2582 502.878
2960 0 73.6266 14.0167 1032 79.6696 77.345 502.135
2961 0 81.1991 14.4583 1174 77.5 76.9992 503.146
2962 0 80.7949 14.8648 1201 78.0033 77.4122 499.584
2963 0 83.4638 15.348 1281 76.9774 77.6916 502.04
2964 0 92.6369 15.8468 1468 74.4435 77.9094 501.703
2965 0 88.0281 14.1887 1249 78.9696 76.7534 499.881
2966 0 91.2183 15.3368 1399 77.1394 76.3038 499.364
2967 0 90.262 15.2888 1380 78.5558 76.5341 495.746
2968 0 95.615 14.7362 1409 78.3187 76.6608 494.769
2969 0 97.7619 13.9318 1362 79.9031 76.4956 493.746
2970 0 99.4047 14.8283 1474 78.5292 76.5136 487.978
2971 0 109.948 15.2708 1679 75.8618 76.4556 491.895
2972 1 49.7687 12.1964 607 80.9802 76.9275 515.244
2973 0 51.8791 11.4304 593 81.8769 77.2007 513.912
2974 0 50.6794 12.7271 645 80.3364 77.1256 513.819
2975 0 57.3149 13.9231 798 76.1905 77.2055 516.084
2976 0 58.8839 14.4352 850 74.9059 77.3976 516.591
2977 0 59.9835 14.1872 851 75.6745 77.5088 516.595
2978 0 58.5134 15.3298 897 76.4504 77.0123 514.075
2979 0 61.6874 14.687 906 77.4592 77.1369 512.13
2980 0 63.3376 11.194 709 82.8604 76.7447 510.492
2981 0 65.4883 14.9034 976 76.5277 77.1086 511.114
2982 0 66.3882 16.7349 1111 73.8425 77.2052 509.169
2983 0 66.9273 15.2703 1022 76.2211 77.1184 509.446
2984 0 66.9471 14.8475 994 78.0966 77.1388 506.427
2985 0 69.8797 15.6555 1094 76.1133 77.9781 505.501
2986 0 69.3045 15.468 1072 77.1427 77.1045 503.662
2987 0 73.7352 15.4472 1139 75.41 77.7744 506.472
2988 0 74.5289 15.712 1171 75.316 77.7634 503.872
2989 0 77.2919 14.9563 1156 75.8452 77.9542 502.985
2990 0 80.7645 14.2389 1150 76.073 77.4861 500.977
2991 0 78.5115 15.7811 1239 74.4754 77.2405 500.066
2992 0 81.2243 15.8327 1286 73.8942 77.7084 498.15
2993 0 85.8099 15.4761 1328 74.4608 77.1965 493.9
2994 0 88.3396 14.5914 1289 75.6602 77.488 493.35
2995 0 89.196 14.4401 1288 75.6467 75.896 491.607
2996 0 92.5967 14.493 1342 75.1393 77.6125 490.37
2997 0 98.2731 15.2534 1499 73.7732 77.0234 492.362
2998 0 98.4033 14.8674 1463 74.8011 77.2071 486.315
2999 0 104.412 14.2321 1486 74.3015 77.2201 489.24
3000 1 40.8974 12.8615 526 71.9563 78.076 517.778
3001 0 41.5455 13.407 557 72.1921 77.8348 516.305
3002 0 44.8146 10.6439 477 75.1111 77.5933 516.04
3003 0 45.2863 14.6844 665 69.8301 77.8692 516.65
3004 0 45.565 15.9991 729 69.3717 77.5624 516.867
3005 0 47.8 15.0418 719 70.4548 78.3658 517.227
3006 0 48.0471 13.0705 628 73.1178 77.4395 515.197
3007 0 49.6741 15.2594 758 70.6636 77.905 514.766
3008 0 50.6581 13.5418 686 72.328 77.8732 516.175
3009 0 49.3433 12.1597 600 77.2333 77.8317 512.07
3010 0 53.7413 12.8393 690 74.4754 77.9406 513.465
3011 0 55.8472 14.3785 803 71.812 77.8431 513.887
3012 0 52.7422 12.6085 665 76.8647 78.3865 511.817
3013 0 53.6009 12.8169 687 76.2897 78.3581 511.284
3014 0 55.4398 13.5101 749 75.7103 78.2016 510.8
3015 0 56.1316 13.5752 762 76.2507 78.1168 510.058
3016 0 57.4384 13.4231 771 76.4397 78.2516 510.294
3017 0 59.3736 13.3056 790 76.919 78.1506 510.019
3018 0 59.2864 13.3083 789 77.7402 77.531 508.935
3019 1 188.259 12.5625 2365 76.4681 77.6283 462.37
3020 1 138.645 13.2353 1835 73.6648 77.939 486.409
3021 1 68.4729 14.7358 1009 73.4272 78.4044 507.85
3022 0 72.5655 14.6488 1063 73.3641 78.3509 507.317
3023 0 77.5168 14.2163 1102 73.8766 78.1361 505.813
3024 0 80.7925 12.6992 1026 76.3509 78.3275 505.383
3025 0 75.5377 14.8138 1119 75.5693 77.3995 503.193
3026 0 77.47 14.2378 1103 76.1986 78.2466 502.994
3027 0 85.5761 14.7588 1263 74.0174 77.8963 501.225
3028 0 88.3833 12.3666 1093 76.5343 77.5316 499.896
3029 0 87.5177 14.2371 1246 75.6429 77.5209 498.387
3030 0 94.5487 14.2255 1345 74.4855 78.3807 498.071
3031 0 96.6115 12.307 1189 76.9268 77.7115 497.667
3032 0 97.0666 14.9588 1452 74.5282 77.595 495.943
3033 0 95.1778 13.0598 1243 77.9364 78.4537 493.995
3034 0 98.2552 14.7168 1446 75.9806 78.1508 491.732
3035 1 50.2177 12.6051 633 78.0047 78.0095 513.487
3036 0 53.5857 12.8766 690 77.3449 78.2159 512.733
3037 0 53.1284 13.7403 730 77.4425 78.2877 511.358
3038 0 57.6733 13.5071 779 76.6264 78.3081 511.483
3039 0 58.1931 14.555 847 75.5313 77.9705 511.75
3040 0 60.7038 12.6187 766 78.8812 77.6788 509.817
3041 0 65.1305 14.4172 939 75.4696 77.41 510.619
3042 0 61.3684 13.2967 816 79.902 77.5233 505.857
3043 0 63.178 14.8153 936 77.4081 77.6464 506.011
3044 0 63.0616 14.0815 888 79.911 77.7838 500.069
3045 0 70.3343 14.1752 997 76.9188 77.5737 507.57
3046 0 78.1183 14.5805 1139 75.8683 77.2836 505.128
3047 0 79.188 10.8097 856 82.4451 77.4825 421.699
3048 0 77.9051 15.1723 1182 76.5406 77.5804 503.045
3049 0 78.3891 14.5939 1144 77.8724 78.3811 501.473
3050 0 81.8672 13.7295 1124 79.1859 77.9092 500.779
3051 0 82.717 14.338 1186 78.9098 77.5978 497.571
3052 0 87.7346 17.3478 1522 74.4014 77.5802 498.031
3053 0 87.7853 12.3711 1086 82.5433 77.7615 498.373
3054 0 95.9314 12.5923 1208 81.0124 77.3435 496.193
3055 0 95.994 13.9384 1338 79.8931 77.0665 493.699
3056 0 95.7628 15.5906 1493 78.0871 77.9585 493.946
3057 0 104.699 13.8588 1451 79.8615 77.5272 493.332
3058 0 97.6558 13.4247 1311 83.3875 77.4073 491.703
3059 0 107.441 14.3707 1544 79.7947 77.5006 494.022
3060 0 104.012 14.4598 1504 81.7513 77.7241 487.654
3061 1 5 3.8 19 78.8947 76.5263 427.684
3062 1 114.507 14.5144 1662 80.5499 77.7557 486.638
3063 0 116.7 12.8106 1495 83.9886 77.804 484.43
3064 0 119.49 15.449 1846 80.2595 77.9361 481.029
3065 0 121.625 13.3525 1624 83.4932 77.9895 480.026
3066 1 58.3158 13.9756 815 82.7448 78.4258 508.833
3067 0 60.268 13.8216 833 81.8788 78.0864 511.091
3068 0 65.6332 13.0574 857 82.706 77.5764 509.582
3069 0 62.4893 13.9384 871 81.9988 78.085 510.039
3070 0 67.7895 13.8222 937 82.1366 77.9338 506.737
3071 0 65.2874 15.562 1016 80.312 78.437 507.248
3072 0 68.2993 15.5199 1060 80.2358 77.6613 505.251
3073 0 70.3767 14.6355 1030 82.0854 77.5214 503.441
3074 0 68.0798 12.5735 856 87.5222 77.2874 499.752
3075 0 72.1936 14.5858 1053 82.9373 77.887 503.107
3076 0 74.7527 15.0363 1124 82.3639 77.8167 500.614
3077 0 76.7297 13.6453 1047 84.7154 78.0019 498.824
3078 0 75.4508 14.2742 1077 83.662 77.9554 499.674
3079 0 82.6198 13.0356 1077 83.7437 77.7874 499.352
3080 0 83.7595 13.0851 1096 84.1095 77.4608 498.466
3081 0 86.0579 14.2578 1227 82.0864 77.8492 498.377
3082 0 89.9103 14.7925 1330 81.4023 77.5248 497.374
3083 0 87.2004 14.5183 1266 83.2433 77.9036 494.031
3084 1 3 2 6 76.3333 77.6667 443
3085 1 94.7185 13.5348 1282 83.3853 78.0242 491.255
3086 0 102.514 14.6516 1502 80.2097 77.777 491.55
3087 0 105.754 13.7867 1458 82.3148 78.334 490.479
3088 0 104.242 14.6006 1522 82.2194 77.8916 486.445
3089 0 109.771 15.0222 1649 81.2456 77.8836 484.347
3090 0 111.233 14.1955 1579 82.0646 78.2464 484.234
3091 0 120.561 12.7819 1541 83.6885 77.8086 482.56
3092 0 128.584 13.9753 1797 80.0974 77.8659 481.347
3093 1 64.4931 13.4433 867 79.6644 77.8547 509.128
3094 0 67.5478 12.3616 835 81.3533 78.0994 510.608
3095 0 66.9037 13.0187 871 82.6556 78.6395 504.84
3096 0 73.7496 12.0543 889 82.7064 78.0068 504.681
3097 0 72.5604 12.1829 884 83.2432 78.2308 505.049
3098 0 69.1394 13.1329 908 82.5837 79.1553 503.461
3099 0 73.2877 12.717 932 82.6524 78.9356 502.154
3100 0 82.8228 15.0321 1245 76.9325 78.812 503.713
3101 0 77.8389 13.9904 1089 80.7695 78.6511 499.248
3102 0 87.8006 13.3598 1173 79.491 79.0665 500.232
3103 0 89.5742 15.2723 1368 76.5146 78.5731 499.39
3104 0 87.0959 13.4909 1175 79.8987 78.3957 499.464
3105 0 84.0946 15.2329 1281 78.605 78.0742 496.279
3106 0 89.5471 13.1328 1176 81.4924 78.3886 494.969
3107 0 94.2336 13.1163 1236 80.2104 78.7152 495.692
3108 0 102.573 14.068 1443 77.7706 78.9674 492.569
3109 0 104.626 14.7095 1539 76.4126 79.3691 492.147
3110 0 104.581 14.4386 1510 77.6344 79.1596 490.382
3111 0 111.504 14.8246 1653 75.957 79.2583 490.025
3112 0 114.007 15.6043 1779 74.5447 78.5104 490.305
3113 0 115.916 16.2791 1887 74.0901 78.5845 486.666
3114 0 112.658 15.3651 1731 77.1831 78.8094 482.248
3115 1 122.793 13.9422 1712 77.7921 78.4947 479.726
3116 0 118.641 13.6799 1623 79.2526 78.4301 477.781
3117 0 128.077 15.6079 1999 75.0685 78.3837 480.848
3118 0 135.862 15.4643 2101 74.8729 78.3513 477.356
3119 0 132.725 15.566 2066 75.4153 78.7938 475.263
3120 0 137.502 15.1707 2086 75.3154 79.0307 474.582
3121 0 143.093 16.2202 2321 73.8901 78.8574 470.597
3122 1 80.7411 11.9394 964 77.9865 78.6732 505.033
3123 0 74.5392 14.6634 1093 77.6441 78.8838 498.252
3124 0 79.5721 14.9676 1191 75.6154 78.471 500.493
3125 0 75.3442 12.9937 979 80.8529 78.4525 497.19
3126 0 81.4319 15.2766 1244 76.4711 78.7974 497.129
3127 0 90.5635 13.8798 1257 75.0565 77.899 501.121
3128 0 86.781 14.2082 1233 77.6569 78.4704 493.268
3129 0 91.6616 14.5972 1338 76.1442 79.086 494.051
3130 0 92.3525 15.2026 1404 75.4345 79.2828 494.101
3131 0 89.3291 13.982 1249 78.8142 78.7358 489.484
3132 0 94.8502 14.739 1398 77.0901 78.0079 490.522
3133 0 100.18 14.5937 1462 76.6334 78.5294 489.434
3134 0 107.487 15.6205 1679 74.2394 77.6891 486.467
3135 0 110.475 13.4873 1490 77.0322 77.6631 487.712
3136 0 109.521 14.8283 1624 76 77.9618 483.662
3137 0 111.225 16.3542 1819 74.028 77.4799 480.701
3138 0 117.759 14.7844 1741 75.0184 78.1212 484.326
3139 0 118.382 15.0276 1779 75.3131 77.991 477.784
3140 0 125.721 15.5264 1952 73.499 77.519 480.185
3141 1 72.6802 14.5294 1056 71.6117 78.2367 509.609
3142 0 67.4398 13.0932 883 77.8211 78.128 502.191
3143 0 74.752 15.1033 1129 72.5926 76.8964 505.1
3144 0 78.5949 11.731 922 77.59 77.1703 504.335
3145 0 79.5666 14.0008 1114 75.8034 77.4641 500.511
3146 0 76.8602 14.2466 1095 76.884 77.3425 500.226
3147 0 84.7415 13.9129 1179 75.3164 77.2952 502.44
3148 0 88.5918 12.8567 1139 77.4706 77.4258 498.588
3149 0 91.4462 15.2221 1392 73.0395 76.8951 502.041
3150 0 85.6433 14.4203 1235 77.3223 77.0097 497.657
3151 0 92.5645 14.4656 1339 75.8857 77.2913 496.421
3152 0 90.7919 13.0849 1188 79.0884 77.3114 495.22
3153 0 95.5742 16.019 1531 73.3834 77.0614 497.871
3154 0 101.582 14.8846 1512 75.4319 76.7017 494.915
3155 0 104.474 15.3913 1608 74.2363 76.7637 493.398
3156 0 108.724 15.2864 1662 74.5012 76.3658 491.832
3157 0 105.483 15.3675 1621 76.0278 76.644 487.894
3158 0 116.711 13.9747 1631 76.1183 76.3366 487.888
3159 0 111.721 14.6615 1638 76.1679 76.5366 489.157
3160 0 116.551 13.3504 1556 78.4775 76.2873 484.568
3161 0 117.47 14.2334 1672 77.509 76.3559 482.136
3162 0 125.83 15.211 1914 74.3459 76.1672 480.272
3163 1 73.4387 11.0841 814 77.8993 76.5184 506.041
3164 0 70.4306 13.1903 929 76.3132 76.943 505.64
3165 0 76.5067 12.5871 963 76.6168 76.919 504.072
3166 0 84.5378 13.6034 1150 73.2574 77.2017 503.91
3167 0 77.4801 13.3196 1032 76.8081 76.249 500.116
3168 0 80.3803 13.5605 1090 76.1358 76.5844 498.684
3169 0 88.8223 13.4763 1197 73.6416 76.9875 500.967
3170 0 82.1706 13.7519 1130 76.3628 76.8858 494.756
3171 1 96.6608 14.7733 1428 71.5392 76.7325 498.546
3172 0 89.1663 14.6356 1305 74.5272 77.0942 493.085
3173 0 95.6123 14.0254 1341 73.991 76.8807 493.776
3174 0 96.1811 15.1589 1458 73.5782 76.3491 490.27
3175 0 99.1711 16.4262 1629 71.4954 77.0681 488.308
3176 0 101.151 14.2163 1438 74.0153 76.952 488.084
3177 0 107.447 13.5043 1451 74.4445 77.0627 486.413
3178 0 111.42 14.6652 1634 73.0998 77.0581 482.175
3179 1 62.7493 12.0957 759 71.5323 77.5573 511.254
3180 0 51.1675 13.5633 694 74.4697 77.0548 508.581
3181 0 55.7713 13.7705 768 72.9193 76.9219 510.402
3182 0 56.4272 13.2206 746 73.5737 76.9249 510.08
3183 0 57.2361 16.2485 930 70.1538 76.8473 509.625
3184 0 58.2866 13.2449 772 74.3951 76.9819 506.069
3185 0 60.4241 15.1595 916 71.6157 76.893 505.759
3186 0 63.0742 15.0299 948 70.8892 76.9652 506.079
3187 0 64.1454 14.888 955 71.2031 76.7874 505.64
3188 0 67.276 13.3183 896 73.8025 77.2846 502.336
3189 0 70.3566 13.8438 974 71.9333 77.232 503.447
3190 0 72.6089 12.4227 902 73.9324 76.9922 500.407
3191 0 71.089 12.7727 908 74.5628 77.044 500.403
3192 0 75.1491 14.1319 1062 71.5358 77.1497 498.391
3193 0 78.112 14.62 1142 70.7785 77.3686 499.015
3194 0 80.381 14.7547 1186 69.7445 77.1762 500.024
3195 0 84.4248 14.6166 1234 69.6921 76.4968 495.395
3196 0 84.127 13.2894 1118 71.0957 77.0859 496.248
3197 0 87.1802 14.8543 1295 69.3158 76.4556 493.198
3198 0 90.247 13.8065 1246 70.4398 76.3812 489.738
3199 0 93.1215 13.6274 1269 70.2916 76.3365 490.749
3200 0 97.3093 14.0069 1363 70.036 77.1599 487.327
3201 0 102.657 14.4948 1488 68.4953 77.4718 486.312
3202 0 101.326 13.6096 1379 69.6352 77.2625 488.136
3203 0 104.23 13.9691 1456 70.0268 77.4773 482.815
3204 1 52.1001 12.5528 654 71.3792 77.2248 509.703
3205 0 57.4439 14.1703 814 68.9447 77.1732 508.394
3206 0 57.0839 15.9064 908 66.9185 76.956 509.037
3207 0 58.131 12.7127 739 71.7591 76.8444 506.778
3208 0 60.2405 12.5663 757 71.7318 77.2853 505.476
3209 0 59.1151 13.7359 812 70.7759 77.1909 504.846
3210 0 64.1701 14.7577 947 69.0908 76.735 502.645
3211 0 67.1295 14.0028 940 69.9798 77.2138 502.018
3212 1 78.0297 10.4063 812 73.6195 76.5135 425.448
3213 0 70.1833 14.9466 1049 69.8112 76.898 498.862
3214 0 71.096 14.6984 1045 71.179 77.0909 498.251
3215 0 75.4179 15.5268 1171 69.0717 77.164 499.776
3216 0 77.3015 15.1097 1168 70.042 77.7063 497.563
3217 0 78.1901 14.2601 1115 71.3399 77.2735 498.031
3218 0 82.4088 16.2604 1340 68.3104 76.7067 496.572
3219 0 82.2131 15.2166 1251 71.0496 77.6787 494.527
3220 0 85.2354 13.7267 1170 72.5778 76.8761 494.038
3221 1 98.6623 16.075 1586 67.3348 78.1242 493.764
3222 0 90.2079 13.5132 1219 73.4561 77.8359 490.665
3223 0 95.7842 16.2866 1560 69.3038 77.8545 489.676
3224 0 96.2284 15.0787 1451 71.1385 78.2454 487.539
3225 0 99.1278 14.7587 1463 71.7027 77.4908 483.403
3226 0 108.07 15.1291 1635 70.241 77.5187 487.19
3227 0 108.21 16.6806 1805 68.6626 77.6399 483.843
3228 1 120.86 14.2479 1722 70.4425 78.1365 484.512
3229 1 67.1276 10.9493 735 75.3701 78.7551 505.442
3230 0 70.3842 11.8919 837 73.2127 78.1482 507.614
3231 0 60.186 13.8903 836 74.5574 78.3529 504.99
3232 0 63.0551 11.1807 705 75.2667 77.8766 438.384
3233 0 67.4808 14.9524 1009 72.0614 77.782 503.555
3234 1 78.6542 14.71 1157 69.3984 78.3613 506.693
3235 1 67.2443 14.4845 974 72.9333 77.693 503.77
3236 0 69.6634 13.9385 971 73.4923 77.8723 505.348
3237 1 87.0322 13.9604 1215 70.9062 78.0156 500.612
3238 0 76.3364 14.5016 1107 73.7516 77.3704 496.138
3239 0 82.5358 14.5634 1202 72.6248 77.9293 496.995
3240 0 81.2264 14.872 1208 73.3618 78.1556 495.281
3241 0 85.1882 14.6499 1248 72.5032 77.5729 493.553
3242 0 86.156 13.0693 1126 75.6021 77.8677 492.806
3243 1 0 0 3 60.6667 79 445
3244 1 93.1399 14.9667 1394 71.9283 77.2891 491.272
3245 1 106.742 15.3361 1637 69.0031 77.5211 492.649
3246 0 104.389 14.6759 1532 70.7846 77.6142 489.796
3247 0 104.282 14.432 1505 71.8365 76.8817 485.591
3248 0 109.611 14.141 1550 72.0355 76.3871 486.723
3249 0 108.356 13.5479 1468 74.1001 76.5565 485.064
3250 0 112.2 15.1069 1695 70.833 76.5027 485.398
3251 1 60.4369 13.6506 825 70.8461 76.5455 510.789
3252 0 61.5537 14.9788 922 69.5488 76.4967 509.249
3253 0 58.082 14.8583 863 72.6327 76.5284 505.779
3254 0 60.2181 14.8626 895 71.9307 77.1196 508.09
3255 0 63.1086 13.4213 847 74.0047 76.3932 505.327
3256 0 64.1375 14.5625 934 71.5899 76.7741 505.912
3257 0 74.6846 14.2332 1063 71.1618 75.8655 504.671
3258 0 68.0551 13.8711 944 74.8008 76.4354 501.806
3259 1 81.0098 13.0108 1054 72.5171 76.4023 505.173
3260 0 75.3979 12.1754 918 76.0806 76.2353 502.715
3261 0 74.2212 13.837 1027 75.4898 76.1607 500.396
3262 0 78.3956 13.3554 1047 76.127 76.0411 498.883
3263 0 81.3558 15.1556 1233 73.6723 76.4088 498.564
3264 0 82.1293 15.9505 1310 73.4275 75.5397 497.869
3265 0 86.607 15.9918 1385 72.3401 75.8838 498.8
3266 0 96.8048 15.2059 1472 71.8764 75.7425 498.396
3267 0 89.1909 15.2146 1357 74.3581 75.8659 492.304
3268 0 93.5856 16.4662 1541 72.0597 75.8306 492.12
3269 1 185.176 9.6611 1789 78.8334 75.7283 470.499
3270 0 177.241 11.4082 2022 77.0312 75.1098 468.713
3271 1 75.0571 6.62163 497 83.8592 75.1167 406.827
3272 1 109.588 15.7863 1730 72.3231 74.7387 485.926
3273 1 55.1095 13.6637 753 76.1341 75.1248 507.538
3274 0 60.3053 14.6919 886 74.2506 74.5 508.163
3275 0 62.4369 13.854 865 75.0266 74.0879 505.309
3276 0 63.1081 15.4655 976 73.1793 75.2725 505.604
3277 0 65.4619 14.497 949 74.4784 74.9694 502.603
3278 0 67.1571 14.5182 975 74.6041 74.8933 503.871
3279 0 70.6464 14.0559 993 74.8721 74.6193 501.852
3280 0 70.0307 16.8069 1177 71.8505 74.0238 499.515
3281 0 72.3652 14.3716 1040 76.7952 73.9144 498.591
3282 0 66.085 15.8432 1047 79.5559 73.9198 500.775
3283 1 83.6395 12.1952 1020 78.7833 74.2422 499.156
3284 0 73.096 15.7464 1151 75.5943 73.6803 496.635
3285 1 85.9713 14.6677 1261 75.1094 73.6669 500.68
3286 0 88.8352 15.1629 1347 73.6036 73.6229 499.589
3287 0 85.3485 16.0636 1371 73.461 73.3457 493.86
3288 1 13.0284 4.1448 54 48.4815 77.8148 533.593
3289 0 12.0065 2.58194 31 52.2903 77.4839 533.548
3290 1 86.3063 14.5065 1252 78.9281 74.4241 492.781
3291 0 86.3294 16.078 1388 77.2291 74.6023 492.733
3292 0 84.195 18.3265 1543 76.4264 74.1322 492.668
3293 0 84.3898 15.701 1325 82.1985 73.1479 490.985
3294 0 85.1829 14.9913 1277 82.6061 73.964 492.623
3295 0 93.6569 13.8805 1300 81.7462 74.0262 491.942
3296 1 13.0199 3.68666 48 51.7708 78.6458 532.396
3297 0 17.0327 3.64006 62 51.6452 77.8871 535.677
3298 1 5 2.8 14 55.2857 78 531.143
3299 0 14.0124 4.1392 58 50.9655 78.9655 535.19
3300 0 4 4 16 55.6875 78.3125 531.75
3301 0 6 5.16667 31 53.5161 78.7097 531.645
3302 0 7.03088 9.67162 68 50.2059 77.4559 531.162
3303 0 12.0297 4.65515 56 50.1607 77.7143 535.036
3304 0 12 1.33333 16 51.5 79.875 537.062
3305 0 16.1974 8.39641 136 50.0221 78.4485 536.353
3306 0 14.155 2.61391 37 53.2703 79.1081 534.865
3307 0 12.0439 3.40422 41 51.9024 78.5366 536.415
3308 0 16.2338 6.22157 101 49.7426 78.5842 537.228
3309 1 5 4.8 24 52.9583 81.2917 529.625
3310 0 10.0032 5.19832 52 51.0385 79.3077 532.115
3311 0 18.151 4.95842 90 51.5111 78.9889 533.333
3312 0 11 0.545455 6 55 79.5 534.167
3313 1 82.8915 13.9339 1155 80.9022 76.045 496.962
3314 0 81.5453 14.2743 1164 82.4218 75.384 493.344
3315 0 81.2129 15.2685 1240 81.4121 75.4387 490.835
3316 1 95.1632 13.976 1330 79.1233 76.1662 494.948
3317 0 90.3241 14.603 1319 80.5891 75.6202 489.757
3318 0 93.2517 15.8174 1475 78.5566 76.0502 487.904
3319 0 95.6649 15.1257 1447 79.3131 75.9344 487.27
3320 0 95.1085 10.1673 967 82.7508 76.1293 384.139
3321 0 100.347 14.7787 1483 79.3088 76.762 484.08
3322 1 0 0 0 -nan -nan -nan
3323 1 102.461 13.2636 1359 81.3252 76.4776 484.3
3324 1 51.2671 12.0545 618 80.6764 76.979 507.115
3325 0 53.2181 14.0178 746 76.5509 77.5147 508.071
3326 0 54.2844 14.5714 791 76.3401 77.225 506.092
3327 0 57.0857 15.3804 878 74.2369 77.0866 507.187
3328 0 59.3767 16.2185 963 72.9284 77.2669 504.567
3329 0 56.1945 14.2363 800 77.4912 76.6562 503.601
3330 0 61.1946 14.8052 906 75.202 76.628 502.511
3331 0 63.0837 15.3606 969 73.3457 77.0877 502.926
3332 0 63.0841 14.9166 941 75.424 76.8321 499.933
3333 0 64.2104 14.0787 904 76.4469 77.4535 500.929
3334 0 70.1436 14.5274 1019 74.7046 77.3749 500.08
3335 0 71.0986 12.9257 919 75.6104 77.2568 502.124
3336 0 72.1569 14.7872 1067 75.2746 77.12 494.891
3337 0 76.6485 15.7342 1206 72.2886 76.7786 497.139
3338 0 76.3562 14.2883 1091 75.0972 76.3061 496.478
3339 0 77.191 14.1467 1092 75.6117 76.6822 494.463
3340 0 80.1872 14.6782 1177 74.8505 76.3067 491.338
3341 0 82.0764 14.7789 1213 74.0396 75.8153 492.083
3342 0 87.1729 15.6241 1362 71.6696 76.3524 491.509
3343 0 91.4731 14.4523 1322 73.3071 76.0673 488.627
3344 0 92.2479 15.0356 1387 72.3691 76.1932 487.826
3345 0 93.3535 13.8613 1294 74.7712 76.7852 484.395
3346 0 95.1685 13.4708 1282 75.7028 75.7465 484.359
3347 0 102.318 14.4745 1481 72.3356 75.2289 484.594
3348 0 100.181 13.5055 1353 75.3592 75.4161 480.284
3349 0 108.183 15.0209 1625 72.3071 76.6148 484.538
3350 0 111.223 15.7701 1754 71.4612 76.1089 480.806
3351 0 113.25 14.0574 1592 73.7506 75.9202 479.66
3352 0 119.609 15.7681 1886 70.9761 75.2248 478.438
3353 0 121.218 15.1958 1842 72.5228 75.772 474.339
3354 0 124.279 16.0043 1989 71.5948 75.4379 475.418
3355 0 130.213 15.467 2014 71.9652 74.8788 472.823
3356 0 132.413 14.5227 1923 73.1378 75.2402 472.186
3357 1 67.0791 13.1934 885 76.9401 75.3232 496.608
3358 0 72.2955 15.1462 1095 72.1434 74.1132 501.78
3359 0 70.0851 8.50395 596 80.2013 74.4329 423.515
3360 0 77.1022 14.2019 1095 73.7826 75.0977 497.562
3361 0 80.0886 15.5453 1245 72.2763 74.7253 495.795
3362 0 82.3572 14.5707 1200 73.2967 75.3175 495.992
3363 0 85.1541 15.1138 1287 72.9378 74.9899 492.088
3364 0 87.0984 13.5364 1179 75.3011 74.3562 493.113
3365 0 88.1507 13.6357 1202 75.6606 74.5948 490.913
3366 0 90.1152 13.2941 1198 75.399 74.8673 490.444
3367 0 98.5675 14.7716 1456 71.9265 74.7521 492.527
3368 0 103.367 14.8112 1531 71.4677 74.6218 489.01
3369 0 104.561 13.5711 1419 74.1973 74.9979 486.14
3370 1 114.465 13.1306 1503 72.7013 75.2329 487.016
3371 1 50.4576 15.5378 784 71.0268 74.1174 509.991
3372 0 51.1052 12.2884 628 75.5812 75.4984 510.005
3373 0 54.1133 15.0056 812 70.8732 75.4877 509.941
3374 0 52.0688 14.6153 761 72.8187 75.247 509.053
3375 0 55.1971 13.0623 721 75.3467 75.6019 505.908
3376 0 59.1704 13.1316 777 74.4685 74.9704 504.486
3377 0 73.0636 9.63544 704 75.3097 74.0284 435.486
3378 1 63.1486 16.4057 1036 68.9488 75.8282 505.181
3379 0 65.2459 15.0048 979 71.1971 75.7559 503.157
3380 0 66.1678 15.6269 1034 69.7631 75.4836 505.512
3381 0 70.1365 13.8872 974 71.885 75.4795 505.467
3382 0 70.1342 15.5274 1089 70.6648 75.1249 502.596
3383 0 72.095 14.7861 1066 70.7054 75.455 503.687
3384 0 75.2266 16.1246 1213 69.4204 75.2012 502.038
3385 0 78.2692 15.9194 1246 69.6388 75.1966 498.994
3386 0 79.1244 14.572 1153 71.6652 75.4519 495.807
3387 0 81.1938 13.7326 1115 73.3309 75.2144 495.386
3388 0 85.0869 14.7614 1256 72.1369 75.5135 493.768
3389 0 85.1122 14.8862 1267 71.8035 75.8437 496.204
3390 0 89.2558 14.4304 1288 72.6405 75.632 493.291
3391 0 93.2341 14.544 1356 72.073 75.3429 491.364
3392 0 95.2324 14.9529 1424 73.0414 75.7872 488.202
3393 0 96.4909 14.1361 1364 73.5477 76.2969 488.709
3394 0 100.097 14.7257 1474 73.0373 75.8548 483.373
3395 0 108.236 15.4201 1669 71.1474 75.9197 488.15
3396 0 118.462 14.2662 1690 71.4822 75.5118 486.542
3397 1 105.2 14.2015 1494 75.9813 75.8715 485.123
3398 1 103.189 10.8538 1120 80.5661 75.7848 486.979
3399 1 107.138 12.8993 1382 76.2757 75.6368 491.496
3400 0 116.208 10.0682 1170 77.0556 75.9342 495.412
3401 0 106.267 10.5301 1119 77.7855 75.7114 493.403
3402 1 73.466 11.2025 823 77.2467 75.9648 504.769
3403 0 66.0678 13.3045 879 76.8635 75.5609 503.067
3404 0 72.3614 14.6487 1060 73.7189 76.0321 502.288
3405 0 73.6371 13.5801 1000 74.742 76.274 502.594
3406 0 73.1742 16.4949 1207 71.3786 76.406 501.541
3407 0 75.1042 15.4852 1163 73.4789 75.7635 500.015
3408 0 80.0743 15.8728 1271 72.0606 76.1157 500.064
3409 0 81.41 16.0177 1304 72.3275 75.7255 495.56
3410 0 84.2537 16.3079 1374 71.1885 75.2344 499.167
3411 0 86.4891 15.713 1359 72.791 75.5254 493.941
3412 0 88.2677 14.9885 1323 73.6553 75.5828 494.823
3413 0 96.2254 16.3366 1572 70.0986 75.5751 495.548
3414 0 95.2146 15.9534 1519 72.3147 75.4516 490.357
3415 1 64.1419 8.68387 557 78.4363 75.474 507.354
3416 0 55.1105 12.5385 691 74.1216 75.7815 510.026
3417 0 55.3564 12.3382 683 73.5095 76.0542 511.883
3418 0 51.2646 12.3867 635 76.7071 76.0756 508.591
3419 0 59.2106 12.2951 728 74.081 76.4354 510.049
3420 0 58.0733 13.6896 795 74.6226 75.9069 505.619
3421 0 60.1717 14.5251 874 72.468 75.2071 507.605
3422 1 130.119 12.8651 1674 71.7395 76.5334 486.449
3423 1 118.21 12.1394 1435 75.6892 75.446 480.922
3424 0 119.445 11.8381 1414 75.488 76.2016 482.828
3425 0 118.293 9.24818 1094 76.1115 75.8208 492.265
3426 1 83.2119 13.4356 1118 70.0877 76.0134 503.745
3427 0 72.0689 15.5823 1123 71.6999 75.8718 499.869
3428 0 74.3861 16.0514 1194 70.6273 75.4581 497.927
3429 0 75.094 14.3154 1075 73.1135 75.7144 497.034
3430 0 80.2002 15.1496 1215 71.6074 75.9621 495.742
3431 0 83.2155 14.9612 1245 71.3647 76.0241 493.581
3432 0 84.3762 15.3479 1295 71.2 76.027 491.268
3433 0 88.1024 14.9599 1318 71.5076 75.7337 491.409
3434 0 88.1263 15.1374 1334 71.8876 75.6034 487.762
3435 0 94.1374 15.2649 1437 71.0891 75.5964 488.214
3436 0 95.1354 15.8406 1507 70.0199 76.1891 488.648
3437 0 100.265 15.3893 1543 70.8892 76.2106 486.139
3438 0 101.223 13.7222 1389 72.9885 75.3607 483.896
3439 1 52.2174 10.5137 549 75.9344 75.5974 507.929
3440 0 54.0752 14.3504 776 72.7822 74.6933 505.33
3441 0 57.1127 13.9549 797 71.9874 75.453 505.389
3442 0 58.3238 15.9112 928 69.4709 75.9504 504.945
3443 0 58.1021 13.3902 778 73.4332 75.9152 504.04
3444 0 59.2213 14.6569 868 72.4021 75.6947 501.703
3445 0 62.0909 14.7687 917 71.6772 76.2475 501.107
3446 0 67.2037 14.1213 949 71.6691 75.98 500.82
3447 0 69.1771 15.8145 1094 69.4772 75.5914 500.355
3448 0 69.1257 15.2331 1053 70.7056 76.1795 497.693
3449 0 71.039 14.1049 1002 72.0339 75.4621 497.282
3450 0 75.1361 13.5221 1016 72.376 75.8868 497.588
3451 0 76.1809 13.9011 1059 73.0142 76.2398 493.593
3452 0 80.09 14.3713 1151 71.6507 76.5517 495.043
3453 0 83.2612 15.8898 1323 68.9176 76.7037 495.424
3454 0 83.2491 15.1473 1261 71.092 75.973 489.987
3455 0 86.1099 15.9564 1374 69.7263 76.0189 492.124
3456 0 89.1103 15.464 1378 70.2612 76.9035 491.753
3457 0 89.1358 16.0317 1429 70.6599 76.662 487.616
3458 0 94.1768 14.6958 1384 71.7124 76.5686 486.781
3459 0 96.103 15.1712 1458 71.4026 76.262 485.59
3460 0 101.269 14.8022 1499 71.1441 75.9626 485.787
3461 0 104.198 14.5972 1521 71.1374 75.3057 482.715
3462 0 108.182 16.0007 1731 69.2605 75.8047 479.027
3463 1 55.1129 13.427 740 73.1419 75.9905 504.564
3464 0 57.0591 13.8102 788 72.8541 76.0914 503.896
3465 0 60.1541 15.7595 948 69.8302 76.192 503.693
3466 0 61.0825 14.2922 873 71.7457 76.457 503.121
3467 0 63.0689 13.8579 874 73.2883 76.1568 500.562
3468 0 65.2128 16.1165 1051 70.0542 76.0314 501.168
3469 0 67.3127 14.039 945 72.2497 76.2825 501.55
3470 0 69.0561 14.4665 999 72.5305 76.8078 497.249
3471 0 70.2287 14.8942 1046 72.4082 76.6711 497.207
3472 0 74.1934 15.7965 1172 71.0171 76.2978 496.745
3473 0 74.1564 14.0918 1045 73.6919 75.9254 498.135
3474 0 76.1083 14.7421 1122 73.5214 76.664 495.258
3475 0 79.2251 16.0177 1269 71.2482 76.6351 496.55
3476 0 84.4852 14.5351 1228 73.101 76.1222 491.964
3477 0 84.1494 14.9377 1257 72.8807 76.4869 490.493
3478 0 86.088 14.9614 1288 73.8874 76.7298 489.847
3479 0 94.2254 16.556 1560 69.2372 76.6269 490.43
3480 0 94.1143 14.8968 1402 72.2539 77.1148 485.902
3481 0 97.0645 15.0003 1456 71.7012 77.3516 488.53
3482 0 101.193 15.5544 1574 70.6163 77.1169 484.938
3483 1 48.0748 14.1862 682 74.4179 77.5542 506.416
3484 0 56.3082 15.3974 867 69.0923 77.0208 507.409
3485 0 59.2134 15.9592 945 66.7735 76.6635 508.929
3486 0 56.1719 13.9038 781 72.6479 77.0512 505.326
3487 0 58.0977 13.7699 800 72.4012 77.175 503.874
3488 0 60.2358 13.4804 812 72.4434 77.1318 504.82
3489 0 61.0968 15.2381 931 71.7175 77.1353 500.604
3490 0 63.424 14.7263 934 72.0878 77.2109 502.408
3491 0 68.1558 14.9804 1021 70.4153 76.859 503.53
3492 0 69.113 14.2665 986 72.1988 77.0213 502.147
3493 0 68.14 15.0132 1023 71.4575 78.1222 501.824
3494 0 72.109 14.7693 1065 72.1869 77.138 499.928
3495 0 73.0993 14.3777 1051 72.2997 77.3416 499.33
3496 0 74.0543 14.0708 1042 73.8234 77.6382 497.877
3497 0 78.0824 15.3043 1195 71.4661 78 497.638
3498 0 80.3587 15.7544 1266 71.9976 77.4882 493.901
3499 0 83.1039 16.0161 1331 70.7183 77.3952 495.797
3500 0 86.1971 14.1768 1222 72.9493 77.6759 497.031
3501 0 89.1716 15.7001 1400 71.355 77.0164 492.532
3502 0 92.0977 15.4293 1421 71.5623 76.8635 492.177
3503 0 93.0878 13.4926 1256 74.7357 77.1202 488.046
3504 0 100.159 15.3157 1534 70.9713 76.5359 489.374
3505 0 103.28 15.976 1650 69.5006 76.3958 490.368
3506 1 52.1388 13.0038 678 73.826 77.6357 512.08
3507 0 54.0571 13.1898 713 74.2356 77.0968 510.048
3508 0 53.1563 14.4668 769 72.9675 76.3615 510.837
3509 0 55.2322 14.4481 798 73.1353 76.8659 510.179
3510 0 57.0926 14.5378 830 72.3036 77.0205 511.005
3511 0 58.1002 11.9105 692 77.5202 76.0838 507.909
3512 0 61.226 15.0426 921 72.6222 76.5309 508.346
3513 0 61.1174 13.6132 832 76.0036 76.8954 507.037
3514 0 64.0807 15.0435 964 74.0135 76.6598 504.776
3515 0 67.1773 16.2704 1093 71.7713 76.3724 504.778
3516 0 66.0685 14.9239 986 75.2018 76.5112 502.691
3517 0 70.2199 15.1524 1064 73.8008 75.8562 502.208
3518 0 75.0851 16.4613 1236 70.7201 76.7031 503.936
3519 0 73.1934 14.6735 1074 75.4274 76.3054 501.833
3520 0 78.1269 16.7036 1305 71.5586 75.9425 501.74
3521 0 79.2077 15.2763 1210 74.6736 75.8512 498.493
3522 0 83.0637 15.2172 1264 74.7263 76.4984 497.344
3523 0 84.1806 15.1223 1273 74.9026 75.7777 495.755
3524 0 87.0781 15.3081 1333 75.0698 76.3818 494.941
3525 0 89.1966 13.857 1236 76.9531 77.1481 494.163
3526 0 92.1336 15.2387 1404 75.8205 76.7122 490.827
3527 1 47.1192 13.1157 618 77.2006 76.9223 514.193
3528 0 50.0874 12.8974 646 76.7477 77.1734 514.749
3529 0 51.1328 13.7289 702 76.8818 77 512.613
3530 0 53.1085 15.7225 835 74.0599 76.7353 510.88
3531 0 53.1463 14.5824 775 77.2194 76.6297 507.741
3532 0 55.034 13.6643 752 77.5532 76.2181 510.662
3533 0 56.1157 14.9869 841 76.5684 76.0535 509.672
3534 0 59.2857 14.3711 852 76.5293 76.4425 509.673
3535 0 61.1446 13.9015 850 77.5765 76.9741 506.109
3536 0 62.0724 16.6741 1035 73.9923 76.5159 504.269
3537 0 63.3331 16.1843 1025 74.7824 76.7288 506.317
3538 0 64.1068 16.0357 1028 75.9358 76.5409 505.46
3539 0 67.2079 16.1588 1086 74.8545 76.8923 502.1
3540 0 70.2598 15.215 1069 75.9878 76.3994 500.087
3541 0 73.0904 16.1991 1184 73.9029 75.8108 500.507
3542 0 72.434 16.6911 1209 74.029 76.3284 498.543
3543 0 73.0614 16.2329 1186 75.1931 76.333 499.859
3544 0 77.1615 17.107 1320 73.5432 76.2818 497.582
3545 0 79.1868 15.5455 1231 75.0812 76.5142 498.3
3546 0 80.3589 16.0903 1293 75.4439 76.3998 494.968
3547 0 83.2212 17.4835 1455 73.4007 76.8722 494.23
3548 0 88.2658 16.5976 1465 73.3543 76.6901 496.495
3549 0 89.1841 16.2585 1450 74.5366 76.1683 492.316
3550 0 90.2234 15.5503 1403 75.5602 76.062 491.177
3551 0 97.1285 15.6391 1519 74.372 76.2067 492.084
3552 0 97.1877 16.0308 1558 74.7497 76.3768 489.29
3553 0 99.2279 15.7012 1558 75.561 75.9089 485.974
3554 0 104.459 17.6242 1841 72.4617 75.623 484.53
3555 0 108.407 17.1576 1860 72.7892 75.5382 482.449
3556 1 52.1813 15.1395 790 77.2848 75.8506 509.11
3557 0 56.0902 15.1007 847 75.8819 76.4911 510.123
3558 0 52.1868 14.5439 759 80.224 76.6495 506.303
3559 0 55.3485 14.2913 791 78.7775 76.0784 507.34
3560 0 58.1875 14.4533 841 78.843 76.3674 505.572
3561 0 58.1175 13.6276 792 81.2058 76.3093 503.644
3562 0 61.1196 14.8398 907 79.0849 76.3605 502.602
3563 0 63.1287 14.3358 905 80.7514 76.6011 500.926
3564 0 65.1263 13.635 888 81.6205 76.7004 501.981
3565 0 67.2028 15.7583 1059 78.3532 76.2446 498.875
3566 0 67.2442 14.8563 999 81.023 75.9329 498.394
3567 0 71.1519 13.2674 944 81.4873 76.3284 500.874
3568 0 73.2538 14.948 1095 79.21 76.4292 499.622
3569 0 76.077 17.2851 1315 76.0753 76.8958 496.655
3570 0 78.2039 15.9711 1249 78.3074 76.3627 494.122
3571 0 81.5823 15.8123 1290 77.0961 76.2814 495.219
3572 0 82.1131 16.9644 1393 76.3187 76.6231 493.432
3573 0 82.0899 14.8252 1217 80.2227 76.3854 490.555
3574 0 86.2922 15.0535 1299 79.7452 76.5227 490.487
3575 0 87.2043 13.8525 1208 82.0505 76.1167 488.766
3576 0 90.1158 14.8587 1339 80.9447 76.7655 487.812
3577 0 93.2839 15.5761 1453 79.5437 75.3448 488.017
3578 1 47.0512 13.7297 646 83.4272 76.4257 507.164
3579 0 49.1631 12.8755 633 84.6493 77.1185 507.572
3580 0 51.1578 13.5659 694 83.7767 76.8574 505.68
3581 0 52.0474 14.0449 731 83.5212 76.3338 504.259
3582 0 56.1657 13.4958 758 83.1741 76.5449 503.322
3583 0 57.1218 15.8083 903 79.3267 77.0676 502.398
3584 0 61.1009 14.7461 901 80.4073 77.4839 502.166
3585 0 63.078 15.2827 964 79.6297 77.418 502.766
3586 0 66.1724 14.9005 986 79.9716 76.8398 502.369
3587 0 65.1656 14.1639 923 82.0672 76.7356 499.99
3588 0 70.1825 15.3742 1079 78.9212 77.1548 500.119
3589 0 71.1025 14.8237 1054 80.9668 77.1072 497.863
3590 0 70.0862 14.4822 1015 82.3941 76.8916 497.378
3591 0 74.0568 14.5699 1079 80.4792 76.3948 496.03
3592 0 77.1164 15.0292 1159 79.3891 77.0725 496.582
3593 0 80.1714 14.5064 1163 78.8349 77.2261 498.626
3594 0 81.1274 15.4448 1253 78.2474 77.0335 494.232
3595 0 85.4908 14.7618 1262 79.191 77.29 494.175
3596 0 86.2184 14.3357 1236 80.1181 77.1206 490.875
3597 0 89.0847 14.5816 1299 80.0423 77.2371 490.038
3598 0 90.2427 14.051 1268 80.2642 77.4322 489.677
3599 0 95.593 14.7605 1411 78.3132 77.9036 487.311
3600 0 97.3721 15.8567 1544 77.0939 77.5842 487.142
3601 0 100.049 14.6828 1469 78.5112 77.9449 484.726
3602 1 51.0744 15.1348 773 78.0543 78.1242 507.216
3603 0 56.0671 14.7323 826 76.5424 77.9722 508.61
3604 0 57.1484 14.9086 852 76.7476 77.1995 506.33
3605 0 60.1322 14.7675 888 75.9032 77.3356 507.905
3606 0 59.0876 14.5208 858 78.3695 77.7751 504.469
3607 0 62.1756 14.6842 913 77.2475 76.6835 504.652
3608 0 64.0862 13.7939 884 78.2794 77.129 503.622
3609 0 65.2248 14.1664 924 78.2186 76.6515 505.157
3610 0 65.2293 14.8093 966 78.1925 76.9845 502.474
3611 0 67.1607 15.4852 1040 77.2231 76.5317 502.137
3612 0 74.092 15.1703 1124 75.6984 76.5249 501.57
3613 0 70.2112 16.8634 1184 76.6242 76.5532 502.239
3614 0 74.1056 16.328 1210 76.7636 77.0628 500.226
3615 0 77.0428 15.6017 1202 77.1448 76.8478 499.975
3616 0 81.1932 17.1074 1389 74.3535 76.0965 499.21
3617 0 80.1754 15.9899 1282 77.0523 76.1576 496.154
3618 0 81.1775 13.9817 1135 80.6582 75.9595 495.078
3619 0 85.1773 16.0137 1364 77.1298 76.033 493.938
3620 0 90.1593 14.5742 1314 78.5548 75.2976 494.479
3621 0 90.3881 15.4998 1401 78.4118 75.5325 491.196
3622 0 94.0882 15.0072 1412 77.8307 75.5623 493.038
3623 1 46.0379 13.8147 636 81.5723 75.6572 513.344
3624 0 48.1529 12.5226 603 82.3068 75.8143 514.514
3625 0 51.4428 15.2208 783 77.5172 75.3806 513.771
3626 0 53.1134 14.855 789 78.4563 75.4804 514.994
3627 0 55.0827 15.1953 837 77.4182 75.5878 512.226
3628 0 57.0317 15.7456 898 76.7172 76.3898 511.586
3629 0 57.1474 14.5938 834 79.4161 75.6439 510.559
3630 0 58.1172 16.7248 972 77.0607 75.8313 509.652
3631 0 60.4139 14.5 876 78.5445 75.8756 507.471
3632 0 58.1992 18.4023 1071 76.3277 75.986 505.453
3633 0 59.1884 18.061 1069 78.0804 75.8812 507.239
3634 0 62.1025 17.2779 1073 79.0951 75.4063 505.477
3635 0 63.2325 16.4156 1038 80.3632 75.6908 504.281
3636 0 67.0954 15.9772 1072 80.0075 75.778 505.276
3637 0 68.0664 17.6005 1198 77.0902 75.7855 503.285
3638 0 68.0779 16.5105 1124 79.6913 75.8834 500.335
3639 0 72.2777 17.917 1295 76.668 75.8687 502.437
3640 0 75.2932 17.983 1354 75.2976 75.7098 500.239
3641 0 73.098 17.5518 1283 78.5331 76.0382 499.389
3642 0 77.2766 17.8709 1381 77.3693 75.6676 498.555
3643 0 76.4398 16.8368 1287 79.9697 75.7902 498.794
3644 0 73.4519 17.2902 1270 81.4803 75.4842 496.732
3645 0 81.0761 18.5135 1501 76.7921 75.2645 495.328
3646 0 84.1342 17.377 1462 77.8174 75.9015 493.957
3647 0 87.1761 17.631 1537 77.4815 75.1659 494.424
3648 0 87.1953 17.2601 1505 77.3714 75.6472 492.627
3649 0 89.1645 17.0023 1516 78.122 76.0303 489.759
3650 0 95.2367 16.2962 1552 78 75.4233 488.662
3651 0 97.2103 17.097 1662 76.855 75.6552 487.042
3652 0 100.432 17.2654 1734 76.6661 75.8783 486.788
3653 0 104.338 17.98 1876 75.2878 76.0672 484.758
3654 1 52.2083 13.2929 694 84.9352 76.5764 507.98
3655 0 55.1043 15.1531 835 80.8563 76.3162 507.866
3656 0 58.1184 14.4188 838 81.2649 76.0537 507.61
3657 0 60.179 15.6034 939 78.8903 75.9606 505.684
3658 0 62.165 15.7323 978 77.9325 75.2638 507.031
3659 0 60.2432 15.1884 915 80.7596 75.3902 505.161
3660 0 61.2993 15.0573 923 81.0249 75.7107 503.65
3661 0 67.3407 16.1121 1085 78.2258 75.4553 503.339
3662 0 67.1157 14.7358 989 79.9201 75.2831 500.353
3663 0 69.1144 15.2646 1055 79.9355 75.6389 500.192
3664 0 74.1501 16.1969 1201 76.557 75.7319 500.336
3665 0 75.0873 15.1557 1138 78.058 75.1204 497.678
3666 0 78.1934 16.1395 1262 76.668 75.622 497.7
3667 0 79.2406 14.9797 1187 78.2283 76.3934 497.817
3668 0 81.0781 15.8736 1287 77.4204 75.6014 494.601
3669 0 86.1861 15.2925 1318 77.2306 75.3384 493.404
3670 0 86.3056 14.7152 1270 78.1835 74.9236 491.623
3671 0 91.1506 15.0849 1375 76.2676 74.8662 493.055
3672 0 90.491 14.1782 1283 78.1278 75.3203 486.772
3673 0 94.2074 13.396 1262 78.3566 75.309 487.738
3674 0 101.13 16.1377 1632 73.2616 74.4706 487.203
3675 0 102.107 15.8951 1623 74.4473 74.4966 483.703
3676 0 106.143 14.5746 1547 74.9444 75.4253 483.394
3677 1 49.0509 12.8846 632 78.0174 75.182 507.198
3678 0 54.1313 13.7813 746 76.6702 75.122 506.178
3679 0 57.2128 15.1365 866 73.7483 75.5012 505.611
3680 0 57.084 15.2582 871 74.2388 75.6142 505.652
3681 0 63.2713 15.8998 1006 71.0388 75.1551 506.587
3682 0 61.0929 14.6826 897 73.5507 75.5987 505.824
3683 0 65.1877 15.4937 1010 71.9683 74.6257 504.979
3684 0 64.1062 14.0548 901 74.9001 75.2286 503.544
3685 0 63.0607 12.9558 817 77.7944 75.8042 501.171
3686 0 67.1958 13.7955 927 75.3797 75.9374 501.512
3687 0 66.1488 13.8173 914 76.8884 75.9026 499.769
3688 0 74.292 15.7352 1169 71.7648 76.219 499.056
3689 0 73.0677 14.6029 1067 74.9475 75.9925 496.242
3690 0 76.1879 14.7136 1121 73.6441 75.603 496.839
3691 0 79.2414 13.6292 1080 74.7954 75.6167 495.963
3692 0 83.1773 15.6894 1305 72.0851 75.5969 493.179
3693 0 84.3405 14.6193 1233 73.8524 75.4996 490.103
3694 0 85.1853 13.9343 1187 74.4962 75.2123 490.004
3695 0 89.119 16.0684 1432 71.132 75.1592 489.941
3696 0 92.2779 14.7598 1362 73.4816 75.3921 487.692
3697 0 95.3518 13.2981 1268 75.4527 75.2942 485.338
3698 0 99.1485 15.1086 1498 72.8632 74.9753 484.956
3699 0 101.18 15.1908 1537 72.9037 75.0612 478.892
3700 0 107.251 14.1817 1521 72.5957 75.1703 483.274
3701 1 55.1952 13.2077 729 74.749 75.7092 505.449
3702 0 57.0574 13.3199 760 74.9829 75.204 504.12
3703 0 58.0888 14.2712 829 74.1785 75.6128 502.855
3704 0 60.2741 12.7086 766 75.8055 75.2872 503.42
3705 0 63.1529 15.5812 984 73.001 75.4827 500.863
3706 0 65.2356 13.8575 904 74.9746 76.2511 502.536
3707 0 64.1527 14.3096 918 76.4455 75.4227 497.198
3708 0 68.079 13.6165 927 76.712 75.5631 497.433
3709 0 71.131 14.7615 1050 75.6429 75.7848 496.26
3710 0 72.1682 15.1868 1096 75.542 75.573 494.784
3711 0 74.193 16.0392 1190 74.442 75.5437 495.778
3712 0 77.1166 15.4441 1191 74.6977 76.1721 493.819
3713 0 80.3036 15.018 1206 75.5663 76.1294 493.371
3714 0 80.1866 15.4016 1235 76.0097 76.332 492.782
3715 0 80.442 13.4258 1080 80.7139 76.2435 488.999
3716 0 89.2033 15.403 1374 74.8079 75.9447 490.211
3717 0 89.2125 14.3366 1279 77.9906 75.7162 488.253
3718 0 91.1134 15.2557 1390 77.0842 75.6978 486.745
3719 0 92.3386 15.0858 1393 77.3051 76.2283 487.636
3720 0 93.1571 13.6758 1274 79.8155 76.3053 485.994
3721 0 96.1054 15.6391 1503 78.344 76.2508 486.811
3722 1 50.3128 13.595 684 82.5599 76.6901 506.977
3723 0 50.208 14.0416 705 84.1957 76.7447 506.559
3724 0 55.2022 14.4559 798 81.4549 76.5639 506.315
3725 0 53.3187 13.2224 705 83.6057 75.9759 506.943
3726 0 54.0582 14.4289 780 82.2487 76.3872 505.305
3727 0 58.1021 14.3368 833 81.7215 75.7263 503.725
3728 0 62.1479 14.2885 888 80.6757 76.6137 502.6
3729 0 60.1161 14.8047 890 81.1404 76.073 500.02
3730 0 64.3499 14.8718 957 79.9781 76.8934 499.907
3731 0 65.2349 13.8423 903 82.2115 76.8295 499.681
3732 0 68.4624 14.2706 977 80.1494 76.4678 498.598
3733 0 70.0686 14.9853 1050 79.72 76.5029 495.067
3734 0 72.2769 12.7011 918 82.1176 76.8061 495.049
3735 0 74.3919 13.6843 1018 80.6346 76.9253 492.8
3736 0 80.3201 15.3511 1233 76.3423 76.7624 494.456
3737 0 80.0655 14.9752 1199 77.8732 76.7756 491.292
3738 0 83.3692 14.5737 1215 77.707 76.9737 491.505
3739 0 87.2608 14.6916 1282 77.2582 76.7496 490.661
3740 0 86.0919 13.2997 1145 80.2847 76.5642 488.314
3741 0 93.103 14.0382 1307 77.4774 76.9969 488.897
3742 0 94.1601 13.4452 1266 79.0798 77.1248 488.151
3743 0 96.0982 14.9951 1441 77.6613 76.9944 484.704
3744 0 99.298 14.0285 1393 77.8672 77.107 487.349
3745 0 103.458 12.7298 1317 79.489 77.3546 486.501
3746 0 108.445 14.8001 1605 76.7439 77.5788 483.751
3747 0 109.265 12.6664 1384 79.4025 77.203 485.827
3748 0 111.407 14.3797 1602 78.0156 77.2322 478.155
3749 1 65.383 14.3615 939 77.59 76.5165 505.346
3750 0 66.1476 12.4721 825 80.4085 77.0012 505.433
3751 0 69.1679 13.8359 957 78.2581 76.4232 501.71
3752 0 71.2698 15.8412 1129 76.5376 75.7042 502.965
3753 0 70.2507 13.8077 970 80.4103 76.0175 499.612
3754 0 74.1444 14.701 1090 78.2083 75.8266 498.716
3755 0 76.0698 15.3675 1169 77.4149 75.9606 498.077
3756 0 80.0716 15.3113 1226 76.6109 76.1949 499.52
3757 0 81.1042 14.6478 1188 78.0875 76.2963 496.883
3758 0 83.1476 14.2638 1186 79.1273 75.71 496.223
3759 0 86.1572 14.7173 1268 78.015 76.0039 497.125
3760 0 90.4063 14.8773 1345 77.7227 75.9115 495.796
3761 0 91.2064 14.3521 1309 79.3056 75.6478 493.5
3762 0 94.2082 13.8205 1302 80.8372 75.7089 492.708
3763 0 96.2513 13.9635 1344 80.0208 75.9866 492.759
3764 0 99.2619 13.9832 1388 79.9712 75.7125 493.232
3765 0 102.089 15.2318 1555 79.182 74.9678 489.637
3766 0 102.174 13.5064 1380 81.563 75.2478 489.222
3767 0 108.452 15.1403 1642 78.3867 75.2296 486.509
3768 0 109.236 14.5007 1584 80.6035 75.1256 483.615
3769 0 114.414 15.3303 1754 78.4481 74.492 484.668
3770 1 58.0379 14.1287 820 80.4524 74.7866 510.39
3771 0 60.1597 15.2926 920 78.5935 75.038 509.517
3772 0 62.2166 14.5138 903 80.6168 75.1661 506.197
3773 0 63.3737 12.9076 818 82.7555 75.3826 506.511
3774 0 65.0921 17.0067 1107 77.7136 75.0108 501.006
3775 0 66.3879 14.4605 960 80.9 75.0323 505.645
3776 0 71.0984 14.6839 1044 79.2577 75.4406 502.86
3777 0 71.166 14.2062 1011 80.2226 75.5559 501.974
3778 0 75.171 15.3384 1153 78.4389 75.379 499.293
3779 0 77.093 14.9689 1154 79.6681 75.201 497.58
3780 0 80.1531 16.2689 1304 77.217 74.7147 497.301
3781 0 80.042 15.7167 1258 78.5072 75.5207 495.486
3782 0 83.1361 14.795 1230 79.6772 75.6008 496.213
3783 0 86.2792 15.9134 1373 77.8791 75.1966 493.722
3784 0 86.2913 13.5008 1165 81.9021 74.7502 493.611
3785 0 92.2286 14.5725 1344 79.8832 75.5491 491.399
3786 0 91.366 14.2613 1303 81.5503 75.3968 490.713
3787 0 94.1854 15.5332 1463 80.1087 75.5584 486.255
3788 0 98.2253 15.3728 1510 79.3252 75.3272 486.564
3789 0 101.131 14.2588 1442 81.432 75.6144 484.696
3790 1 54.3045 14.2714 775 80.7006 75.8748 507.462
3791 0 56.0578 14.7705 828 79.3539 76.0205 508.606
3792 0 56.203 13.7003 770 82.3584 75.7792 503.535
3793 0 61.2288 13.425 822 80.3309 75.9136 507.321
3794 0 60.1361 14.4007 866 80.4018 76.2598 506.016
3795 0 65.186 14.2669 930 80.043 76.1473 503.801
3796 0 64.1176 14.9569 959 81.6402 76.0646 502.916
3797 0 67.1424 15.8618 1065 79.8836 75.3108 501.34
3798 0 70.3476 15.4376 1086 79.0847 75.8296 502.304
3799 0 70.1519 15.4379 1083 80.6223 75.8652 499.98
3800 0 75.1119 16.6551 1251 77.7338 75.5268 499.942
3801 0 79.1837 16.8343 1333 77.1148 75.1373 495.582
3802 0 80.1001 17.7278 1420 76.1211 75.2944 495.796
3803 0 82.3404 18.8729 1554 74.509 75.1377 496.701
3804 0 84.2342 15.1364 1275 79.9678 75.6698 498.204
3805 0 86.3017 15.3763 1327 80.4303 75.6775 494.483
3806 0 88.0888 14.7805 1302 82.0015 75.3203 492.041
3807 0 93.1074 15.5412 1447 78.4616 76.2308 494.129
3808 0 97.0938 15.9948 1553 78.6175 75.6755 490.242
3809 0 97.2795 14.6588 1426 81.7763 75.6108 489.177
3810 0 100.162 15.445 1547 79.9386 74.9813 487.549
3811 0 107.241 16.3743 1756 77.7358 75.7278 484.871
3812 0 106.157 14.4974 1539 82.0097 75.7843 483.381
3813 0 109.242 14.207 1552 82.2204 75.1695 481.753
3814 0 114.258 15.0712 1722 80.2602 75.4663 478.78
3815 0 116.485 18.4659 2151 75.9879 75.5811 478.824
3816 0 114.226 16.0296 1831 82.8138 75.1857 478.53
3817 0 116.406 14.3034 1665 85.7387 75.4991 478.846
3818 0 119.294 14.8624 1773 84.775 75.6531 478.66
3819 0 124.265 14.7829 1837 85.067 75.7643 474.905
3820 0 129.517 17.0093 2203 80.4326 75.3386 473.175
3821 0 132.376 15.7732 2088 83.6494 75.3156 469.531
3822 0 134.175 14.9431 2005 85.6474 74.2299 468.24
3823 1 108.163 14.6539 1585 58 74.4025 486.912
3824 0 106.48 10.0206 1067 59.1518 74.6514 492.545
3825 0 103.22 8.69015 897 52.1761 74.2308 489.718
3826 0 93.125 4.2094 392 47.1735 75.5969 487.814
3827 0 85.1203 13.9685 1189 87.8999 74.878 360.505
3828 0 87.0388 14.7176 1281 86.2763 75.0226 360.521
3829 0 89.0551 14.2833 1272 87.8341 75.7445 359.461
3830 0 93.1099 14.4238 1343 86.0618 75.1668 360.36
3831 0 96.1085 15.649 1504 83.867 75.498 355.805
3832 1 47.0243 11.93 561 90.6239 75.5972 380.46
3833 0 48.0399 11.2823 542 92.3838 75.0922 379.107
3834 0 51.0415 12.4605 636 89.8711 75.6808 379.217
3835 0 51.0376 11.9912 612 91.0882 75.2925 379.626
3836 0 53.0387 11.3502 602 92.196 75.4585 378.47
