time division length width area intensity CMx CMy
0 0 41.0587 11.9585 491 62.9715 507.568 522.882
1 0 42.0732 11.3849 479 63.453 507.58 524.067
2 0 46.0252 12.6453 582 60.5481 507.617 522.79
3 0 45.0789 12.8663 580 60.4879 507.067 524.334
4 0 46.025 11.8414 545 61.6 507.233 525.035
5 0 47.0557 12.5383 590 60.822 507.151 524.032
6 0 49.0405 13.601 667 59.4978 506.436 523.411
7 0 47.0989 12.2296 576 62.7986 506.611 521.642
8 0 50.0491 11.4288 572 63.1224 507.033 522.337
9 0 51.0497 12.7131 649 61.772 507.536 521.388
10 0 54.0302 13.1593 711 60.6568 507.399 522.097
11 0 55.0319 13.0106 716 60.6145 507.367 522
12 0 54.0893 13.6441 738 61.0569 507.354 520.859
13 0 57.0513 14.0926 804 60.0124 507.735 519.886
14 0 55.0578 12.1327 668 63.3009 506.558 520.581
15 0 57.0449 12.6567 722 63.1177 506.269 520.122
16 0 59.0519 12.9378 764 62.3325 506.072 520.509
17 0 59.0925 11.9304 705 64.827 506.811 517.977
18 0 61.0263 13.486 823 62.7424 507.008 516.147
19 0 65.2539 12.6736 827 63.075 506.38 516.342
20 0 66.1084 13.977 924 61.7857 506.196 516.722
21 0 68.0423 12.2718 835 63.9748 506.271 516.177
22 0 70.0235 13.4383 941 62.8395 505.781 514.2
23 0 72.0481 14.5736 1050 61.9867 506.809 512.555
24 0 72.0669 12.7659 920 65.0663 506.301 512.891
25 0 75.0878 13.3577 1003 64.3151 506.993 511.723
26 0 76.099 12.602 959 66.0761 507.044 511.405
27 0 78.0623 12.8103 1000 66.498 507.003 510.862
28 0 79.0823 12.4554 985 67.6162 505.85 510.772
29 0 81.119 13.1535 1067 67.299 507.241 510.412
30 0 82.222 11.2014 921 70.9577 506.492 508.656
31 0 85.0894 14.1498 1204 67.2616 506.405 504.774
32 0 88.0696 13.3531 1176 68.307 506.523 505.287
33 0 89.1058 12.8162 1142 69.7189 507.349 504.921
34 0 96.08 14.1861 1363 67.6075 507.558 502.523
35 0 96.051 13.2534 1273 69.1288 507.599 502.1
36 1 47.0324 12.5658 591 68.269 506.949 524.538
37 0 49.0302 13.7262 673 66.8752 507.501 523.37
38 0 50.0565 11.7467 588 69.7636 507.733 524.105
39 0 52.0614 13.8106 719 67.2337 507.3 522.588
40 0 53.0518 12.4972 663 69.9653 508.338 521.356
41 0 53.0504 12.1771 646 70.9598 508.503 520.368
42 0 53.0625 11.4959 610 72.818 508.711 520.098
43 0 55.045 10.9365 602 73.2292 508.14 520.814
44 0 58.0911 10.8795 632 74.0158 508.559 518.421
45 0 61.066 11.9707 731 71.2558 508.223 519.544
46 1 124.233 14.2152 1766 77.1557 508.471 487.581
47 0 122.622 14.4182 1768 78.5396 509.188 492.843
48 0 123.981 14.5102 1799 80.5998 509.562 488.072
49 0 126.3 13.6659 1726 83.5377 509.899 483.776
50 0 133.522 14.3721 1919 82.396 509.276 483.082
51 0 134.242 15.2039 2041 82.4209 509.156 479.523
52 0 136.659 14.6496 2002 83.3816 509.159 480.731
53 0 138.692 13.822 1917 86.0746 509.791 475.695
54 0 144.647 14.9191 2158 83.6288 509.35 473.472
55 0 146.611 13.8121 2025 86.0706 509.664 473.31
56 0 152.358 15.2207 2319 82.8448 509.834 474.274
57 0 155.469 14.3952 2238 84.244 509.548 473.004
58 0 159.982 15.633 2501 82.5138 510.053 468.069
59 1 60.0514 12.5559 754 78.317 509.361 464.946
60 0 62.1009 11.6262 722 79.6427 509.472 462.662
61 0 65.0562 14.2953 930 75.4957 508.461 459.201
62 0 67.0666 13.673 917 76.1625 508.473 459.01
63 0 69.0225 12.764 881 77.4427 508.524 457.228
64 0 71.1682 12.4213 884 77.7093 508.567 456.718
65 0 74.0473 13.8965 1029 74.6074 509.59 456.251
66 0 76.0303 13.6261 1036 75.3996 508.553 454.16
67 0 79.0739 13.5949 1075 74.4502 508.815 453.527
68 0 83.0899 13.2868 1104 74.789 508.913 451.387
69 0 87.0912 14.5365 1266 71.5584 508.909 452.172
70 0 89.1201 13.5099 1204 73.6154 508.26 450.447
71 0 93.1224 12.8863 1200 74.11 508.508 448.327
72 0 96.1015 14.4847 1392 71.5323 508.777 445.156
73 0 99.0968 13.0781 1296 73.0679 508.782 443.816
74 0 102.137 13.8148 1411 71.309 508.413 444.778
75 1 52.0224 12.6484 658 71.3009 507.85 466.657
76 0 52.032 12.9536 674 70.9926 508.907 466.424
77 0 54.0332 9.56818 517 74.1122 508.379 468.286
78 0 55.1169 11.1037 612 73.2696 508.289 464.887
79 0 59.1093 13.179 779 69.9564 508.741 464.072
80 0 60.0503 12.8059 769 70.7412 509.291 463.064
81 0 60.0659 12.9691 779 70.828 509.615 460.888
82 0 63.0551 13.845 873 69.0057 510.247 460.981
83 0 65.0759 13.077 851 69.8602 509.988 458.29
84 0 67.0861 14.1013 946 68.2421 509.723 457.69
85 0 71.0967 12.2509 871 69.8312 509.688 459.948
86 0 71.0698 12.9591 921 68.8784 509.624 458.881
87 0 74.0989 12.1324 899 69.6507 509.289 458.394
88 0 76.0482 14.767 1123 66.6278 509.198 454.418
89 0 78.0277 12.6109 984 69.2734 509.683 455.115
90 0 82.0751 13.9872 1148 67.0122 509.778 453.976
91 0 85.1362 13.2259 1126 68.3988 509.034 453.306
92 0 88.073 12.8303 1130 68.6876 510.019 452.404
93 0 89.0675 11.8337 1054 70.63 509.906 452.371
94 0 94.1533 12.7558 1201 68.4097 510.281 453.319
95 0 96.0874 13.2796 1276 68.6951 510.052 446.708
96 0 101.137 14.8018 1497 65.9719 509.48 448.158
97 1 54.0611 12.6338 683 67.7291 509.515 470.735
98 0 53.0479 12.4981 663 68.8944 509.606 472.487
99 0 55.0432 12.0633 664 69.1416 509.658 468.217
100 0 57.0536 11.3577 648 70.1636 509.554 468.392
101 0 59.0626 12.6476 747 68.5301 509.92 467.294
102 0 61.0099 12.6045 769 68.0624 509.96 468.684
103 0 65.0602 12.8496 836 67.2141 510.14 468.837
104 0 63.0682 11.3052 713 70.4376 510.433 466.781
105 0 66.0774 12.3946 819 68.6435 509.48 467.391
106 0 70.0506 12.7337 892 67.889 509.988 467.463
107 0 71.0657 12.9458 920 68.2902 508.951 465.572
108 0 71.0416 12.2886 873 68.7846 509.14 466.675
109 0 77.0513 13.3547 1029 66.4072 509.216 466.453
110 0 79.0486 13.283 1050 66.0448 509.249 466.546
111 0 80.0416 12.7309 1019 67.9254 509.285 464.071
112 0 82.0765 12.4883 1025 68.0517 509.202 463.898
113 0 87.1 12.2847 1070 67.6972 509.499 464.412
114 1 44.0745 10.7772 475 68.5095 509.491 483.638
115 0 43.0306 10.1091 435 69.8161 509.628 482.846
116 0 45.1733 12.2417 553 67.4702 509.599 480.718
117 0 48.0958 12.6206 607 65.2389 509.717 482.353
118 0 49.059 12.169 597 66.8878 509.551 479.663
119 0 51.0111 13.2128 674 64.4614 510.006 480.326
120 0 52.1432 12.2739 640 66.2609 509.627 478.542
121 0 53.1103 11.6926 621 67.256 510.145 478.027
122 0 56.089 12.9616 727 64.6644 509.378 479.95
123 0 56.1101 12.725 714 65.2381 508.92 481.464
124 0 57.0806 12.2984 702 65.812 509.236 481.15
125 0 60.1125 12.9258 777 64.4041 509.674 481.978
126 0 62.1308 11.9425 742 64.8612 509.438 480.309
127 0 62.1164 11.1887 695 66.141 509.686 477.337
128 0 66.0418 13.3855 884 62.9412 508.914 470.991
129 0 68.0654 12.0325 819 64.1404 508.38 469.872
130 0 70.094 11.7842 826 63.8172 508.455 470.39
131 0 72.1138 12.3 887 63.2537 507.773 465.667
132 1 38.0613 10.2466 390 63.5436 507.687 483.641
133 0 36.0395 8.65718 312 66.9391 508.093 482.378
134 0 42.1854 11.7576 496 61.4657 508.815 482.135
135 0 42.0321 12.1098 509 61.3674 509.348 482.301
136 0 43.0601 11.9832 516 61.0504 509.641 482.928
137 0 45.0532 9.27792 418 64.1412 509.811 482.907
138 0 46.1773 12.2571 566 60.6131 508.912 480.489
139 0 44.0373 10.6274 468 62.9872 508.252 480.833
140 0 49.1892 14.2511 701 57.9144 508.599 480.509
141 0 50.0419 10.3513 518 62.4904 509.052 479.201
142 0 51.0716 10.7692 550 61.9091 508.987 479.682
143 0 55.2923 12.4972 691 58.8017 508.847 481.239
144 0 54.128 12.452 674 59.9036 508.674 480.279
145 0 56.1113 11.7089 657 60.4764 508.869 481.566
146 0 59.1232 11.3154 669 60.6981 509.538 478.495
147 0 60.1605 12.2339 736 59.3818 509.569 483.542
148 0 63.1169 11.3757 718 60.3872 508.695 481.478
149 0 66.1586 12.984 859 58.78 509.286 479.312
150 0 68.1427 11.0063 750 60.272 508.856 483.327
151 0 72.1736 11.6663 842 59.3409 509.158 482.211
152 0 72.1516 12.1272 875 59.8983 508.583 478.523
153 0 76.1488 9.9148 755 61.8 508.332 481.697
154 0 78.1495 13.0519 1020 58.7245 509.106 480.313
155 0 81.0653 12.5578 1018 59.2161 509.599 476.942
156 0 83.1725 13.0452 1085 59.2175 509.406 476.579
157 1 40.0216 10.7192 429 60.9557 508.904 498.422
158 0 41.0351 9.52843 391 62.5269 509.036 498.222
159 0 45.1157 12.6563 571 59.4886 509.067 497.018
160 0 45.1115 12.3915 559 60.7728 508.964 498.063
161 0 47.109 13.2247 623 60.382 508.403 496.907
162 0 48.1328 11.2397 541 62.7837 509.155 495.357
163 0 50.11 11.0158 552 63.1703 509.678 497.545
164 0 50.1813 12.8933 647 61.5147 509.478 495.773
165 0 50.1058 11.9148 597 63.3652 509.648 493.874
166 0 55.2039 12.6803 700 61.6257 509.981 495.474
167 0 56.054 12.488 700 62.24 509.657 495.91
168 0 57.0919 11.1925 639 63.8012 510.192 496.448
169 0 59.1385 11.955 707 62.7652 509.642 494.885
170 0 62.0937 11.8369 735 63.0177 509.725 495.475
171 0 63.0987 13.8196 872 60.4782 509.537 493.93
172 0 65.1875 12.8552 838 61.8866 509.741 494.951
173 0 65.1622 12.4612 812 63.3066 509.808 492.768
174 0 68.1877 12.1869 831 62.6522 509.68 496.521
175 0 69.0309 12.8348 886 62.807 509.638 492.816
176 0 72.1336 12.1857 879 63.3493 509.972 495.243
177 0 73.113 12.8705 941 63.2359 509.332 492.405
178 0 80.129 15.0632 1207 60.1193 509.663 493.865
179 0 79.1269 13.0676 1034 63.531 509.488 493.327
180 0 81.0789 15.3801 1247 61.3216 508.829 490.913
181 0 83.0823 13.8297 1149 63.2663 508.866 490.749
182 0 88.1155 14.9123 1314 62.003 509.489 490.396
183 0 90.072 13.7668 1240 63.9064 508.895 490.561
184 0 92.246 13.7242 1266 64.09 508.159 488.102
185 0 94.3276 13.5273 1276 64.4444 508.367 489.868
186 0 95.1678 12.252 1166 66.8585 508.374 485.357
187 1 51.099 12.2899 628 64.1417 507.775 511.124
188 0 51.1446 14.7621 755 62.2954 507.399 510.744
189 0 51.085 12.0779 617 65.6062 506.963 511.092
190 0 53.2968 13.0402 695 64.9022 506.763 510.54
191 0 56.104 11.9421 670 65.9896 506.428 509.106
192 0 59.341 13.1275 779 63.4403 506.182 510.986
193 0 60.1338 12.9212 777 64.619 506.39 510.517
194 0 60.3275 12.1503 733 65.4079 506.615 510.864
195 0 62.0795 12.484 775 65.4697 507.111 509.337
196 0 63.2337 12.9045 816 64.962 506.199 509.721
197 0 67.214 11.9023 800 65.575 506.255 507.769
198 0 68.1209 12.5072 852 65.7688 505.857 506.25
199 0 70.2032 12.8199 900 65.2956 505.877 504.646
200 0 72.144 11.7543 848 66.4021 506.42 506.255
201 0 69.0215 9.44634 652 70.1718 506.897 504.06
202 0 72.0456 12.1173 873 67.9565 506.386 502.9
203 0 78.0623 11.2474 878 67.9647 506.254 503.861
204 0 83.1532 11.9178 991 67.8204 505.82 502.973
205 0 84.1336 11.9215 1003 68.6989 505.917 502.325
206 1 44.0692 10.4835 462 68.7251 505.974 523.537
207 0 44.0795 10.3222 455 69.5714 506.338 523.299
208 0 45.0948 11.9304 538 68.6747 505.844 521.887
209 0 46.0627 8.33646 384 72.6589 506.073 522.003
210 0 49.0387 10.5019 515 70.7748 506 520.437
211 0 51.0823 9.55322 488 70.9816 505.465 520.734
212 0 53.0413 10.1808 540 71.1815 504.752 518.439
213 0 53.0911 12.4691 662 69.2341 505.361 516.87
214 0 54.0466 10.3799 561 71.3262 504.159 518.736
215 0 58.1952 11.4442 666 70.3258 504.318 515.425
216 0 59.1253 10.9429 647 71.1654 503.821 512.624
217 0 60.1484 10.657 641 71.9704 504.023 511.676
218 0 61.0473 9.38617 573 73.2426 504.213 512.243
219 0 63.077 11.0024 694 71.3084 503.79 511.709
220 0 68.2259 10.5532 720 71.2236 504.438 510.817
221 0 67.1151 9.66996 649 72.8968 504.752 506.197
222 0 70.1285 9.71074 681 73.4229 503.678 505.774
223 0 76.1657 11.173 851 71.0576 504.447 506.49
224 0 79.0859 12.2146 966 70.4017 503.817 501.714
225 0 78.1182 10.2025 797 73.3124 503.595 500.793
226 0 81.2507 10.9045 886 72.4154 503.47 502.361
227 0 82.0731 10.6369 873 72.8087 502.833 500.013
228 0 87.0923 10.3109 898 73.147 503.085 502.043
229 0 91.1785 13.0952 1194 69.7915 502.956 498.75
230 0 94.1004 12.1679 1145 70.9956 503.777 499.662
231 0 94.105 12.4861 1175 70.8094 504.003 499.004
232 0 97.1587 12.2274 1188 72.2626 503.545 497.223
233 0 103.165 13.4058 1383 70.0188 503.994 496.536
234 0 104.106 13.1597 1370 71.6358 503.361 493.416
235 0 105.143 12.0312 1265 73.7225 503.99 491.535
236 0 111.273 14.2981 1591 70.1232 503.973 490.322
237 0 115.232 15.0913 1739 68.5831 504.01 489.553
238 0 118.232 13.6173 1610 70.4851 503.804 489.547
239 0 122.124 14.3706 1755 70.1652 504.493 485.491
240 0 125.17 13.8531 1734 71.3431 504.652 481.679
241 0 128.339 13.0124 1670 72.712 504.848 480.936
242 0 133.174 13.0431 1737 72.7093 504.18 478.366
243 0 138.159 12.9706 1792 72.7545 504.376 478.444
244 0 142.283 11.4631 1631 74.8332 504.735 479.519
245 0 145.157 14.0193 2035 73.4722 504.092 468.858
246 0 148.285 12.739 1889 75.3822 504.218 472.515
247 0 154.279 13.1515 2029 75.3593 504.643 470.91
248 0 160.284 12.3656 1982 76.5807 505.092 471.065
249 0 164.141 13.531 2221 75.371 505.063 469.425
250 0 169.115 13.7835 2331 76.1819 505.226 464.627
251 0 172.231 14.347 2471 75.4456 505.114 467.535
252 0 178.208 13.0185 2320 77.3888 505.324 464.801
253 1 141.272 13.0883 1849 78.225 505.29 479.125
254 0 144.171 13.0262 1878 77.6832 505.589 480.351
255 0 150.183 10.1476 1524 82.1654 506.142 479.448
256 0 152.223 13.0926 1993 78.5539 505.527 475.747
257 0 154.332 13.2247 2041 78.2807 505.872 476.625
258 0 162.155 13.8633 2248 77.3234 505.595 471.432
259 0 166.243 13.5043 2245 78.249 504.963 469.584
260 0 171.204 12.6808 2171 79.707 505.025 464.063
261 0 177.397 14.0758 2497 77.0973 505.148 463.101
262 0 180.364 12.4969 2254 79.8926 505.069 459.7
263 0 182.263 11.9443 2177 79.7147 505.361 467.51
264 1 194.131 14.7014 2854 76.4769 505.191 456.699
265 0 199.252 13.8368 2757 78.5325 505.086 453.515
266 0 204.31 13.3082 2719 79.4252 504.934 452.387
267 0 211.26 12.5769 2657 80.5736 505.052 448.16
268 0 218.273 13.6984 2990 79.2789 505.103 444.612
269 1 145.129 12.6439 1835 80.4316 504.722 479.747
270 0 144.217 11.1776 1612 82.8238 504.328 479.987
271 0 147.281 11.9296 1757 83.4758 503.92 478.332
272 0 152.11 11.3273 1723 83.7986 504.253 481.644
273 0 154.303 13.6679 2109 82.688 503.623 474.52
274 1 205.286 13.6639 2805 82.7565 503.72 452.306
275 0 208.226 13.6294 2838 83.6487 503.795 452.043
276 0 214.297 13.8873 2976 83.5215 503.822 451.212
277 1 168.227 14.1773 2385 83.2369 503.63 471.893
278 0 171.248 13.0454 2234 84.1388 503.488 474.252
279 0 175.129 12.505 2190 86.0489 503.337 469.852
280 0 181.364 13.9388 2528 83.5249 503.788 467.954
281 0 186.255 13.0037 2422 85.1672 503.628 462.621
282 1 142.151 12.2757 1745 85.4395 503.632 485.251
283 0 149.206 13.2367 1975 83.0663 502.861 484.209
284 0 154.163 13.3041 2051 82.7616 503.019 479.525
285 0 158.228 13.4743 2132 80.4048 502.516 482.89
286 0 164.299 12.4773 2050 82.5263 502.867 478.144
287 0 169.246 13.6902 2317 81.8062 502.779 471.071
288 0 175.312 13.5416 2374 81.7687 502.957 466.614
289 0 182.114 13.0468 2376 81.6326 502.622 466.792
290 0 188.307 12.3415 2324 83.1016 502.355 461.144
291 0 195.233 11.9805 2339 83.3809 502.845 462.074
292 0 199.261 13.0733 2605 82.5394 502.631 456.52
293 1 166.159 12.3376 2050 82.2317 502.434 477.073
294 0 172.219 13.1809 2270 82.3053 503.461 469.496
295 0 176.192 12.6737 2233 83.4917 503.051 462.893
296 0 182.402 12.138 2214 83.7426 502.574 464.564
297 0 188.361 12.7999 2411 82.4338 502.263 462.015
298 0 196.33 13.294 2610 81.7644 503.267 458.591
299 1 157.142 13.9047 2185 82.2522 502.372 470.477
300 1 121.173 12.0324 1458 84.0446 502.484 489.003
301 0 126.203 12.0441 1520 83.0362 502.645 488.328
302 0 130.301 12.4481 1622 82.5715 502.314 486.242
303 0 135.13 12.1587 1643 82.5545 503.184 484.774
304 1 47.1249 10.695 504 76.246 502.74 525.508
305 0 47.0809 11.0661 521 76.238 502.666 524.346
306 0 49.0953 10.2861 505 77.5703 502.434 524.02
307 0 50.189 10.8589 545 76.6697 502.453 521.639
308 0 52.1263 12.0668 629 74.1351 502.65 522.544
309 0 51.0294 10.5429 538 77.4275 502.563 520.898
310 0 56.1084 11.9946 673 73.9198 502.646 519.336
311 0 55.1256 11.4829 633 75.6825 502.814 517.248
312 0 59.2521 11.8646 703 74.239 503.077 515.946
313 0 59.2343 10.9396 648 75.9645 503.15 515.951
314 0 64.2097 11.587 744 73.3965 502.075 516.168
315 0 63.1838 12.0759 763 73.9358 501.958 512.68
316 0 66.0786 10.9264 722 74.8255 502.921 511.647
317 0 69.1308 11.5144 796 73.5151 502.284 512.102
318 0 71.1055 12.6713 901 71.4206 502.539 509.893
319 0 72.1205 11.3005 815 73.8294 503.328 507.654
320 0 75.1214 12.127 911 71.9934 503.359 508.504
321 0 77.2393 11.665 901 71.6604 503.491 510.072
322 0 80.124 11.1702 895 72.905 503.507 506.499
323 0 80.1532 9.89355 793 74.0227 503.097 508.082
324 0 85.1524 10.6045 903 73.309 503.296 503.658
325 0 87.2494 11.5072 1004 71.2968 503.197 502.715
326 1 44.0825 9.6637 426 69.7629 502.289 523.533
327 0 45.1852 9.40573 425 69.9082 501.496 523.249
328 0 48.0922 11.3116 544 66.4283 502.667 522.654
329 0 50.1475 10.2498 514 67.6381 502.778 521.626
330 0 51.0363 11.3253 578 66.5225 502.77 519.58
331 0 53.1627 10.4397 555 67.0847 503.422 519.35
332 0 52.1415 11.1236 580 66.5103 503.172 519.786
333 0 55.2391 12.3825 684 64.4357 502.781 516.07
334 0 59.1945 11.8085 699 63.6452 502.607 518.74
335 0 59.1684 10.2081 604 66.7318 502.843 517.891
336 0 59.1118 10.3871 614 66.8078 502.585 515.505
337 0 61.1484 10.7771 659 66.5645 502.584 514.46
338 0 62.2153 11.8781 739 64.9662 502.721 515.352
339 0 65.1699 12.5671 819 64.6484 503.509 510.556
340 0 65.1459 11.221 731 66.8112 502.912 510.416
341 0 68.1419 11.2266 765 66.8784 502.864 511.312
342 0 73.2339 12.4396 911 65.0263 502.604 507.423
343 0 72.1394 10.9233 788 67.2145 502.345 509.154
344 0 73.2278 12.0036 879 65.9795 502.898 508.332
345 0 77.1616 12.3377 952 65.9632 503.201 506.349
346 0 77.1699 10.1983 787 70.169 503.217 503.788
347 0 81.1528 11.4106 926 67.9525 503.581 504.495
348 1 39.1068 10.1261 396 66.755 503.414 525.573
349 0 41.2011 10.1454 418 66.8636 503.213 523.086
350 0 42.1756 10.7645 454 66.4934 502.956 522.249
351 0 45.2849 12.1895 552 64.6341 503.281 522.632
352 0 46.0464 11.3364 522 64.4444 503.195 523.644
353 0 45.1162 10.1294 457 67.547 502.947 522.357
354 0 48.0833 11.0849 533 65.6867 503.67 522.201
355 0 49.0915 11.8962 584 64.6387 502.565 521.704
356 0 51.1689 11.6868 598 63.8963 502.428 521.863
357 0 53.102 11.9769 636 65.2154 502.791 519.862
358 0 53.1312 10.22 543 67.4494 503.451 518.858
359 0 56.0545 10.2579 575 66.2139 503.873 519.974
360 0 57.0216 10.9081 622 65.9325 503.178 517.982
361 0 58.1261 11.0621 643 66.182 503.154 518.129
362 0 60.1648 12.7151 765 64.4013 502.961 516.061
363 0 60.1548 11.2876 679 66.729 502.951 515.654
364 0 62.1144 12.9761 806 64.7308 503.354 514.122
365 0 64.0967 12.4655 799 65.0876 503.07 514.92
366 0 65.2576 12.8721 840 65.2202 503.644 511.833
367 0 67.2741 12.397 834 65.9856 503.253 510.902
368 0 68.1154 10.7905 735 68.3347 504.001 511.933
369 0 70.3026 10.91 767 67.8435 503.129 511.434
370 0 74.1637 12.3645 917 65.7416 503.321 510.503
371 0 75.0873 12.0393 904 66.5951 503.528 509.154
372 0 78.1721 12.4981 977 66.3746 503.027 507.906
373 0 78.1751 9.58106 749 69.968 503.359 508.948
374 1 39.2199 9.53597 374 67.6364 502.837 526.345
375 0 40.136 10.4395 419 65.7303 503.1 526.36
376 0 43.079 11.0263 475 64.5453 503.528 526.326
377 0 43.0908 11.0696 477 65.2243 503.753 525.822
378 0 43.025 9.90122 426 66.7958 503.263 525.432
379 0 46.0873 11.1093 512 65.9141 503.258 523.646
380 0 48.0795 12.6457 608 64.1497 502.535 522.788
381 0 48.053 11.8411 569 64.8752 502.48 522.271
382 0 47.0307 10.1423 477 68.2872 502.379 521.082
383 0 51.0535 11.5369 589 65.1087 502.667 522.503
384 0 52.0916 12.8812 671 64.2042 502.441 518.985
385 0 52.1305 11.1835 583 66.3928 502.003 518.758
386 0 55.2535 11.3658 628 65.3901 502.342 518.282
387 0 55.1519 10.9153 602 65.99 502.678 518.352
388 0 57.0504 11.5512 659 65.3354 502.838 518.127
389 0 58.1374 12.7457 741 64.4777 502.629 515.26
390 0 58.0847 11.1905 650 66.48 502.683 514.609
391 0 62.155 11.954 743 65.039 501.75 514.144
392 0 62.0744 10.0525 624 68.2244 502.554 513.819
393 0 65.1067 10.2908 670 67.4015 503.096 512.731
394 0 66.0634 11.5192 761 66.4297 503.28 512.724
395 0 69.1864 11.0715 766 67.0013 502.581 512.979
396 0 71.1218 11.9091 847 66.869 502.856 508.774
397 0 74.0557 10.9107 808 67.2475 503.168 508.902
398 0 73.1132 9.97085 729 69.096 503.244 509.006
399 0 77.0476 11.11 856 68.4346 503.161 505.768
400 0 81.1062 12.1322 984 67.065 503.614 505.941
401 1 44.1268 12.1242 535 63.2224 503.335 525.4
402 0 45.0776 10.6483 480 66.5833 503.515 524.898
403 0 43.1273 11.2458 485 66.7464 503.431 525.99
404 0 46.1019 11.1492 514 66.3152 502.946 525.385
405 0 47.1218 11.7568 554 66.4982 502.98 524.096
406 0 49.1251 12.0712 593 65.4199 503.18 524.234
407 0 49.137 9.78895 481 69.5946 503.31 524.262
408 0 51.1811 11.176 572 68.6538 503.967 520.781
409 0 53.2249 11.8929 633 66.2054 503.787 522.989
410 0 55.0772 12.2555 675 66.0089 503.664 521.13
411 0 57.0759 12.5622 717 65.9205 503.579 521.522
412 0 59.0308 12.4173 733 65.6999 503.449 519.819
413 0 60.0472 13.1896 792 65.1818 503.595 518.612
414 0 59.0467 11.0252 651 69.0983 503.327 517.684
415 0 65.0688 13.4319 874 65.0229 503.325 515.68
416 0 66.0585 12.822 847 66.5632 503.064 515.662
417 0 65.1703 12.3369 804 67.5696 503.404 515.65
418 0 68.155 11.4739 782 68.8107 503.228 514.354
419 0 72.097 12.5248 903 66.4806 503.268 513.937
420 0 69.226 11.0363 764 70.0903 503.059 511.008
421 0 74.1134 12.6563 938 67.9435 503.449 508.719
422 0 76.0225 11.3256 861 70.0534 503.102 507.633
423 0 79.1189 12.9678 1026 67.6647 503.428 505.824
424 1 39.0782 10.5686 413 68.54 502.709 526.525
425 0 42.1144 10.6614 449 67.706 502.147 526.726
426 0 41.0739 10.615 436 69.633 502.794 523.647
427 0 43.1709 10.9101 471 68.8026 503.403 526.015
428 0 45.037 11.213 505 68.7406 503.253 524.154
429 0 47.0354 11.6933 550 67.7273 503.767 524.107
430 0 46.1691 10.1583 469 70.3881 503.727 524.552
431 0 49.0387 12.9082 633 67.0711 504.128 523.291
432 0 50.0654 10.3664 519 69.5877 503.019 524.53
433 0 51.1083 13.4029 685 66.7256 503.289 520.45
434 0 51.1435 9.62 492 71.7114 503.553 521.378
435 0 55.0569 12.2055 672 68.2604 503.045 520.086
436 0 55.0731 10.6223 585 70.9675 502.78 516.176
437 0 57.0643 11.1103 634 70.1041 503.434 518.855
438 0 58.1612 11.193 651 70.2028 503.528 518.501
439 0 61.1151 10.9793 671 69.839 503.002 517.17
440 0 62.1406 11.4901 714 69.9076 502.704 515.664
441 0 64.1624 11.6579 748 69.4238 502.035 514.027
442 0 66.1306 11.5227 762 69.1509 501.958 514.319
443 0 70.2824 12.6205 887 67.5085 502.085 513.219
444 0 72.0841 12.416 895 68.2905 501.968 511.961
445 0 72.1305 10.4394 753 71.0996 502.11 510.784
446 0 77.2203 12.0305 929 68.3649 502.256 511.165
447 0 77.1215 13.1351 1013 67.6881 502.488 508.539
448 0 81.1011 11.8248 959 69.1001 502.354 508.4
449 0 83.1757 11.2894 939 70.3323 503.007 505.197
450 1 41.0812 9.76115 401 69.1322 502.85 525.683
451 0 45.0183 10.9955 495 67.3091 502.386 524.277
452 0 45.1489 13.1343 593 65.4975 502.069 524.201
453 0 46.038 10.5565 486 68.4362 502.006 524.788
454 0 46.0861 11.1747 515 68.2932 502.336 524.252
455 0 48.037 11.387 547 67.6581 501.448 523.252
456 0 50.1403 11.2085 562 68.5427 502.274 520.427
457 0 51.0641 12.357 631 66.2092 502.068 521.501
458 0 51.0778 10.6504 544 69.625 502.261 518.257
459 0 54.0297 12.3636 668 66.7695 502.109 518.635
460 0 57.0386 12.9211 737 65.536 502.351 517.999
461 0 56.0435 11.7944 661 68.3449 502.694 516.977
462 0 60.1117 11.1792 672 68.7783 502.161 516.421
463 0 62.1955 11.8497 737 67.0041 502.354 518.019
464 0 63.1262 12.7205 803 67.2441 502.372 513.697
465 0 66.1276 11.7349 776 67.9626 502.726 513.081
466 0 67.0802 10.6142 712 69.2612 502.229 513.876
467 0 70.1859 12.5951 884 67.0826 502.24 510.906
468 0 71.194 12.1499 865 67.3908 502.016 512.111
469 0 75.116 12.4341 934 67.2559 501.925 508.883
470 0 77.1438 11.0184 850 68.8765 501.96 510.041
471 0 80.0892 12.3737 991 67.0333 502.09 507.748
472 0 80.1846 12.4338 997 67.6891 502.023 506.976
473 1 38.1076 9.78806 373 67.9652 502.708 526.26
474 0 40.0488 12.3849 496 64.621 502.335 526.907
475 0 42.0954 11.7352 494 64.7328 501.834 526.82
476 0 41.0766 10.5169 432 67.1875 501.977 525.727
477 0 44.034 11.7409 517 65.4604 502.406 524.99
478 0 45.0671 10.0517 453 66.8455 502.018 525.523
479 0 46.0476 11.3578 523 65.5449 502.524 523.723
480 0 48.1926 12.2218 589 64.1681 501.861 523.494
481 0 48.2175 11.22 541 65.9889 502.102 522.32
482 0 51.1144 11.7971 603 64.9983 502.426 520.342
483 0 51.0298 11.6599 595 65.2202 502.63 520.896
484 0 54.0276 12.1049 654 64.2187 502.537 520.384
485 0 57.1789 11.5952 663 64.5128 502.38 519.998
486 0 58.0751 10.8652 631 65.1886 502.545 520.39
487 0 61.1176 11.4533 700 64.4529 502.131 519.749
488 0 61.1243 9.97966 610 66.9656 501.816 518.498
489 0 61.1181 11.0769 677 66.7504 502.786 516.16
490 0 66.08 11.7736 778 65.3419 501.767 515.832
491 0 68.0914 12.5713 856 64.7336 501.838 514.293
492 0 70.0715 10.4179 730 67.4219 501.727 515.279
493 0 73.0827 11.4117 834 66.3609 502.589 513.568
494 0 72.1487 11.601 837 67.1804 501.844 510.822
495 0 73.0737 11.6868 854 67.6592 502.112 511.372
496 0 76.0624 9.50536 723 70.3859 501.952 508.658
497 1 40.1228 10.5925 425 66.1482 501.962 527.718
498 0 41.111 10.1433 417 67.0959 502.165 527.703
499 0 42.0272 12.6823 533 63.985 501.36 526.818
500 0 42.313 9.80786 415 67.5928 501.733 527.13
501 0 43.1363 10.432 450 66.4911 501.131 527.196
502 0 44.0549 10.2372 451 68.1197 501.319 524.259
503 0 48.2817 10.4802 506 66.5949 501.812 525.844
504 0 48.1354 10.1796 490 67.4041 501.567 525.159
505 0 49.2149 10.9926 541 66.4104 501.824 523.115
506 0 51.0986 10.9984 562 66.8292 502.011 520.564
507 0 52.0819 11.8659 618 65.1618 501.453 522.307
508 0 52.1464 10.739 560 67.3464 500.78 519.273
509 0 55.3032 11.5002 636 66.2987 501.404 517.55
510 0 57.1726 11.4215 653 66.4518 501.833 516.576
511 0 60.1497 11.7041 704 65.7159 501.562 517.317
512 0 60.1015 10.1162 608 68.1266 501.515 515.488
513 0 64.1049 10.8884 698 66.6232 501.724 515.666
514 0 67.1225 11.3971 765 65.715 501.439 516.359
515 0 67.0728 11.0626 742 65.9515 502.208 514.536
516 0 73.1944 11.5719 847 64.673 502.112 513.511
517 0 72.2726 10.917 789 66.1534 502.166 511.987
518 0 74.1497 11.3554 842 66.4846 501.544 510.183
519 1 36.0599 9.81701 354 63.9661 502.201 529.107
520 0 39.1139 9.10162 356 64.4326 502.042 528.542
521 0 40.0142 10.7962 432 62.7106 502.188 529.322
522 0 40.0351 10.241 410 63.6854 502.241 528.237
523 0 40.1768 10.0058 402 63.8532 502.366 529.007
524 0 42.1043 10.5927 446 63.7937 502.664 525.8
525 0 44.0949 10.931 482 62.8154 502.392 526.687
526 0 45.1034 12.039 543 62.6169 502.424 522.409
527 0 47.0472 12.5618 591 60.9475 501.293 524.42
528 0 50.0644 9.56768 479 65.0271 501.635 523.451
529 0 52.2155 11.7973 616 61.8166 502.003 523.64
530 0 53.1918 12.8779 685 60.6847 502.288 522.704
531 0 53.0516 12.3465 655 62.2702 502.704 521.521
532 0 51.1301 9.95499 509 66.0295 502.458 519.697
533 0 55.2047 10.9954 607 64.575 502.125 519.239
534 0 59.1982 13.97 827 60.1342 502.152 518.967
535 0 58.1894 11.3595 661 64.705 502.012 516.15
536 0 61.1538 12.1006 740 63.2919 502.02 517.438
537 0 61.1442 11.661 713 64.8191 502.338 513.31
538 0 65.1093 12.0106 782 63.8325 502.147 514.182
539 0 67.3651 11.5787 780 64.3282 501.947 512.773
540 0 69.1246 11.9928 829 63.725 501.386 513.128
541 0 71.1972 11.5454 822 64.5511 501.446 511.809
542 0 74.1764 11.7018 868 63.9758 501.536 510.911
543 0 77.0807 10.9496 844 65.0723 501.137 510.797
544 0 76.0707 9.26769 705 67.7688 501.33 508.451
545 0 80.1604 10.7035 858 66.0012 501.502 506.916
546 1 42.0141 11.3295 476 62.7248 501.187 526.353
547 0 45.0961 12.2849 554 61.9892 501.289 524.616
548 0 43.0688 9.54287 411 65.635 500.866 524.404
549 0 47.0636 10.3052 485 64.7526 500.736 522.596
550 0 48.0452 11.177 537 63.8473 501.404 522.142
551 0 49.0895 10.6947 525 64.979 501.375 522.646
552 0 51.0861 10.0419 513 66.0175 501 520.565
553 0 51.1003 10.8806 556 65.687 501.327 517.617
554 0 53.2003 11.9924 638 64.1238 501.616 518.569
555 0 53.179 10.7185 570 66.3333 501.861 519.016
556 0 57.1158 11.4854 656 64.8369 501.227 517.498
557 0 57.2444 10.7085 613 66.0799 501.754 517.186
558 0 61.0335 11.6657 712 64.6025 501.119 516.228
559 0 63.1218 12.1511 767 64.2881 500.936 512.316
560 0 64.1126 11.511 738 65.2805 501.57 513.894
561 0 67.1079 11.1313 747 65.921 500.19 513.082
562 0 71.0511 12.1743 865 64.3445 500.624 512.721
563 0 72.1317 10.7442 775 66.5806 500.741 511.235
564 0 72.0608 11.2127 808 66.6968 500.666 510.509
565 0 76.1276 11.3888 867 66.3633 500.625 504.751
566 0 78.0487 10.6472 831 67.3081 501.73 504.469
567 0 80.1477 12.4021 994 65.2475 501.858 502.672
568 0 83.1541 11.7372 976 66.2203 501.192 505.116
569 0 84.0732 11.7041 984 66.5569 501.218 500.609
570 0 88.0786 13.0111 1146 65.0942 501.493 499.127
571 0 93.095 11.9018 1108 66.0172 501.368 502.516
572 0 93.2793 12.4358 1160 66.1888 501.776 496.331
573 0 97.0636 11.0855 1076 67.8178 501.927 497.776
574 1 48.1401 10.4487 503 64.3877 501.807 523.642
575 0 48.0685 9.81933 472 66.892 501.326 521.443
576 0 49.1088 12.2381 601 63.9052 501.023 521.042
577 0 50.0434 11.55 578 65.2197 500.775 519.185
578 0 51.0964 10.4117 532 66.844 501.878 519.194
579 0 54.1545 11.8919 644 64.4224 501.786 518.486
580 0 54.0979 9.83402 532 68.0094 502.579 518.932
581 0 59.0354 12.1114 715 64.4028 502.22 518.234
582 0 58.084 11.9654 695 66.0576 503.246 515.649
583 0 61.0978 10.5732 646 68.0372 503.149 515.33
584 0 61.1117 10.1944 623 69.0241 503.117 514.552
585 0 65.153 12.2174 796 66.5578 502.604 513.285
586 0 66.09 11.56 764 68.4555 502.448 509.408
587 0 68.1042 10.9685 747 69.4471 502.289 509.788
588 0 71.0524 10.8511 771 69.1479 502.067 510.48
589 0 75.1226 11.7408 882 67.4184 502.124 511.279
590 0 75.1077 12.1426 912 68.511 502.248 506.01
591 0 77.0983 11.0119 849 69.7797 501.368 505.928
592 0 81.1115 12.8219 1040 67.8596 501.961 504.523
593 0 83.11 12.2488 1018 68.275 501.896 503.531
594 0 86.2114 12.3998 1069 68.0299 501.757 501.882
595 0 89.0945 13.0985 1167 67.5484 501.796 500.632
596 0 91.1117 12.4024 1130 68.7292 502.179 497.815
597 0 94.0702 12.8521 1209 67.8925 502.077 497.886
598 0 96.1742 12.3214 1185 68.5932 502.826 495.994
599 1 46.1171 10.2348 472 67.8242 502.765 519.653
600 0 49.0663 10.3533 508 66.622 503.047 520.795
601 0 50.0358 10.6524 533 66.3377 501.784 518.657
602 0 50.1151 13.1896 661 63.6172 502.313 519.676
603 0 54.0876 11.4259 618 65.7395 502.555 518.406
604 0 53.1548 12.0215 639 65.2113 502.707 514.972
605 0 56.0776 11.8942 667 64.7436 502.433 517.4
606 0 55.1191 10.559 582 67.2182 503.058 514.187
607 0 58.0694 10.3152 599 67.2454 503.007 515.441
608 0 59.0801 10.7989 638 67.0314 502.956 513.765
609 0 62.1999 11.9614 744 65.1358 502.293 513.672
610 0 63.0591 12.6072 795 64.9233 502.572 511.743
611 0 65.0961 10.8762 708 66.9689 502.802 511.547
612 0 68.0699 12.8838 877 64.5234 502.612 509.97
613 0 71.0536 11.7939 838 64.9797 502.232 511.788
614 0 70.0767 11.045 774 67.6705 502.398 506.092
615 0 74.1322 11.7763 873 66.9633 502.73 506.219
616 0 76.1452 12.4499 948 64.9283 502.552 508.879
617 0 80.148 11.4663 919 66.2165 502.64 507.547
618 0 79.1043 11.921 943 67.088 502.14 503.861
619 0 83.1179 10.4671 870 68.2425 501.883 504.229
620 0 87.1175 11.9264 1039 66.7055 501.769 503.48
621 0 89.1379 12.935 1153 65.7042 501.774 499.621
622 0 91.1112 11.7988 1075 66.3042 502.021 501.793
623 0 95.2008 12.6049 1200 65.6575 501.883 498.271
624 0 98.1078 11.5383 1132 67.2765 502.261 494.655
625 0 99.1965 12.692 1259 66.1763 502.218 491.044
626 1 55.0863 11.0917 611 65.1833 502.093 515.426
627 0 55.09 11.1272 613 65.4388 501.664 514.155
628 0 56.0999 11.7113 657 64.8326 502.107 513.814
629 0 57.0885 9.94947 568 67.0757 501.768 513.312
630 0 59.2074 9.81296 581 67.105 502.021 513.313
631 0 60.072 11.6027 697 65.472 502.059 510.461
632 0 64.0626 12.1288 777 64.5084 502.066 508.75
633 0 65.0579 10.1602 661 66.8926 502.717 509.98
634 0 68.1096 9.58749 653 67.709 502.23 509.729
635 0 70.2525 9.99253 702 67.3547 501.956 506.687
636 0 72.0837 12.0554 869 65.0817 502.25 503.792
637 0 74.0802 11.7575 871 64.6659 501.165 505.36
638 0 77.2057 11.1132 858 65.7086 501.809 502.666
639 0 79.0601 10.6375 841 66.0761 501.962 502.238
640 0 81.0793 11.3962 924 65.6851 501.878 497.887
641 0 84.2028 11.9711 1008 65.1736 502.007 500.777
642 0 88.1989 11.8256 1043 65.325 502.089 499.689
643 0 91.0774 11.9129 1085 65.3899 502.018 496.251
644 0 94.3009 11.0497 1042 66.4184 501.776 493.133
645 0 96.1235 11.3292 1089 66.3737 502.489 490.963
646 0 98.162 11.1347 1093 66.7264 501.532 492.283
647 0 105.297 12.0136 1265 64.9138 502.387 490.331
648 0 106.064 11.8231 1254 65.6324 502.652 490.096
649 1 54.0532 9.80516 530 65.4377 502.034 514.745
650 0 57.0442 11.2369 641 63.7769 502.13 512.864
651 0 57.1283 10.2226 584 65.1216 502.716 513.37
652 0 61.1909 11.2925 691 63.0796 502.113 514.132
653 0 63.131 12.6404 798 62.089 502.189 510.046
654 0 64.0927 9.86072 632 65.4225 501.59 510.195
655 0 66.2162 12.8518 851 61.9648 501.232 509.692
656 0 68.1233 12.1838 830 63.0976 501.801 507.602
657 0 71.151 12.2978 875 62.8686 502.413 507.977
658 0 73.0615 11.2782 824 65.1032 502.41 502.507
659 0 76.077 11.9616 910 63.3363 501.726 506.22
660 0 77.0619 11.6011 894 64.566 502.015 503.342
661 0 81.1072 11.6266 943 64.9046 502.276 501.617
662 0 83.0653 12.8574 1068 63.4719 501.553 500.562
663 0 85.107 11.4562 975 65.962 502.008 498.837
664 0 88.1872 12.3034 1085 65.2958 501.4 497.759
665 0 89.1317 12.0496 1074 65.2635 502.156 497.989
666 0 94.1881 11.4133 1075 65.9507 502.045 498.154
667 0 97.2197 11.0677 1076 66.2156 501.283 497.49
668 0 99.1469 10.9534 1086 66.3849 502.091 496.961
669 1 52.1218 10.533 549 63.0747 501.638 519.144
670 0 51.1311 10.522 538 65.3532 502.411 513.892
671 0 54.1168 10.9763 594 64.2155 502.32 515.091
672 0 55.2658 12.069 667 63.1124 502.66 511.751
673 0 58.0936 11.5848 673 63.211 502.556 512.905
674 0 59.1517 11.9861 709 63.2962 501.889 510.485
675 0 60.0698 11.4866 690 64.213 502.407 509.154
676 0 62.2413 11.5518 719 63.6565 502.243 511.235
677 0 64.0477 11.2728 722 63.9848 502.963 510.076
678 0 68.1412 12.0192 819 63.4701 502.95 505.945
679 0 69.1245 9.17185 634 66.1987 502.7 508.325
680 0 72.0789 11.2099 808 63.953 502.239 507.283
681 0 74.1259 11.2781 836 64.9988 503.106 503.378
682 0 76.1232 10.2465 780 66.241 502.954 503.212
683 0 81.0619 12.4966 1013 62.6308 503.404 504.772
684 0 82.2826 12.0682 993 64.2014 502.389 502.676
685 0 83.093 11.1562 927 65.5394 502.576 502.193
686 1 44.0966 11.2707 497 63.2213 502.823 519.447
687 0 46.1436 11.6159 536 62.4869 502.993 520.976
688 0 47.2631 10.7907 510 64.3392 503.098 517.802
689 0 47.1317 9.56892 451 66.6563 503.435 519.734
690 0 50.1691 10.2852 516 64.8779 503.207 519.043
691 0 51.1211 9.21342 471 66.2484 503.261 519.136
692 0 53.1583 11.9454 635 63.2268 503.318 518.176
693 0 54.0754 11.4655 620 64.0129 502.792 515.471
694 0 55.1881 10.437 576 64.4444 503.227 516.993
695 0 57.1869 11.2264 642 64.0732 502.642 512.822
696 0 59.0864 11.0347 652 64.0736 502.199 514.821
697 0 62.087 10.9363 679 64.9971 503.074 510.462
698 0 63.2362 10.6743 675 65.6593 502.959 510.19
699 0 65.338 11.1727 730 64.8274 503.029 510.538
700 0 67.1743 12.5346 842 62.8907 502.319 510.726
701 0 69.0889 10.6385 735 65.3429 502.669 508.631
702 0 72.2313 11.1724 807 65.0012 502.783 506.032
703 0 76.2603 11.605 885 64.2814 501.75 505.79
704 0 78.2468 12.4094 971 63.3296 501.59 503.348
705 1 38.0472 9.48822 361 63.8587 501.82 524.006
706 0 38.0886 9.39914 358 64.2235 501.846 525.176
707 0 39.0499 8.45074 330 65.4394 502.2 524.37
708 0 42.1185 11.2302 473 62.2178 502.668 523.51
709 0 44.1862 9.27891 410 64.261 502.937 523.976
710 0 46.0632 11.3323 522 62.7816 502.17 522.167
711 0 45.0314 10.0596 453 64.7638 502.43 521.998
712 0 46.2791 10.0693 466 65.2446 502.18 519.476
713 0 49.1603 10.8217 532 63.5883 502.758 519.053
714 0 49.2408 9.86985 486 65.3889 501.92 517.23
715 0 53.0779 11.3418 602 62.3339 502.369 517.06
716 0 53.1951 11.768 626 62.1518 502.818 516.256
717 0 52.0411 9.79995 510 64.9118 502.076 515.192
718 0 58.1667 10.0401 584 62.8716 502.187 516.534
719 0 57.2088 11.0123 630 62.3714 502.444 513.689
720 0 60.0889 11.483 690 61.3928 502.401 510.983
721 0 63.2538 11.3985 721 61.6283 501.741 511.942
722 0 65.134 13.4031 873 58.9874 501.9 511.269
723 0 65.1431 12.2653 799 60.4618 501.896 507.747
724 0 68.364 11.0292 754 61.447 501.678 509.407
725 0 71.3348 10.8643 775 62.0684 501.683 507.071
726 0 72.234 12.7779 923 60.0314 502.049 505.004
727 0 76.2056 12.6369 963 59.8795 502.108 504.396
728 1 41.1005 11.2407 462 59.3961 501.589 522.45
729 0 39.0782 9.77528 382 61.8194 501.942 520.665
730 0 44.0465 11.1019 489 58.7321 501.957 522.955
731 0 46.0255 11.0591 509 59.5285 502.055 519.635
732 0 46.0642 9.98605 460 60.6913 502.254 521.304
733 0 48.0374 11.2621 541 59.5915 502.213 519.486
734 0 50.0269 11.5938 580 58.5345 501.784 519.738
735 0 51.1043 12.3669 632 57.8465 501.976 517.777
736 0 54.0644 11.4493 619 58.6107 502.352 517.622
737 0 55.1656 11.3658 627 58.6092 502.081 516.922
738 0 58.1511 11.7281 682 57.5982 502.541 516.07
739 0 61.1303 12.2198 747 56.8849 502.872 515.671
740 0 60.0816 10.7853 648 59.3318 503.519 513.511
741 0 62.1375 11.8608 737 58.0733 502.856 512.626
742 0 64.2044 9.93701 638 60.4969 502.378 510.98
743 0 65.1404 10.485 683 59.8316 502.789 509.277
744 0 66.1261 10.9034 721 59.6172 501.721 509.512
745 0 70.1323 11.4498 803 58.6202 502 508.704
746 0 71.2418 11.3276 807 59.1326 502.439 507.009
747 0 73.1136 11.4206 835 59.2503 502.702 505.526
748 0 76.093 12.0379 916 58.2413 502.799 504.403
749 0 80.1805 10.6759 856 59.9147 503.067 502.773
750 0 81.0788 11.7293 951 58.8717 502.416 503.717
751 0 86.1314 12.0978 1042 57.7083 502.879 501.817
752 0 88.3523 11.2051 990 59.5667 502.055 496.799
753 1 43.1678 9.35883 404 58.5545 501.943 522.352
754 0 45.0916 12.3304 556 55.9622 501.728 520.412
755 0 47.2668 9.96471 471 58.3142 502.187 519.637
756 0 47.0326 10.8436 510 57.5373 502.227 519.78
757 0 50.1526 9.172 460 58.1587 501.393 522.867
758 0 51.4122 10.6395 547 57.4186 502.132 518.706
759 0 56.2875 10.9971 619 56.294 501.827 517.452
760 0 52.1925 9.9248 518 58.5 501.129 516.469
761 0 56.1472 10.6684 599 57.995 501.765 515.185
762 0 56.2063 10.159 571 59.1559 502.814 514.982
763 0 61.1131 12.076 738 56.477 502.848 514.008
764 0 62.0762 11.6953 726 56.8416 502.782 513.074
765 0 63.2718 12.3752 783 56.6897 502.197 512.623
766 0 64.4622 11.6968 754 57.374 502.082 508.793
767 0 67.1327 12.5423 842 56.3979 502.023 507.413
768 0 70.209 11.6367 817 57.5031 501.996 507.548
769 0 71.1604 12.2962 875 56.9451 502.302 505.697
770 0 73.2291 11.1431 816 58.3015 502.308 503.751
771 0 77.1696 11.2998 872 58.0837 503.066 502.963
772 0 80.1546 14.5968 1170 54.6709 502.374 501.94
773 0 83.2529 10.9666 913 58.9179 502.304 499.685
774 0 83.35 11.8896 991 58.7629 501.78 499.699
775 1 41.2306 9.19219 379 58.2269 501.522 522.792
776 0 45.1201 12.101 546 54.9652 501.962 522.822
777 0 44.0725 10.5054 463 57.6566 501.652 519.555
778 0 45.1656 10.384 469 57.8891 502.488 518.565
779 0 46.1929 9.54692 441 58.8345 502.227 519.161
780 0 49.1607 9.43844 464 59.2392 502.233 515.774
781 0 52.3374 11.7507 615 56.2309 501.82 517.725
782 0 53.161 11.0231 586 57.6075 501.77 515.631
783 0 55.1591 12.89 711 55.3755 502.278 515.474
784 0 55.1279 10.5573 582 58.5601 502.208 514.198
785 0 58.1225 10.151 590 58.6966 502.483 513.125
786 0 59.1019 10.8457 641 58.3167 502.339 511.8
787 0 60.0816 10.3526 622 59.799 502.262 508.243
788 0 63.1794 13.4063 847 56.183 501.965 509.018
789 0 64.1914 11.8707 762 58.2034 501.315 509.495
790 0 68.1069 12.4804 850 57.24 500.772 510.011
791 0 70.2971 13.4999 949 56.686 501.317 507.278
792 0 72.1203 11.5917 836 58.2572 500.925 506.922
793 0 71.1927 10.4926 747 59.8313 501.375 504.439
794 0 76.1644 11.6327 886 58.1343 501.997 503.786
795 0 77.2876 10.8944 842 59.5178 501.885 504.691
796 0 81.2713 12.9074 1049 57.2355 501.861 504.925
797 0 82.3656 11.5461 951 58.8223 501.687 502.352
798 0 86.2031 11.9137 1027 58.4615 501.789 500.39
799 0 88.4226 11.4903 1016 59.3524 502.005 498.966
800 1 44.2738 8.92176 395 60.076 502.172 519.094
801 0 48.1716 10.6287 512 57.6328 501.426 520.092
802 0 50.2051 9.30184 467 58.6467 501.737 520.433
803 0 51.2949 10.1375 520 57.8058 501.558 517.583
804 0 53.32 12.1718 649 56.3544 501.573 515.598
805 0 55.1769 9.75046 538 59.0539 501.874 515.576
806 0 57.0494 11.4637 654 56.9862 501.875 515.647
807 0 59.2019 11.2834 668 57.2874 501.455 515.037
808 0 61.1852 10.7869 660 58.1545 501.647 512.715
809 0 60.2402 10.3253 622 58.9212 501.81 514.497
810 0 61.1642 10.807 661 58.2027 501.272 513.955
811 0 65.1454 10.607 691 58.314 501.792 511.521
812 0 68.3228 12.9678 886 56.3239 502.473 508.73
813 0 68.3374 11.0774 757 58.2444 502.098 507.738
814 0 70.2165 12.0627 847 57.392 501.837 508.315
815 0 72.2694 10.7376 776 59.1031 501.482 507.778
816 0 76.4969 11.2161 858 58.6224 501.973 506.682
817 0 78.2242 10.9429 856 58.9065 502.244 507.401
818 0 82.2384 12.0746 993 57.8459 502.194 505.259
819 0 84.2548 11.8569 999 57.4535 502.238 507.184
820 0 86.207 13.108 1130 56.8292 502.223 504.089
821 0 89.3531 11.4378 1022 58.6859 502.406 503.534
822 0 93.3101 12.3138 1149 58.1375 502.052 501.191
823 0 94.3898 12.406 1171 58.1751 501.107 502.176
824 1 51.2376 11.4174 585 59.2991 501.173 521.291
825 0 54.0982 12.1446 657 59.2268 501.438 519.355
826 0 55.1874 11.2526 621 60.5201 501.538 517.564
827 0 55.1825 10.6737 589 61.2156 501.905 519.542
828 0 55.2575 10.7497 594 62.2508 502.111 517.397
829 0 59.5064 12.4524 741 59.5371 502.107 517.815
830 0 61.1024 11.538 705 61.2837 502.318 515.315
831 0 61.2557 11.5744 709 61.2609 501.711 517.144
832 0 63.1671 12.3957 783 60.5006 501.925 514.978
833 0 65.135 12.9423 843 60.051 502.161 516.052
834 0 68.41 11.8988 814 61.0307 502.418 513.423
835 0 69.3109 12.0616 836 61.1938 502.142 514.51
836 0 73.2451 10.8267 793 62.309 502.216 512.839
837 0 74.3182 11.8679 882 61.1156 502.433 512.751
838 0 75.3728 12.0999 912 62.1732 502.322 510.289
839 0 79.3495 12.3756 982 61.4806 502.332 510.167
840 0 81.2983 12.5464 1020 61.4196 502.483 508.034
841 0 84.2077 11.5548 973 62.5992 502.082 508.955
842 1 43.236 11.7495 508 62.4449 502.707 525.272
843 0 45.3284 9.04511 410 65.9512 502.827 525.246
844 0 47.4492 11.507 546 63.0769 502.989 523.614
845 0 48.2547 10.6311 513 63.8636 502.372 523.799
846 0 51.2752 12.8522 659 61.2276 502.27 521.93
847 0 53.3561 11.6575 622 62.4534 502.857 522.555
848 0 53.2529 12.7317 678 62.1475 502.485 521.181
849 0 55.2958 10.905 603 62.723 502.252 523.182
850 0 56.2974 13.7662 775 60.8968 502.448 519.258
851 0 59.3728 12.632 750 61.8173 502.749 519.547
852 0 60.0722 12.0189 722 63.1551 502.457 517.152
853 0 60.3351 11.751 709 62.7786 502.711 519.377
854 0 64.2962 10.7316 690 63.8087 502.465 517.172
855 0 67.3459 12.3987 835 61.6371 502.261 516.844
856 0 66.3139 11.6868 775 63.0323 502.548 514.237
857 0 68.2655 11.4699 783 63.129 502.166 514.003
858 0 70.1839 11.2704 791 63.2263 502.377 514.478
859 0 73.4163 11.2781 828 63.4046 502.664 512.621
860 0 78.2946 13.2065 1034 61.7215 501.959 509.324
861 0 79.5035 11.9995 954 64.7683 502.692 506.069
862 0 81.3029 12.3858 1007 63.7527 502.496 509.34
863 0 86.2952 13.0482 1126 62.6696 501.057 507.307
864 0 86.215 13.8607 1195 62.4017 501.871 505.353
865 1 48.1681 12.1865 587 62.2981 501.755 525.058
866 0 47.1248 13.0505 615 62.2602 501.75 522.249
867 0 50.1858 13.1113 658 61.7675 501.898 522.895
868 0 50.1853 14.2074 713 61.9257 502.924 521.432
869 0 53.1054 13.8969 738 61.4566 502.007 521.026
870 0 54.0971 12.57 680 63.3882 501.543 520.566
871 0 55.2374 12.8355 709 63.4161 501.551 519.165
872 0 58.2559 12.8914 751 62.8162 501.614 519.903
873 0 60.358 13.0057 785 63.1529 502.023 517.712
874 0 63.1523 14.2038 897 61.2809 501.684 516.533
875 0 63.1055 12.9149 815 63.4258 501.383 514.974
876 0 63.2181 12.2275 773 64.5822 501.874 515.505
877 0 68.2639 13.2281 903 62.8007 502.591 512.638
878 0 71.2977 13.0579 931 62.3351 501.663 513.673
879 0 69.1682 12.7804 884 63.3563 502.045 513.706
880 0 74.195 12.1302 900 63.8111 502.327 511.292
881 0 75.348 13.7363 1035 62.6705 501.966 510.88
882 0 79.3534 13.8368 1098 62.1967 501.917 510.417
883 0 84.2274 14.2709 1202 61.2096 502.451 509.266
884 0 84.4291 13.9644 1179 62.6641 501.899 507.092
885 0 87.3219 13.9026 1214 62.9094 502.1 505.713
886 0 88.3181 12.9758 1146 64.8298 501.706 503.209
887 0 89.2896 12.3979 1107 66.0967 502.583 503.326
888 0 93.1254 12.7999 1192 65.0814 502.535 502.534
889 1 47.0906 12.8263 604 63.8593 502.404 524.144
890 0 47.0746 12.9582 610 64.3869 502.274 523.885
891 0 46.4653 11.1481 518 67.7819 502.432 522.017
892 0 50.1011 11.7961 591 65.3384 502.706 524.276
893 0 52.1076 12.7621 665 65.1323 502.212 520.612
894 0 52.3256 12.04 630 66.5603 501.97 519.719
895 0 55.1219 13.4611 742 64.1024 500.891 519.154
896 0 59.2056 13.3265 789 64.0659 501.574 516.657
897 0 58.0421 13.2662 770 64.1922 501.539 517.896
898 0 62.1043 12.8494 798 64.5777 501.7 517.212
899 0 63.1411 13.5253 854 64.1663 502.036 517.972
900 0 66.1546 13.0603 864 65.0544 502.381 513.635
901 0 67.1239 12.6482 849 65.0766 502.001 515.106
902 0 71.2469 13.7129 977 63.7728 502.324 514.355
903 0 73.2621 14.0591 1030 64.3942 502.466 511.233
904 0 75.2446 12.3331 928 66.3147 502.722 511.718
905 0 78.2402 12.7428 997 66.1174 502.279 509.339
906 0 80.1517 13.5743 1088 65.6002 502.571 508.506
907 0 81.1471 12.6683 1028 66.9027 502.533 506.773
908 0 87.0559 14.2897 1244 64.7918 501.967 505.904
909 0 88.0391 11.2904 994 68.3622 502.718 509.641
910 0 87.2556 11.7013 1021 68.7757 502.639 506.335
911 0 94.1572 12.7553 1201 67.4821 502.765 504.837
912 0 95.1597 13.1463 1251 67.4628 502.755 504.084
913 0 95.3953 12.8518 1226 67.0791 503.175 504.908
914 0 100.258 12.0489 1208 67.9263 502.672 502.193
915 1 48.0496 12.3206 592 65.7703 501.946 525.627
916 0 51.0453 12.1265 619 66.4863 501.504 524.042
917 0 51.0654 10.3397 528 68.1534 501.794 525.797
918 0 54.0661 12.7437 689 65.7968 501.79 523.44
919 0 56.1396 12.7539 716 65.9162 501.383 521.04
920 0 57.3201 13.0321 747 65.3374 501.553 522.26
921 0 57.1299 12.4103 709 67.4401 501.014 518.937
922 0 64.0578 13.519 866 64.9781 501.163 518.46
923 0 61.0377 11.7141 715 68.3441 500.966 517.304
924 0 66.1304 11.9612 791 66.5828 500.981 518.589
925 0 69.0541 13.627 941 66.102 501.44 514.041
926 0 70.1905 13.3066 934 67.469 501.501 513.421
927 0 73.3015 12.7828 937 67.651 501.723 513.22
928 0 75.0453 12.086 907 69.7596 501.56 510.571
929 0 77.0334 12.8646 991 69.4561 500.944 508.591
930 0 81.1236 13.424 1089 67.8558 500.992 511.53
931 0 83.0334 12.4649 1035 70.0116 501.271 508.557
932 0 84.0753 13.0954 1101 70.4587 501.381 505.159
933 0 87.0528 12.3603 1076 71.2853 501.783 503.53
934 0 90.0874 13.2871 1197 70.4002 501.763 503.429
935 1 44.1177 9.81466 433 73.351 502.037 525.335
936 0 48.0543 13.9842 672 68.5878 501.896 523.76
937 0 50.1253 14.1645 710 68.2634 501.531 522.09
938 0 51.0629 13.4932 689 69.1437 502.028 521.972
939 0 53.0834 13.0549 693 69.8629 502.152 520.828
940 0 51.0819 12.3527 631 72.3312 502.022 518.377
941 0 54.0531 13.2092 714 70.8403 501.591 516.374
942 0 56.0549 12.7732 716 71.3883 502.052 517.038
943 0 58.1125 11.8735 690 71.1159 501.722 518.883
944 0 61.099 13.339 815 69.8417 502.783 514.745
945 0 63.046 12.2292 771 70.38 502.381 517.108
946 0 65.0472 12.6985 826 70.6719 502.781 513.232
947 0 67.1012 13.5616 910 69.4791 502.465 511.477
948 0 70.0741 13.8425 970 68.9412 503.073 511.502
949 0 72.1563 12.3898 894 70.7808 503.368 510.065
950 0 73.1373 11.9638 875 71.5394 502.589 507.883
951 0 76.0332 12.6261 960 70.3771 502.878 509.017
952 0 80.1976 13.3046 1067 69.5473 503.763 506.756
953 0 80.045 12.0432 964 71.0104 503.228 506.936
954 0 82.1495 12.8181 1053 71.3096 502.846 501.589
955 0 86.1415 11.5043 991 71.442 502.554 505.72
956 1 43.0224 12.4586 536 69.8041 502.071 522.847
957 0 44.0593 11.0306 486 69.9856 503.265 524.344
958 0 45.0667 11.6272 524 70.6679 502.477 521.435
959 0 48.0662 11.9002 572 69.5822 502.472 521.082
960 0 48.0548 11.8615 570 70.1965 502.209 521.154
961 0 50.1846 13.5699 681 68.1997 502.84 518.468
962 0 52.0982 11.6127 605 70.5041 502.967 518.529
963 0 55.0307 12.0478 663 69.2202 503.164 518.3
964 0 55.0822 13.2348 729 68.4829 503.14 517.086
965 0 58.0911 12.8763 748 68.6297 501.963 516.769
966 0 58.0726 11.675 678 69.9041 501.817 516.329
967 0 60.0499 12.1066 727 69.6204 502.393 514.267
968 0 62.2275 11.4258 711 69.924 502.267 513.681
969 0 64.0391 12.6329 809 68.9839 502.546 512.105
970 0 67.0599 11.4972 771 69.6537 502.468 511.414
971 0 71.0845 12.3093 875 68.5257 502.643 510.113
972 0 71.092 11.8297 841 69.824 502.655 509.219
973 0 75.0655 11.3767 854 69.7237 502.496 508.794
974 0 77.1509 12.0024 926 69.2462 502.38 506.707
975 0 79.1448 11.2326 889 70.5591 502.209 507.254
976 1 39.0484 11.14 435 68.4644 502.228 525.687
977 0 41.0623 10.1309 416 70.5 502.026 523.632
978 0 45.0885 12.287 554 67.5271 502.46 523.722
979 0 45.1439 13.6674 617 66.6451 503.071 522.64
980 0 45.0398 10.8571 489 70.2413 502.299 521.372
981 0 46.0955 11.0206 508 69.9567 502.583 521.396
982 0 49.0459 12.2742 602 68.0631 502.791 520.336
983 0 48.1107 11.8269 569 69.7118 502.52 519.344
984 0 53.0248 11.1269 590 69.1932 502.497 519.785
985 0 52.0402 12.4327 647 68.1546 502.924 519.968
986 0 54.0755 12.8709 696 67.0733 503.293 519.101
987 0 57.0339 10.5376 601 70.782 502.637 517.752
988 0 56.2482 12.9426 728 67.5659 502.806 518.957
989 0 59.2167 13.5435 802 67.9152 502.512 516.327
990 0 62.0791 11.0343 685 70.9474 502.072 514.927
991 0 61.1674 10.8718 665 71.0496 502.547 515.332
992 0 65.071 11.9562 778 70.3612 502.105 512.472
993 0 67.0815 11.7618 789 70.199 503.008 512.835
994 0 70.1957 11.0548 776 70.1662 502.735 513.392
995 0 72.0463 13.0472 940 69.6479 502.88 507.399
996 0 78.0656 13.2325 1033 68.5663 502.793 509.415
997 0 78.1022 12.9574 1012 69.9555 503.008 507.121
998 0 81.1412 11.1041 901 72.6537 502.334 506.435
999 0 86.1563 13.3826 1153 69.2923 501.6 504.377
1000 0 86.123 13.202 1137 70.7177 501.918 499.815
1001 1 47.2993 12.4315 588 67.017 502.347 523.998
1002 0 47.039 11.1397 524 70.271 502.672 521.758
1003 0 50.1426 10.6696 535 70.7888 503.329 521.916
1004 0 50.159 11.1445 559 70.3059 502.479 521.792
1005 0 54.269 12.8987 700 67.5386 502.363 521.171
1006 0 56.2233 11.7567 661 69.2905 501.855 520.151
1007 0 56.1877 11.426 642 69.8832 502.248 520.185
1008 0 57.1134 11.0307 630 70.9587 502.057 517.378
1009 0 62.2747 13.7134 854 66.6452 501.806 517.118
1010 0 61.1399 11.8744 726 69.8003 502.466 515.853
1011 0 63.3857 12.0374 763 70.0826 502.655 513.417
1012 0 64.117 10.7616 690 71.1275 502.816 516.351
1013 0 68.3435 10.535 720 70.3625 502.7 515.125
1014 0 68.1052 11.541 786 70.1298 502.09 511.65
1015 0 72.0671 12.0582 869 68.3763 502.478 511.875
1016 0 76.4354 11.7092 895 68.9363 502.055 509.673
1017 0 79.1738 11.7842 933 69.3923 502.136 509.631
1018 0 79.0654 11.9901 948 69.0021 502.296 509.775
1019 0 82.0594 12.5641 1031 68.9418 501.819 506.355
1020 1 42.175 10.1956 430 69.2116 501.774 525.646
1021 0 45.1507 10.9854 496 67.1431 501.772 525.907
1022 0 45.0671 10.8727 490 68.2612 501.451 525.624
1023 0 46.2189 11.8566 548 67.938 501.617 524.104
1024 0 49.2389 11.6981 576 67.8351 501.668 522.828
1025 0 53.162 10.4774 557 68.0018 502.077 523.557
1026 0 52.09 10.789 562 67.5783 502.121 524.199
1027 0 55.1334 11.6808 644 67.2826 501.862 520.393
1028 0 56.1332 10.101 567 69.6473 500.933 519.393
1029 0 59.129 10.7392 635 67.9591 501.611 519.502
1030 0 60.1029 10.4321 627 67.6316 501.161 520.083
1031 0 64.2528 11.8438 761 66.8108 501.108 517.288
1032 0 65.0896 13.0128 847 64.7048 500.705 517.948
1033 0 66.1115 11.7377 776 66.1418 501.144 518.474
1034 0 68.1302 11.7569 801 66.1985 501.112 515.613
1035 0 71.2338 11.722 835 66.3401 501.408 512.192
1036 0 71.1034 10.9699 780 66.9115 501.253 513.376
1037 0 76.2216 11.8339 902 65.5521 500.346 512.716
1038 0 80.2102 12.7291 1021 63.9736 500.397 512.929
1039 0 80.1872 11.548 926 66.2775 499.861 510.617
1040 1 44.0376 10.0823 444 65.4144 499.989 528.536
1041 0 42.0178 10.6383 447 66.3512 499.955 525.181
1042 0 44.0141 9.90593 436 67.3349 500.72 525.289
1043 0 47.095 10.5319 496 65.2702 500.506 525.173
1044 0 47.1077 12.3971 584 63.726 500.579 522.683
1045 0 52.0369 11.4534 596 63.3943 500.24 522.74
1046 0 51.1222 9.52619 487 65.7187 500.129 523.957
1047 0 53.0376 12.0481 639 62.9656 500.566 523.74
1048 0 54.0534 10.0456 543 64.5783 500.904 523.024
1049 0 56.1491 10.953 615 63.8683 501.712 520.005
1050 0 57.1086 9.64828 551 65.2849 500.75 519.456
1051 0 58.0943 11.2404 653 63.6799 501.017 520.003
1052 0 59.0638 10.0231 592 65.2382 500.693 517.057
1053 0 62.1288 9.8666 613 64.8825 500.972 517.274
1054 0 66.1507 10.7784 713 63.4965 500.802 517.337
1055 0 68.1906 11.0719 755 63.045 500.907 516.093
1056 0 72.2124 11.023 796 62.0427 501.259 515.548
1057 0 72.0896 10.2234 737 63.7124 501.324 512.514
1058 0 74.1927 10.1358 752 63.4641 501.363 510.318
1059 0 79.1016 11.1502 882 61.585 500.846 510.757
1060 0 81.1239 11.5995 941 60.6238 500.962 511.382
1061 0 84.1133 11.0327 928 61.6153 501.417 508.386
1062 0 87.1547 11.1985 976 61.3125 500.735 507.469
1063 0 87.1724 9.92286 865 62.4856 501.331 507.104
1064 1 43.0132 10.4619 450 60.6222 501.582 524.151
1065 0 48.0439 9.59539 461 60.4078 501.087 527.486
1066 0 49.0313 10.0956 495 59.8889 502.091 527.093
1067 0 51.0697 11.0633 565 58.9009 501.981 523.758
1068 0 51.0368 10.3259 527 59.7192 501.939 522.353
1069 0 53.0311 10.8427 575 58.8904 502.085 524.111
1070 0 54.0854 10.5019 568 59.3996 502.044 521.803
1071 0 57.0415 12.0614 688 57.423 502.007 518.167
1072 0 59.0785 12.1025 715 57.2322 501.917 519.408
1073 0 60.0459 11.4079 685 57.8861 501.699 515.304
1074 0 62.1109 10.9643 681 58.1454 501.624 514.791
1075 0 61.2173 12.5128 766 57.0313 501.398 515.706
1076 0 67.0806 11.4489 768 57.3711 501.904 514.478
1077 0 68.0468 14.7105 1001 54.5554 501.688 513.219
1078 0 69.1657 11.1616 772 58.2098 501.459 508.088
1079 0 72.2183 10.4544 755 58.702 501.061 507.914
1080 0 75.0822 11.4408 859 57.5227 501.42 509.567
1081 0 75.1343 9.55622 718 59.5585 500.802 506.681
1082 0 80.0686 9.84155 788 59.2665 500.938 504.661
1083 0 84.0656 10.6227 893 58.5162 501.348 506.951
1084 0 86.2347 10.3323 891 58.7755 501.244 504.554
1085 0 86.186 11.5912 999 58.007 501.395 503.673
1086 0 91.1714 11.1987 1021 58.2928 501.452 499.041
1087 1 45.0374 10.3248 465 57.757 502.101 522.411
1088 0 47.031 8.41999 396 59.2525 501.23 523.763
1089 0 47.0694 9.17793 432 59.581 501.951 522.014
1090 0 51.1174 11.1312 569 57.9561 501.508 519.645
1091 0 51.0575 10.9876 561 58.7398 501.806 518.62
1092 0 56.0707 11.3607 637 57.8179 501.6 519.661
1093 0 57.074 11.5464 659 57.4871 501.546 517.299
1094 0 58.0565 10.7481 624 58.2692 502.329 516.731
1095 0 62.1056 11.4804 713 57.4993 502.525 514.055
1096 0 62.032 11.0104 683 57.8565 501.974 515.876
1097 0 65.0621 11.4506 745 57.1933 502.021 516.793
1098 0 67.1018 13.0697 877 55.9396 501.192 510.749
1099 0 68.0734 10.7531 732 57.8921 501.79 512.089
1100 0 72.1999 10.7618 777 58.1017 501.45 510.701
1101 0 74.0551 12.9363 958 56.2651 500.929 508.308
1102 0 77.0615 11.2767 869 58.2428 501.124 509.046
1103 0 81.229 11.4984 934 58.1081 501.243 506.314
1104 0 83.2864 12.3069 1025 57.5951 501.192 505.775
1105 0 83.1157 11.2373 934 59.1017 501.345 503.28
1106 0 88.1281 9.80391 864 60.4711 500.822 502.84
1107 0 89.0634 10.689 952 60.0116 500.649 498.372
1108 0 94.1777 11.4252 1076 59.0939 501.836 502.939
1109 0 94.086 13.9766 1315 57.3871 501.852 498.538
1110 0 99.1929 13.1461 1304 57.9087 502.329 500.587
1111 1 55.0617 11.4235 629 57.4785 502.021 522.723
1112 0 55.0613 10.7517 592 59.3463 502.204 518.998
1113 0 54.0419 10.7694 582 59.9553 502.215 517.854
1114 0 58.0765 14.0849 818 56.4682 501.401 515.056
1115 0 60.0534 12.6387 759 58.3926 501.801 514.676
1116 0 61.1526 12.0518 737 58.6119 501.862 514.353
1117 0 64.1555 12.1736 781 58.7324 502.453 511.547
1118 0 68.111 12.8614 876 57.6381 502.213 514.421
1119 0 69.1238 11.8772 821 58.4458 501.352 512.848
1120 0 68.1732 11.5441 787 59.9708 501.97 510.417
1121 0 74.1435 13.7571 1020 57.6274 502.297 509.294
1122 0 76.0652 11.8319 900 60.2056 501.831 508.024
1123 0 77.1062 12.8394 990 59.4444 502.067 506.893
1124 0 80.0997 11.3983 913 61.4239 502.551 502.629
1125 0 83.1469 11.2211 933 61.3655 502.555 505.219
1126 1 41.0436 10.233 420 60.2952 501.914 526.033
1127 0 41.0464 10.6465 437 61.2334 502.114 524.995
1128 0 43.0284 11.1322 479 61.1712 501.699 522.729
1129 0 48.0272 10.8272 520 60.0365 502.252 523.927
1130 0 48.025 11.9105 572 60.3007 502.502 521.636
1131 0 50.0391 10.192 510 61.1706 501.551 522.804
1132 0 52.0617 12.4084 646 60.4752 502.198 520.947
1133 0 54.1547 12.1134 656 60.0213 501.645 520.97
1134 0 55.117 12.9361 713 59.352 501.593 519.741
1135 0 57.0693 11.1268 635 61.4992 502.261 518.51
1136 0 57.0352 11.3614 648 62.0525 502.08 514.827
1137 0 60.0317 12.9265 776 59.9936 501.772 516.665
1138 0 63.0541 10.4514 659 62.3247 501.537 515.369
1139 0 63.1239 12.1507 767 60.97 501.957 513.218
1140 0 65.0629 12.1728 792 60.5821 501.84 515.515
1141 0 67.1009 12.6526 849 60.0754 502.271 512.617
1142 0 69.1053 12.8934 891 60.4074 502.327 509.076
1143 0 72.0705 12.2519 883 60.4915 501.829 510.461
1144 0 77.0864 13.1151 1011 59.5084 501.93 509.797
1145 0 78.0956 12.1774 951 60.47 501.629 510.939
1146 0 81.189 12.8219 1041 60.267 502.391 506.747
1147 0 84.0639 15.4168 1296 57.017 501.85 506.565
1148 0 84.1513 10.5881 891 63.2694 501.377 505.466
1149 0 88.0956 12.5432 1105 61.4914 501.461 503.726
1150 0 91.317 11.7174 1070 62.3047 501.609 500.784
1151 1 44.1266 8.24899 364 65.011 501.484 522.692
1152 0 47.1802 10.8096 510 62.0059 500.98 523.296
1153 0 48.0263 12.0559 579 62.1209 501.485 519.064
1154 0 51.144 10.6757 546 63.2271 501.982 519.842
1155 0 56.086 12.0173 674 60.4911 502.366 517.834
1156 0 53.1417 11.9115 633 61.8104 501.695 515.122
1157 0 56.0732 12.3589 693 60.9856 501.951 513.603
1158 0 58.0604 13.9854 812 59.0702 502.148 516.207
1159 0 61.06 11.1693 682 61.5117 502.494 517.875
1160 0 62.2298 11.7789 733 61.2892 502.138 514.782
1161 0 64.081 11.938 765 60.9804 502.037 513.733
1162 0 65.081 12.3231 802 60.3379 501.524 514.151
1163 0 70.0956 12.4402 872 60.328 501.596 512.82
1164 0 72.1705 11.9994 866 60.7471 501.517 512.345
1165 0 74.0679 11.2329 832 61.4712 501.546 511.504
1166 0 77.1095 12.3331 951 61.0915 501.616 506.845
1167 0 78.0538 11.8892 928 61.7457 502.404 507.394
1168 0 79.0627 11.4846 908 62.3734 502.598 507.389
1169 0 84.1334 12.2662 1032 61.7674 501.888 503.552
1170 0 89.1556 13.3699 1192 59.8842 501.802 506.019
1171 0 90.0723 12.9452 1166 60.7196 502.124 503.678
1172 0 91.0746 12.1439 1106 62.594 501.709 499.225
1173 1 48.0442 10.3655 498 61.243 501.618 524.59
1174 0 48.0513 10.9258 525 62.9333 502.122 519.547
1175 0 51.0522 12.3207 629 60.4817 502.153 520.971
1176 0 52.1086 12.1285 632 61.3386 502.248 518.313
1177 0 55.241 13.5588 749 59.4633 502.65 518.957
1178 0 57.1174 12.343 705 60.8695 502.868 518.411
1179 0 57.0513 10.7097 611 62.82 502.656 517.717
1180 0 61.06 13.888 848 58.9623 501.781 515.625
1181 0 61.0899 11.9496 730 61.874 501.397 513.611
1182 0 65.0746 10.3573 674 62.8872 502.289 514.412
1183 0 67.1052 12.2494 822 60.6971 501.964 511.807
1184 0 68.1357 13.8841 946 59.8192 502.336 510.274
1185 0 69.0834 11.2617 778 62.2789 501.991 510.206
1186 0 75.2333 11.1653 840 61.2929 501.88 510.618
1187 0 75.1136 11.3029 849 61.5878 501.647 507.673
1188 0 77.0961 10.5323 812 62.7672 501.889 506.794
1189 0 79.1053 11.9587 946 62.2992 502.318 500.779
1190 0 83.1915 11.756 978 62.3323 502.101 500.901
1191 0 86.0857 11.9416 1028 61.7724 501.701 502.855
1192 0 91.1901 14.1682 1292 59.671 501.746 501.891
1193 0 93.1361 12.8844 1200 61.4158 502.539 498.742
1194 0 99.0628 12.5981 1248 61.7139 502.563 496.973
1195 0 101.147 12.9317 1308 61.1399 502.455 496.201
1196 1 53.1943 11.1854 595 61.5479 501.978 516.097
1197 0 56.1189 10.2996 578 62.1938 501.4 518.718
1198 0 56.1111 11.3168 635 61.5512 501.285 517.331
1199 0 59.1035 11.2684 666 61.6126 501.587 515.955
1200 0 59.2053 11.9922 710 61.6634 502.477 512.441
1201 0 67.1801 12.4293 835 51.1569 501.82 518.165
1202 0 65.1234 13.2364 862 59.4211 502.48 511.828
1203 0 67.1343 13.2719 891 59.0696 502.569 512.356
1204 0 68.0924 12.0718 822 60.6776 501.504 510.539
1205 0 70.1105 11.4106 800 61.2275 501.554 508.146
1206 0 74.0835 11.5545 856 59.6332 501.69 510.81
1207 0 78.1313 11.2631 880 59.7091 501.56 509.442
1208 0 79.0539 13.2947 1051 58.726 502.49 504.073
1209 0 84.0932 11.1662 939 60.0415 502.613 503.876
1210 0 85.101 12.444 1059 58.9065 502.23 502.933
1211 0 88.0447 13.8566 1220 57.2057 501.691 501.552
1212 0 91.1018 12.5684 1145 58.945 502.066 499.809
1213 0 92.0361 9.2681 853 62.1641 501.955 500.327
1214 0 98.125 11.2611 1105 59.7783 502.9 499.958
1215 1 49.0626 9.86496 484 59.9277 502.169 519.184
1216 0 54.1765 12.3485 669 56.9462 502.256 518.819
1217 0 54.1212 9.40481 509 59.5246 502.473 519.943
1218 0 57.1154 10.1549 580 59.0397 502.002 517.988
1219 0 59.1066 11.7584 695 57.7655 502.01 514.843
1220 0 62.0357 11.5579 717 57.9707 501.888 511.494
1221 0 62.0226 10.2543 636 58.5865 502.167 513.962
1222 0 64.1029 10.0931 647 58.9413 502.124 510.793
1223 0 66.0949 12.5426 829 56.4789 501.944 510.809
1224 0 66.0545 9.68897 640 58.5906 502.567 511.789
1225 0 70.0945 11.456 803 57.7621 503.171 504.474
1226 0 73.0303 11.8444 865 57.2301 503.22 503.943
1227 0 74.0488 12.3162 912 57.171 503.465 504.175
1228 0 79.0482 11.0059 870 57.7414 502.886 503.515
1229 0 82.3835 11.6285 958 57.3591 502.293 500.584
1230 0 84.0639 10.6705 897 58.1304 502.559 504.546
1231 0 84.0364 10.0909 848 59.3585 502.528 502.009
1232 0 90.2363 12.8441 1159 56.9569 503.06 497.09
1233 1 44.0364 9.81006 432 58.4444 502.537 518.458
1234 0 42.0667 7.32171 308 61.0682 502.445 517.685
1235 0 47.1107 8.80904 415 58.8024 502.395 521.222
1236 0 49.128 10.4828 515 58.2175 502.118 517.823
1237 0 49.0299 9.48401 465 59.7333 502.226 517.938
1238 0 50.1227 11.7312 588 57.5901 502.218 516.223
1239 0 54.0137 11.9229 644 57.2593 501.967 514.789
1240 0 56.154 11.0589 621 58.1514 502.464 514.607
1241 0 58.0693 12.1235 704 57.2386 502.178 511.828
1242 0 58.0341 10.3043 598 59.3261 502.457 513.008
1243 0 62.0789 11.5337 716 58.4274 503.672 509.039
1244 0 63.0436 10.1517 640 60.0875 503.158 509.825
1245 0 67.0644 10.3333 693 59.4185 502.505 509.094
1246 0 68.0981 10.0884 687 60.1092 502.06 506.291
1247 0 71.0856 12.7171 904 57.7942 502.883 503.625
1248 0 74.0629 11.3552 841 59.2212 503.262 501.948
1249 0 77.1152 12.0599 930 58.8032 502.619 502.591
1250 0 80.0687 9.81657 786 61.1959 502.805 501.35
1251 0 81.1042 12.0339 976 59.2613 503.309 499.059
1252 1 41.0416 9.08835 373 60.0992 502.925 520.019
1253 0 43.1687 10.9107 471 58.6858 503.284 519.569
1254 0 45.1355 9.74842 440 59.6386 502.809 518.257
1255 0 50.0266 13.4329 672 55.2381 502.909 519.199
1256 0 51.0598 11.2809 576 57.8368 502.411 517.337
1257 0 51.0879 11.6466 595 57.8756 502.541 517
1258 0 55.0209 11.8682 653 56.4349 502.974 517.308
1259 0 54.173 9.50659 515 59.0524 502.588 515.899
1260 0 57.1128 11.2059 640 57.8031 503.062 514.016
1261 0 58.0875 10.3809 603 58.068 501.662 513.061
1262 0 60.0803 11.7343 705 57.2681 501.67 511.411
1263 0 62.1623 11.9043 740 57.0095 502.162 510.109
1264 0 64.0465 9.75854 625 58.7664 501.749 510.968
1265 0 66.1124 11.1023 734 57.1921 502.357 510.984
1266 0 68.0522 12.1671 828 57.0942 502.929 507.15
1267 0 70.101 10.5847 742 57.69 502.825 510.012
1268 0 73.0706 10.5104 768 58.4622 502.719 503.077
1269 0 74.0422 11.4934 851 58.0834 502.647 502.25
1270 0 77.0956 11.1809 862 58.2506 502.038 502.306
1271 0 81.0981 11.9608 970 57.1866 501.533 503.081
1272 0 81.1147 11.7611 954 57.5807 502.042 501.754
1273 1 43.1121 8.48949 366 58.5355 502.046 522.94
1274 0 44.1058 7.68606 339 60.1947 501.861 522.985
1275 0 48.0493 10.6765 513 57.306 502.023 522.674
1276 0 52.0601 13.1195 683 55.0996 501.931 519.543
1277 0 52.0223 9.32292 485 58.6907 502.984 521.414
1278 0 54.0336 11.4558 619 57.6607 502.41 517.855
1279 0 55.0713 11.9845 660 57.0242 502.018 518.674
1280 0 57.0938 13.4516 768 55.4336 502.668 517.613
1281 0 58.0347 9.63217 559 59.3578 501.572 515.75
1282 0 61.077 10.1347 619 58.7674 502.404 515.115
1283 0 63.0761 11.6209 733 57.9673 501.922 510.602
1284 0 67.0901 11.4324 767 57.7093 502.042 512.862
1285 0 67.1111 12.3079 826 57.1937 502.953 510.007
1286 0 69.0716 11.8283 817 57.9461 502.928 510.481
1287 0 70.0651 10.4474 732 59.1339 503.27 510.056
1288 0 73.033 11.8303 864 58 502.214 506.704
1289 0 76.0554 12.3857 942 57.81 503.016 507.92
1290 0 79.1962 12.1597 963 57.4413 502.817 505.709
1291 0 83.0482 10.5361 875 59.0217 503.293 504.403
1292 1 43.0957 11.5325 497 56.2354 502.535 524.42
1293 0 43.0307 10.5041 452 57.5597 502.363 521.984
1294 0 47.0209 12.2073 574 55.8275 501.388 521.688
1295 0 48.131 9.5157 458 58.1201 502.107 521.865
1296 0 51.0916 9.90378 506 57.9407 502.601 521.453
1297 0 52.0666 13.1946 687 55.2023 501.846 519.368
1298 0 53.017 12.1848 646 56.9582 501.745 516.752
1299 0 55.0392 11.5736 637 57.2402 502.126 517.199
1300 0 56.0556 10.2042 572 58.6906 502.565 515.185
1301 0 55.0845 9.76681 538 60.2193 502.487 514.511
1302 0 60.073 11.3362 681 57.091 502.827 517.37
1303 0 62.0974 10.5318 654 58.7859 501.842 515.844
1304 0 63.127 10.0116 632 59.3465 501.74 513.597
1305 0 65.1322 12.8201 835 56.3305 502.801 514.752
1306 0 68.0927 11.1466 759 58.4848 502.47 508.661
1307 0 71.2478 13.4601 959 56.6058 502.952 507.295
1308 0 73.1507 13.2466 969 56.6347 502.601 505.702
1309 0 74.1053 11.0518 819 59.3284 502.287 502.364
1310 0 77.1334 10.968 846 58.7742 502.472 504.963
1311 0 81.0553 11.1652 905 58.2796 502.813 504.125
1312 0 82.0891 11.4753 942 58.9087 502.736 500.08
1313 1 42.0157 10.4961 441 58.0023 502.864 521.152
1314 0 46.0635 10.9197 503 56.1809 502.767 521.579
1315 0 46.0467 8.70855 401 59.7332 502.626 518.99
1316 0 48.1492 10.9659 528 57.4924 502.428 518.29
1317 0 52.0623 10.7179 558 57.3674 502.348 519.423
1318 0 52.0389 12.433 647 55.6399 502.416 517.699
1319 0 51.098 8.76747 448 59.7254 502.69 517.286
1320 0 57.1013 11.0505 631 56.5658 502.712 514.35
1321 0 59.0885 11.322 669 56.5262 502.854 514.57
1322 0 59.0412 11.2972 667 57 502.303 511.39
1323 0 63.1003 10.095 637 57.4411 501.725 512.652
1324 0 65.0911 11.722 763 56.0878 502.114 512.013
1325 0 66.0767 11.8196 781 55.7017 502.196 509.625
1326 0 70.129 11.8639 832 55.4784 502.505 510.213
1327 0 72.3271 12.9965 940 54.0308 502.143 508.007
1328 0 76.1813 12.6934 967 53.9524 502.63 508.529
1329 0 77.0803 11.2091 864 55.7118 502.567 506.868
1330 0 79.1258 14.2432 1127 53.1375 502.758 503.391
1331 0 81.11 11.3673 922 55.9165 502.62 505.973
1332 0 83.0945 10.819 899 56.3993 502.298 504.849
1333 0 89.1729 11.8758 1059 55.3824 502.084 502.35
1334 0 91.2202 12.3438 1126 55.4201 502.731 498.936
1335 0 93.1114 10.858 1011 56.9802 503.189 500.437
1336 0 97.0933 11.1439 1082 56.6811 503.466 498.992
1337 0 98.2427 10.8812 1069 57.2432 502.85 495.585
1338 1 49.0232 8.95495 439 57.3166 502.708 519.385
1339 0 55.1349 11.8074 651 54.2919 502.426 520.419
1340 0 52.0333 9.34017 486 57.6337 502.305 514.239
1341 0 57.1004 12.767 729 54.4211 502.429 515.55
1342 0 60.056 12.122 728 54.717 502.655 514.762
1343 0 62.1079 11.5444 717 55 502.11 515.84
1344 0 63.125 11.9604 755 54.9457 502.743 511.752
1345 0 66.0744 12.0167 794 54.8652 501.729 512.125
1346 0 67.0719 13.4781 904 53.7378 501.565 511.02
1347 0 71.1316 13.1728 937 53.857 502.224 509.143
1348 0 72.0867 13.0953 944 54.3305 502.621 505.459
1349 0 77.1415 12.9502 999 54.1732 503.001 508.233
1350 0 76.0751 11.1995 852 56.2089 502.709 508.513
1351 0 78.1198 9.92066 775 56.9948 503.601 511.012
1352 0 83.0874 13.3835 1112 54.1682 502.522 505.057
1353 0 85.093 13.4441 1144 54.1678 501.891 501.262
1354 0 85.1956 10.7165 913 57.1292 502.401 500.036
1355 0 93.1006 12.5133 1165 54.879 501.994 500.87
1356 0 94.1935 11.9541 1126 55.8322 501.901 496.593
1357 0 97.0858 11.7628 1142 56.141 502.642 498.256
1358 1 52.0374 9.8583 513 56.6238 503.045 521
1359 0 56.0301 12.4397 697 54.5108 502.768 519.564
1360 0 56.0955 11.623 652 55.9586 503.041 515.14
1361 0 54.0278 8.75475 473 59.5814 503.315 513.049
1362 0 62.0614 13.4222 833 54.2929 502.223 511.645
1363 0 61.1173 13.5641 829 54.0856 502.165 513.398
1364 0 63.0526 11.1494 703 56.6117 502.464 511.37
1365 0 67.1031 10.8192 726 56.4187 502.895 509.545
1366 0 65.0475 9.7006 631 58.019 502.403 507.542
1367 0 70.0856 11.757 824 55.6116 502.738 509.54
1368 0 68.026 10.055 684 58.2003 502.196 507.477
1369 0 72.0608 9.54749 688 58.3561 502.557 507.481
1370 0 75.2007 11.8882 894 56.4027 502.562 505.756
1371 0 78.038 11.9045 929 56.2217 502.87 505.566
1372 0 81.1608 11.7052 950 56.7716 502.543 501.46
1373 0 85.1231 13.3689 1138 55.3568 502.59 500.442
1374 0 89.0614 13.3728 1191 54.9673 502.176 500.714
1375 0 91.134 14.5281 1324 54.2039 502.279 496.983
1376 0 96.1621 12.4165 1194 55.8652 502.164 500.013
1377 0 98.1876 11.1216 1092 57.337 502.528 498.593
1378 0 97.1351 12.3333 1198 57.0885 502.223 498.057
1379 0 104.167 11.9808 1248 57.8558 503.151 494.728
1380 0 103.159 13.4064 1383 57.0412 502.289 497.108
1381 0 108.132 13.9275 1506 56.836 502.563 491.723
1382 0 110.219 11.9852 1321 59.2937 502.345 488.395
1383 0 116.161 12.0092 1395 59.0753 502.053 489.526
1384 1 64.1064 11.9177 764 57.5707 502.136 516.411
1385 0 62.0755 11.776 731 58.9986 502.826 513.167
1386 0 66.0924 12.4371 822 57.8577 502.658 514.31
1387 0 67.1498 12.7923 859 57.9476 502.107 512.903
1388 0 69.1313 13.8143 955 57.4335 502.737 511.966
1389 0 73.0786 13.2597 969 57.0351 503.303 514.015
1390 0 75.1141 13.6725 1027 57.4878 503.204 510.109
1391 0 76.1697 13.6143 1037 57.2324 502.144 510.078
1392 0 79.0424 11.2345 888 60.4842 502.337 505.806
1393 0 78.1085 11.0871 866 61.4815 502.633 502.497
1394 0 84.0956 11.8793 999 60.1932 502.535 505.512
1395 0 87.0954 13.1695 1147 59.1212 502.579 502.1
1396 0 91.1499 13.6588 1245 58.2851 502.915 502.089
1397 0 94.1154 14.6204 1376 57.4876 502.528 500.132
1398 0 96.1668 14.3293 1378 57.9274 502.391 499.297
1399 0 99.1445 12.9306 1282 59.2972 502.214 498.959
1400 0 103.154 12.1662 1255 60.2199 502.273 497.182
1401 0 105.252 13.7289 1445 59.0097 502.927 494.234
1402 0 107.184 11.3637 1218 61.5616 502.09 491.176
1403 0 112.189 13.7001 1537 59.0592 502.442 491.764
1404 0 113.131 11.1994 1267 61.2447 501.837 489.496
1405 0 120.236 12.9245 1554 59.6441 501.299 487.242
1406 0 123.1 14.0862 1734 58.2462 501.559 483.924
1407 0 127.2 14.0331 1785 58.4157 501.678 481.538
1408 0 134.264 13.0787 1756 58.6498 502.064 483.063
1409 0 139.178 14.3126 1992 57.2751 502.413 479.839
1410 0 144.207 14.5277 2095 57.3604 502.905 478.63
1411 0 148.194 13.7589 2039 58.1947 502.845 473.331
1412 0 153.209 12.0555 1847 59.5539 502.654 475.505
1413 0 158.292 12.4643 1973 59.78 502.473 465.572
1414 0 165.178 14.2573 2355 57.6832 502.361 468.234
1415 0 167.282 11.7526 1966 60.646 503.006 463.449
1416 1 94.1359 12.2482 1153 58.8604 502.35 501.944
1417 0 97.1973 10.8336 1053 60.4853 502.333 498.611
1418 0 99.1271 14.3049 1418 57.7715 502.197 493.861
1419 0 100.094 12.8879 1290 59.562 501.869 496.788
1420 0 104.123 12.4468 1296 59.9522 502.507 492.592
1421 0 108.111 13.2271 1430 59.272 502.68 491.448
1422 0 113.116 13.6851 1548 58.6137 502.526 492.844
1423 0 115.176 12.572 1448 60.2396 501.662 485.97
1424 0 119.11 11.4264 1361 59.9184 502.641 495.04
1425 0 125.328 13.4606 1687 58.7801 503.161 488.273
1426 0 129.146 12.2342 1580 61.0165 502.875 483.328
1427 0 130.185 11.5604 1505 61.5635 503.117 487.285
1428 1 70.0962 12.4686 874 60.0034 502.662 511.975
1429 0 73.1131 11.7216 857 61.063 502.408 510.988
1430 0 77.0575 12.6399 974 60.2382 502.804 506.817
1431 0 79.0915 12.1252 959 60.9187 502.113 506.414
1432 0 82.1683 11.9632 983 61.471 502.304 505.511
1433 0 84.072 12.6201 1061 61.2441 502.171 503.71
1434 0 87.1008 11.9517 1041 61.7896 502.628 501.915
1435 0 91.1577 12.2754 1119 61.8454 502.79 498.753
1436 0 90.0518 10.5828 953 63.233 502.817 495.417
1437 0 101.279 13.3987 1357 59.4119 502.307 499.894
1438 0 100.176 12.538 1256 60.9785 502.929 496.818
1439 0 107.145 15.6704 1679 57.0072 502.749 497.304
1440 0 110.526 12.9924 1436 59.8524 502.842 495.185
1441 0 111.276 12.5993 1402 61.0257 502.637 492.255
1442 0 116.108 13.0655 1517 60.3929 502.334 491.893
1443 0 118.162 12.686 1499 60.7252 502.55 490.674
1444 1 61.1022 12.7328 778 59.3213 502.461 516.054
1445 0 63.0712 10.4802 661 61.5704 502.769 514.605
1446 0 66.0651 12.5785 831 59.0554 502.941 515.759
1447 0 66.1343 11.6127 768 61.1211 502.491 510.939
1448 0 70.2711 11.3418 797 60.5646 502.06 511.552
1449 0 70.2038 11.6091 815 60.8785 501.236 509.443
1450 0 73.2217 11.2671 825 61.5576 501.807 506.673
1451 0 75.0933 11.1994 841 61.5458 502.806 506.883
1452 0 79.2118 13.5081 1070 58.3392 502.093 508.718
1453 0 84.1348 13.3952 1127 58.8146 502.779 503.582
1454 0 85.3681 11.058 944 61.035 502.79 503.568
1455 0 87.1336 12.9342 1127 60.0257 502.728 500.845
1456 0 93.2474 12.8904 1202 59.3885 502.334 500.035
1457 0 96.144 12.3565 1188 59.7534 502.31 499.311
1458 1 48.0244 11.2443 540 58.563 502.443 522.433
1459 0 50.0758 11.9419 598 58.49 502.376 520.002
1460 0 50.0543 11.8272 592 58.5726 502.517 520.253
1461 0 52.0723 12.8091 667 58.0944 502.696 518.534
1462 0 52.1096 11.3991 594 60.3316 503.007 516.497
1463 0 57.1194 12.7628 729 57.9561 502.944 518.83
1464 0 57.1038 11.9957 685 59.4015 503.178 513.606
1465 0 60.0924 10.9664 659 59.2367 502.87 517.082
1466 0 62.1189 12.959 805 57.8311 501.836 513.958
1467 0 63.1229 12.0083 758 59.1227 502.158 511.774
1468 0 64.1774 11.7799 756 59.3717 502.512 509.345
1469 0 69.0725 11.7558 812 58.6121 502.305 508.271
1470 0 74.1142 12.953 960 56.9667 501.936 509.233
1471 0 73.0755 12.5897 920 57.4913 502.102 508.864
1472 0 75.2751 12.5008 941 57.779 502.497 508.185
1473 0 78.1711 12.0761 944 57.8708 501.976 505.812
1474 0 82.1116 11.9228 979 57.9826 502.546 504.168
1475 0 84.0629 10.7776 906 59.3852 502.104 503.038
1476 0 88.1262 12.7317 1122 57.4911 501.958 501.791
1477 0 90.0972 11.4543 1032 58.407 502.843 500.816
1478 0 91.1953 13.1147 1196 57.0008 502.712 498.368
1479 0 96.1158 11.6734 1122 57.9474 502.737 498.321
1480 0 100.115 10.9574 1097 58.9736 502.39 495.812
1481 0 101.293 10.2278 1036 59.5328 501.794 494.749
1482 0 104.164 12.1636 1267 58.3126 502.221 487.395
1483 1 53.1222 12.1042 643 56.7092 502.316 515.72
1484 0 57.1007 13.0471 745 55.9423 502.74 516.73
1485 0 58.0591 14.0547 816 54.6569 502.787 516.882
1486 0 60.0389 12.7751 767 56.1734 503.146 511.849
1487 0 61.0969 10.4588 639 57.5994 503.3 513.094
1488 0 64.1181 10.9953 705 57.2397 502.159 511.096
1489 0 66.0299 11.6614 770 56.9052 502.092 509.148
1490 0 68.1336 11.2426 766 56.7311 502.285 507.996
1491 0 69.049 11.0356 762 57.143 502.715 507.448
1492 0 73.0862 10.2345 748 57.6497 502.266 506.556
1493 0 74.0921 12.228 906 55.2804 502.493 505.954
1494 0 77.0526 8.63046 665 58.7173 502.839 500.045
1495 0 80.0596 12.8654 1030 55.1806 502.271 499.871
1496 0 82.1339 11.8952 977 55.7472 501.908 499.238
1497 0 84.1119 13.0659 1099 54.7625 502.496 497.094
1498 0 87.0696 11.4621 998 56.1563 502.284 498.513
1499 0 90.097 11.7096 1055 56.0303 502.679 493.636
1500 0 93.2133 10.7924 1006 56.5914 502.654 494.545
1501 0 96.2227 12.4919 1202 55.2928 502.236 490.629
1502 0 100.163 11.3116 1133 56.263 501.897 489.551
1503 0 104.25 11.2038 1168 55.7192 501.896 491.242
1504 0 110.224 11.894 1311 55.3127 501.623 483.127
1505 0 112.094 10.7856 1209 56.3921 501.792 480.606
1506 0 112.094 10.8034 1211 115.21 501.785 480.683
1507 1 60.0446 9.09323 546 56.8059 502.201 509.103
1508 0 62.0482 10.7175 665 55.794 502.208 506.072
1509 0 63.1371 10.8177 683 55.959 502.095 506.119
1510 0 65.1215 12.4383 810 54.2432 501.58 504.91
1511 0 66.159 8.78187 581 57.2014 502.232 505.403
1512 0 69.0532 9.73163 672 55.9033 501.988 505.292
1513 0 71.1443 10.4717 745 55.6349 501.616 502.016
1514 0 77.0667 12.1064 933 54.1029 501.637 501.626
1515 0 76.0499 10.4405 794 55.7569 502.169 498.994
1516 0 83.1843 11.0598 920 54.9739 502.496 498.863
1517 0 82.0819 10.258 842 55.8409 502.258 499.796
1518 0 88.2201 11.8794 1048 54.9198 502.483 494.577
1519 0 95.0914 12.8718 1224 53.3276 502.764 496.454
1520 1 50.108 13.5108 677 51.548 501.176 516.275
1521 0 49.061 11.6997 574 53.3467 501.908 517.706
1522 0 54.0865 15.2164 823 49.9125 501.498 518.47
1523 0 53.0315 9.89978 525 54.3238 502.154 516.261
1524 0 55.0907 11.472 632 52.7595 502.179 519.437
1525 0 57.1626 10.8987 623 53.886 502.039 512.517
1526 0 59.0536 10.7868 637 53.4725 501.939 512.484
1527 0 64.1514 12.0184 771 52.0389 502.438 512.165
1528 0 61.2304 11.0076 674 53.3502 502.418 510.174
1529 0 68.069 14.118 961 50.5432 502.333 509.853
1530 0 69.2228 12.4959 865 52.022 502.164 509.56
1531 0 71.1446 10.9214 777 53.2522 502.067 506.82
1532 0 69.0769 10.2205 706 54.8569 501.398 505.579
1533 0 76.0745 11.6859 889 53.0506 501.786 507.001
1534 0 77.0597 10.2648 791 54.4349 502.137 507.164
1535 0 79.2075 13.1174 1039 52.3994 501.9 506.514
1536 0 84.1082 11.616 977 53.7114 501.969 503.223
1537 0 89.1575 15.5455 1386 50.5455 501.815 502.17
1538 0 88.0918 11.8399 1043 54.0537 502.004 502.273
1539 0 90.0826 11.3007 1018 54.9833 501.343 498.686
1540 0 95.1048 11.3559 1080 54.4454 501.075 502.865
1541 1 47.0594 10.1574 478 55.0795 501.381 519.435
1542 0 46.0178 10.5394 485 55.4948 501.361 517.501
1543 0 46.045 10.7938 497 56.0744 501.857 518.252
1544 0 53.0487 11.5931 615 54.7724 501.704 518.706
1545 0 52.0445 10.3373 538 55.658 501.89 517.463
1546 0 55.0768 11.7654 648 54.7701 502.506 515.756
1547 0 56.0845 11.2509 631 55.5784 502.471 513.195
1548 0 55.0873 9.56663 527 57.1613 501.962 510.239
1549 0 59.0918 13.1659 778 54.0026 502.275 512.895
1550 0 62.1456 10.8455 674 55.9896 502.211 508.114
1551 0 62.1318 12.4735 775 54.7136 501.53 511.059
1552 0 67.1182 11.9193 800 55.4575 501.529 506.686
1553 0 70.1572 14.7241 1033 52.7144 501.721 505.574
1554 0 73.099 14.8019 1082 52.2726 501.37 508.506
1555 0 75.2025 12.6193 949 54.9315 500.845 504.321
1556 0 75.1675 10.6296 799 56.5557 500.889 501.005
1557 0 79.0593 12.4717 986 55.0852 501.45 501.924
1558 0 83.1993 12.7525 1061 54.7399 501.197 500.685
1559 0 85.1306 12.1813 1037 55.4928 500.891 502.263
1560 0 85.0867 11.6587 992 56.8155 501.662 495.079
1561 1 45.0512 10.0996 455 56.7494 501.927 520.055
1562 0 49.1112 10.466 514 56.1109 501.482 516.599
1563 0 49.1098 11.179 549 56.2022 500.916 517.692
1564 0 51.0577 10.2825 525 56.8895 501.598 517.03
1565 0 53.0568 10.6867 567 56.9965 501.504 514.783
1566 0 54.0235 11.0692 598 56.4916 500.973 514.013
1567 0 57.0422 11.5528 659 56.0774 501.161 509.873
1568 0 61.0843 13.9971 855 53.5731 501.218 511.14
1569 0 62.1184 11.5103 715 56.0881 501.533 507.895
1570 0 63.0781 10.6218 670 56.8119 500.516 509.278
1571 0 67.113 10.9964 738 56.4187 500.898 506.936
1572 0 67.0319 12.5314 840 55.2988 501.379 507.235
1573 0 70.0775 13.4423 942 54.6454 501.926 503.606
1574 0 71.1143 10.223 727 57.2435 501.065 504.177
1575 0 76.0746 13.9074 1058 54.5492 501.556 501.858
1576 0 78.1961 11.8932 930 56.6753 501.51 500.423
1577 0 81.0647 11.0282 894 57.198 501.261 497.884
1578 0 80.1055 10.0742 807 58.8575 501.428 497.09
1579 0 87.0809 9.79549 853 58.8441 502.263 497.354
1580 1 44.0928 11.5438 509 56.9882 502.026 516.25
1581 0 49.0396 10.9503 537 56.5773 502.322 518.227
1582 0 50.1033 10.4783 525 56.9562 502.469 518.39
1583 0 49.0351 11.3592 557 56.912 501.661 515.162
1584 0 54.0588 11.6355 629 55.9444 501.714 517.016
1585 0 54.2191 10.808 586 56.9369 502.143 516.459
1586 0 54.1008 10.5174 569 57.9227 502.513 512.856
1587 0 58.0847 7.59236 441 59.7664 502.143 510.224
1588 0 60.0916 11.2661 677 56.6233 501.622 510.133
1589 0 62.0722 12.2116 758 56.314 501.022 508.289
1590 0 63.1314 11.1989 707 57.1966 501.15 508.723
1591 0 66.1508 11.0656 732 57.5314 501.615 506.995
1592 0 66.0842 12.3025 813 57.2374 502.038 505.283
1593 0 69.1286 11.7318 811 57.3342 502.219 505.472
1594 0 71.0699 12.4525 885 56.6237 502.106 504.722
1595 0 73.0931 10.1788 744 57.5296 502.255 506.642
1596 0 78.3041 13.4731 1055 55.4351 502.163 504.193
1597 0 79.1393 12.6991 1005 56.2348 501.376 504.444
1598 0 79.179 12.0865 957 56.7816 502.355 503.852
1599 0 85.2835 12.8278 1094 56.7203 501.724 498.385
1600 0 87.3 11.386 994 57.9306 501.73 496.912
1601 0 87.0798 11.1162 968 58.7066 502.06 495.564
1602 0 93.1942 12.4901 1164 57.457 501.052 496.4
1603 0 93.1894 11.4069 1063 58.3358 501.617 496.818
1604 0 96.1788 10.99 1057 58.3955 501.63 497.831
1605 0 96.2406 9.21648 887 60.9312 500.923 490.484
1606 1 54.12 12.0103 650 57.4431 502.289 513.274
1607 0 56.0618 12.3435 692 56.8858 501.905 514.139
1608 0 57.0269 13.5375 772 56.0078 501.093 512.842
1609 0 58.1887 11.4283 665 57.8391 501.82 513.877
1610 0 61.0811 11.3947 696 57.6911 501.313 511.318
1611 0 61.0443 11.6637 712 57.4747 501.396 511.435
1612 0 60.0966 11.8476 712 57.4621 501.072 511.451
1613 0 67.1658 11.5982 779 57.3736 501.556 509.076
1614 0 69.0969 10.3044 712 58.073 501.416 509.351
1615 0 71.1974 12.4021 883 56.9966 502.103 506.721
1616 0 75.2112 12.5513 944 56.8866 501.308 502.898
1617 0 76.0505 10.7955 821 58.8088 501.438 503.365
1618 0 81.1276 13.0042 1055 57.1223 501.902 501.134
1619 0 82.107 11.753 965 58.4663 502.023 500.863
1620 0 85.21 12.1465 1035 58.0116 501.795 501.186
1621 0 89.194 12.0524 1075 58.3442 501.84 499.857
1622 0 91.1616 10.8598 990 59.8162 501.677 497.972
1623 0 95.1004 13.2386 1259 58.1684 501.476 493.604
1624 0 98.1426 12.0437 1182 59.7665 501.519 492.489
1625 1 53.1038 11.5999 616 58.6542 502.073 517.05
1626 0 56.1814 12.8156 720 57.3306 501.785 515.054
1627 0 53.0918 9.70018 515 62 501.724 510.625
1628 0 60.1456 13.6668 822 57.5085 501.371 512.955
1629 0 61.0619 12.5447 766 58.6893 501.57 512.467
1630 0 63.1201 13.4664 850 57.8612 501.306 511.675
1631 0 65.0975 13.4414 875 58.2869 500.87 510.294
1632 0 65.1539 11.4345 745 61.0765 501.733 505.834
1633 0 69.0525 13.3377 921 59.1737 502.299 506.23
1634 0 71.0605 11.4269 812 60.601 501.841 508.043
1635 0 73.0808 11.8773 868 60.3422 502.461 505.121
1636 0 77.0579 12.6139 972 59.429 502.503 505.968
1637 0 78.0396 12.0708 942 60.9809 501.47 501.87
1638 0 78.1951 11.548 903 62.5183 501.733 500.426
1639 0 83.1126 11.9717 995 61.6824 501.684 500.987
1640 0 84.1396 10.542 887 63.4577 501.662 498.51
1641 0 89.1693 10.5418 940 62.5777 502.304 499.772
1642 0 91.1494 12.6605 1154 61.5173 502.136 496.799
1643 0 99.2889 13.073 1298 60.5339 502.017 495.77
1644 0 97.0882 10.9076 1059 63.525 502.008 492.274
1645 0 102.309 11.6217 1189 62.5904 501.669 489.853
1646 1 53.0993 9.15267 486 63.6564 501.255 513.86
1647 0 58.0845 12.5335 728 60.408 501.113 512.323
1648 0 59.1328 11.3812 673 61.6984 501.472 511.013
1649 0 60.0419 11.5586 694 61.4222 501.983 511.911
1650 0 62.097 12.4966 776 60.7062 502.219 508.312
1651 0 64.1368 12.0368 772 60.9119 501.497 507.962
1652 0 66.0615 13.7902 911 59.2547 501.694 508.144
1653 0 68.0926 12.0718 822 61.0815 501.302 506.939
1654 0 71.1512 12.1432 864 60.2743 501.178 505.757
1655 0 74.1919 11.9555 887 60.5603 501.398 501.98
1656 0 77.1083 13.0985 1010 59.2693 501.576 501.352
1657 0 77.0854 13.6342 1051 59.216 501.492 499.892
1658 0 81.1686 12.7266 1033 59.4327 501.413 497.812
1659 0 83.2048 11.3936 948 60.1593 501.596 498.521
1660 0 88.0704 13.6255 1200 57.6683 501.016 497.322
1661 0 89.1173 12.074 1076 58.869 500.812 493.889
1662 0 91.0985 11.2845 1028 59.5895 501.076 491.739
1663 0 95.1441 12.129 1154 58.6343 501.857 491.568
1664 0 98.137 12.6965 1246 57.9077 501.484 491.91
1665 0 101.247 12.1683 1232 57.7557 501.455 491.916
1666 0 106.134 13.596 1443 57.0506 501.119 487.858
1667 0 108.148 12.5661 1359 57.9345 501.023 484.662
1668 1 54.2442 9.40193 510 59.7941 501.702 512.414
1669 0 54.0546 10.2859 556 59.1097 501.356 509.662
1670 0 57.123 12.972 741 57.1255 500.973 510.231
1671 0 60.0429 11.3585 682 57.7786 501.265 511.466
1672 0 61.1286 11.0587 676 58.2086 501.373 508.624
1673 0 65.1253 13.0825 852 55.9249 501.5 510.827
1674 0 66.1052 13.055 863 56.7532 501.402 505.828
1675 0 67.1159 10.7426 721 58.7698 501.555 505.621
1676 0 72.1196 10.2607 740 59.0243 501.447 500.557
1677 0 73.2164 10.6807 782 58.6739 501.858 504.807
1678 0 80.0681 13.4136 1074 55.5791 501.191 503.385
1679 0 81.1083 11.6388 944 57.5148 500.273 502.254
1680 0 85.1793 11.7869 1004 57.1106 500.699 500.72
1681 0 85.0992 10.0236 853 58.5592 500.965 500.702
1682 0 89.206 11.5575 1031 57.936 501.001 495.712
1683 0 95.1947 14.0134 1334 55.7076 501.087 496.791
1684 0 95.1054 11.2402 1069 59.1768 501.317 494.058
1685 0 99.2401 12.9081 1281 56.8462 501.247 498.366
1686 0 104.12 10.9105 1136 58.5238 501.716 492.482
1687 0 104.475 10.7011 1118 59.4767 501.41 490.224
1688 0 111.116 13.1755 1464 57.2158 501.567 486.446
1689 0 114.474 11.5223 1319 58.3017 501.525 488.857
1690 0 118.195 13.097 1548 57.4315 500.998 482.689
1691 1 64.2092 11.3068 726 58.3953 501.366 509.175
1692 0 64.1927 11.4032 732 58.0546 501.661 510.464
1693 0 62.1798 10.0837 627 60.673 501.691 504.195
1694 0 68.1125 10.145 691 59.9421 501.469 508.502
1695 0 74.1424 13.0155 965 56.5575 501.626 507.954
1696 0 76.2114 11.8355 902 57.7672 500.818 504.079
1697 0 76.0841 11.1324 847 59.2385 501.517 504.828
1698 0 78.2041 9.32176 729 60.8958 501.975 501.44
1699 0 82.0937 10.5124 863 59.1877 501.089 503.852
1700 0 87.1433 11.1311 970 59.4423 501.092 500.012
1701 0 88.142 12.8202 1130 58.0761 501.85 500.618
1702 0 93.0813 12.8705 1198 57.9725 501.743 498.54
1703 0 93.1186 13.2197 1231 57.9854 500.98 496.119
1704 0 96.2669 12.4342 1197 59.0393 500.897 497.28
1705 0 100.116 11.9461 1196 58.9206 500.786 495.745
1706 0 104.247 12.0867 1260 59.3254 501.475 492.886
1707 0 109.178 12.5849 1374 59.3581 501.49 490.491
1708 1 56.1477 12.6274 709 58.6276 501.394 512.808
1709 0 57.0476 9.93907 567 60.358 501.653 513.418
1710 0 59.0499 11.7528 694 59.268 501.344 510.035
1711 0 64.0596 12.1605 779 58.4198 500.357 511.648
1712 0 65.1294 12.5289 816 58.8076 500.1 510.257
1713 0 69.0896 12.6647 875 57.984 500.485 507.751
1714 0 69.019 12.4748 861 59.5354 500.768 506.796
1715 0 71.1152 11.8259 841 59.7646 500.584 506.331
1716 0 74.0491 13.1669 975 58.6 500.93 504.41
1717 0 77.2092 12.4208 959 59.8311 501.004 503.047
1718 0 80.1491 13.7743 1104 58.6739 501.273 500.277
1719 0 80.0981 13.2338 1060 59.6057 500.631 501.732
1720 0 84.0742 11.359 955 61.3686 501.526 498.738
1721 0 89.1679 12.4821 1113 60.4762 501.482 496.898
1722 0 91.1288 10.6772 973 62.1757 502.01 495.307
1723 0 98.124 13.7377 1348 59.1639 501.447 492.547
1724 0 99.1017 12.2299 1212 61.5949 501.838 492.676
1725 0 102.158 13.9392 1424 59.797 501.35 488.735
1726 0 105.129 11.9758 1259 61.8332 500.967 486.806
1727 0 108.21 13.6216 1474 60.3779 500.989 489.471
1728 0 114.193 13.9238 1590 60.2579 501.372 484.992
1729 1 59.0947 13.0638 772 60.2435 501.315 511.912
1730 0 62.1156 14.6984 913 57.8478 501.681 515.655
1731 0 64.124 12.7253 816 60.3493 501.196 512.121
1732 0 68.0892 13.497 919 59.5016 501.741 509.159
1733 0 68.0658 12.2235 832 61.3401 501.47 507.921
1734 0 69.1083 11.5471 798 62.2043 501.297 507.768
1735 0 73.0427 13.362 976 59.9078 501.148 506.553
1736 0 74.1122 11.3612 842 61.8325 501.455 507.194
1737 0 79.0648 13.9253 1101 59.3769 501.524 501.261
1738 0 81.1163 13.154 1067 59.9644 501.474 501.606
1739 0 84.1122 13.7673 1158 59.1442 501.566 500.213
1740 0 86.0612 15.4425 1329 58.0173 501.763 497.203
1741 0 88.1136 12.8584 1133 61.0132 501.425 497.806
1742 0 91.1856 12.8748 1174 60.8952 501.266 494.972
1743 0 97.1308 15.824 1537 57.3546 501.582 494.545
1744 0 101.139 12.7349 1288 60.4573 501.194 493.591
1745 0 103.222 14.2121 1467 59.2938 502.01 491.766
1746 0 104.274 12.822 1337 61.1174 501.838 488.511
1747 0 108.098 12.8494 1389 61.0475 501.043 487.109
1748 0 114.237 13.367 1527 59.8199 500.955 484.094
1749 1 58.0945 14.201 825 58.92 500.818 510.269
1750 0 61.1514 11.5942 709 59.4824 501.227 514.588
1751 0 63.0869 13.1248 828 59.2234 501.426 507.198
1752 0 67.1859 12.5473 843 59.694 501.528 507.362
1753 0 68.1357 11.6532 794 60.204 501.37 510.171
1754 0 71.069 11.1441 792 60.8763 501.569 506.283
1755 0 72.0746 12.9033 930 58.9064 501.322 504.385
1756 0 76.1139 12.5864 958 59.5887 501.548 502.813
1757 0 77.0817 13.8425 1067 57.8903 501.285 505.261
1758 0 81.0962 11.6898 948 59.8998 501.214 501.16
1759 0 85.1624 15.6055 1329 56.0557 501.573 501.403
1760 0 84.0808 11.8933 1000 60.186 502.069 496.137
1761 0 87.2149 12.3259 1075 60.7042 502.363 497.484
1762 0 94.2755 12.9514 1221 58.8984 501.974 497.21
1763 0 95.1819 11.9455 1137 59.5717 502.505 497.495
1764 0 101.144 12.319 1246 60.0152 502.082 493.482
1765 0 101.142 12.8828 1303 59.614 501.726 492.949
1766 1 53.1446 9.8599 524 60.6164 501.687 516.987
1767 0 55.2774 11.1981 619 59.2779 502.076 514.848
1768 0 59.1303 13.7831 815 57.5497 502.182 511.579
1769 0 60.0668 13.9844 840 57.5024 502.642 513.125
1770 0 58.0741 11.692 679 59.5552 502.639 514.733
1771 0 62.224 13.1139 816 58.636 502.038 508.468
1772 0 65.1598 12.6919 827 59.0907 501.716 510.966
1773 0 65.2032 11.9473 779 60.1065 501.789 508.691
1774 0 69.1036 13.3278 921 58.6851 502.079 506.381
1775 0 72.0823 13.5678 978 57.9683 501.698 506.546
1776 0 74.2416 12.4054 921 59.4365 501.154 505.201
1777 0 76.1525 15.0619 1147 57.1735 502.058 503.788
1778 0 80.2561 11.7 939 59.7913 501.801 503.289
1779 0 83.2105 13.6401 1135 58.2811 501.229 501.319
1780 0 83.1677 12.3125 1024 59.6611 501.159 498.422
1781 0 88.1611 13.3732 1179 58.1323 501.548 501.317
1782 0 90.2912 12.2271 1104 59.2817 501.803 498.909
1783 0 94.0853 11.851 1115 59.4969 501.793 500.205
1784 0 98.1749 13.313 1307 58.3045 501.501 494.839
1785 0 102.174 13.6923 1399 58.4518 501.922 492.681
1786 0 103.115 13.3832 1380 58.9399 502.062 488.164
1787 0 103.088 9.08931 937 62.5688 501.765 490.382
1788 1 53.0891 13.7881 732 57.3101 501.672 515.001
1789 0 55.1004 13.3211 734 57.6308 501.067 512.342
1790 0 59.1247 12.9049 763 57.8113 501.374 512.009
1791 0 62.0624 13.5348 840 57.025 501.446 511.911
1792 0 59.162 14.6885 869 57.7837 501.581 510.06
1793 0 63.1274 12.7995 808 58.7488 501.229 509.36
1794 0 66.0716 12.8648 850 58.4129 501.769 508.147
1795 0 69.114 12.3998 857 59.294 501.186 506.298
1796 0 70.1946 11.8955 835 59.0599 500.744 507.963
1797 0 74.2144 13.4475 998 57.8096 501.37 507.266
1798 0 75.1542 12.4677 937 59.429 501.12 500.633
1799 0 77.201 10.803 834 60.8681 500.56 501.685
1800 0 80.1785 11.3372 909 60.6568 500.932 501.879
1801 0 84.064 12.7879 1075 59.8446 501.5 499.387
1802 0 85.1426 13.6829 1165 60.1682 501.304 496.817
1803 0 88.1115 12.5069 1102 61.3993 501.063 495.578
1804 0 91.2193 12.3877 1130 61.1168 501.659 494.296
1805 0 96.2087 12.9094 1242 60.2021 501.093 496.378
1806 0 96.1633 12.6348 1215 61.1284 501.607 494.046
1807 0 100.164 13.1085 1313 60.591 500.947 491.347
1808 0 102.145 10.4264 1065 62.5221 501.824 491.915
1809 0 107.298 12.8521 1379 60.7846 502.249 486.885
1810 0 113.109 12.3775 1400 60.6943 502.021 487.846
1811 0 114.135 11.9683 1366 61.8192 500.699 481.499
1812 1 45.2913 11.2163 508 58.3032 501.974 518.86
1813 0 45.0436 12.6988 572 57.9982 501.337 517.145
1814 0 50.0548 12.5862 630 57.2889 501.624 518.179
1815 0 51.2036 11.5812 593 58.2732 501.86 516.024
1816 0 52.029 12.493 650 57.6077 501.615 511.98
1817 0 55.0515 12.6972 699 57.3362 501.629 515.338
1818 0 55.1638 12.4901 689 57.6168 501.716 513.887
1819 0 60.2973 13.1681 794 56.2217 501.838 512.746
1820 0 60.2417 12.2175 736 57.4443 501.216 510.541
1821 0 63.106 11.2985 713 58.1192 502.219 509.15
1822 0 67.2346 12.2556 824 56.7609 501.2 509.968
1823 0 68.0657 12.5467 854 56.6581 501.738 506.793
1824 0 70.1061 10.5269 738 58.0312 501.131 506.294
1825 0 72.0587 12.3649 891 56.3569 500.305 505.93
1826 0 73.1563 10.8808 796 57.5239 500.52 503.343
1827 0 77.1646 12.8168 989 55.997 500.994 500.592
1828 0 81.4203 12.8101 1043 54.8782 500.424 503.873
1829 0 83.1414 10.8129 899 56.6596 500.889 499.8
1830 0 85.2078 9.47096 807 57.4052 501.19 500.12
1831 1 41.0542 10.3034 423 53.9834 501.161 520.884
1832 0 43.2269 12.9086 558 52.7258 501.063 519.256
1833 0 44.123 10.0854 445 54.618 500.694 518.973
1834 0 46.1202 11.2098 517 53.7234 500.613 518.311
1835 0 47.1389 13.789 650 51.5108 500.592 518.311
1836 0 49.1899 12.1976 600 53.695 500.797 515.223
1837 0 52.4559 11.0378 579 54.0933 501.116 516.408
1838 0 54.0988 13.3644 723 52.4772 501.131 515.728
1839 0 55.1029 11.905 656 54.0183 501.143 511.79
1840 0 57.0966 12.5752 718 53.3454 500.624 511.804
1841 0 57.2111 11.1692 639 54.9124 499.989 509.169
1842 0 59.1304 14.6794 868 52.4389 500.44 508.336
1843 0 63.1015 12.0441 760 54.0921 500.597 510.5
1844 0 62.0992 12.8182 796 54.1118 501 508.827
1845 0 67.0712 12.7924 858 53.9755 500.978 504.473
1846 0 69.153 12.3494 854 54.2799 500.144 505.365
1847 0 69.0951 10.9993 760 55.9724 500.654 502.467
1848 0 76.0864 13.3401 1015 53.9547 501.062 501.907
1849 0 76.1651 12.6304 962 55.0967 500.636 500.014
1850 0 80.3489 13.5534 1089 54.168 500.567 500.343
1851 0 83.1741 14.0789 1171 53.9932 500.67 496.821
1852 0 86.2097 11.8084 1018 56.0422 500.581 499.205
1853 0 87.1732 12.8021 1116 55.9946 500.402 494.337
1854 0 91.3407 12.2508 1119 56.1412 500.396 494.716
1855 0 94.1405 12.1839 1147 56.4926 500.622 490.448
1856 0 99.2493 12.1815 1209 56.2043 501.074 489.012
1857 1 45.018 11.3732 512 58.0234 500.971 517.639
1858 0 46.1042 12.5368 578 57.9758 500.69 513.728
1859 0 50.112 12.5319 628 57.4299 500.457 513.153
1860 0 50.0545 13.0058 651 57.5806 499.955 511.762
1861 0 51.192 11.3885 583 58.307 500.245 512.376
1862 0 53.1602 13.2806 706 56.6629 500.251 510.501
1863 0 56.0871 10.8225 607 58.8204 500.738 505.675
1864 0 58.2237 11.0951 646 58.4272 500.748 510.029
1865 0 59.0707 10.2758 607 59.117 500.239 505.591
1866 0 61.1957 11.4224 699 57.8398 500.365 504.057
1867 0 66.1441 11.8529 784 57.0179 499.562 504.176
1868 0 66.1295 13.6853 905 55.9812 500.065 501.144
1869 0 66.1888 9.36714 620 59.3048 500.566 504.244
1870 0 69.1523 9.3417 646 59.5495 500.633 501.54
1871 1 89.8711 9.55814 859 55.3097 500.577 509.76
1872 0 85.283 13.3555 1139 54.1809 500.843 503.975
1873 0 85.1653 15.9689 1360 52.4559 500.44 501.89
1874 0 87.2757 17.2327 1504 51.5705 500.421 499.451
1875 0 87.1245 12.0862 1053 55.6011 500.614 500.367
1876 0 89.0659 12.4065 1105 56.0869 500.551 498.136
1877 0 96.5756 16.2567 1570 52.6701 500.172 494.861
1878 1 46.28 12.943 599 54.4808 500.559 518.008
1879 0 47.0569 11.773 554 56.3538 499.964 515.347
1880 0 53.2074 14.7724 786 52.9809 500.13 518.003
1881 0 50.0818 13.5977 681 55.649 499.979 513.582
1882 0 56.2324 15.187 854 52.5363 500.012 515.768
1883 0 56.1013 13.9925 785 53.7605 500.376 517.608
1884 0 55.0644 12.9848 715 56.1832 500.284 512.319
1885 0 60.0709 14.6827 882 53.9569 500.028 514.45
1886 0 62.0745 14.5309 902 54.3392 500.443 512.916
1887 0 64.1234 14.4253 925 55.1924 499.938 511.88
1888 0 63.1962 12.5324 792 57.2955 499.773 511.162
1889 0 68.8508 11.7355 808 56.927 499.958 511.251
1890 0 73.4836 14.7108 1081 54.753 500.323 507.933
1891 0 70.3637 14.9651 1053 55.8566 500.805 505.967
1892 0 75.2601 13.274 999 56.2042 500.194 509.907
1893 0 81.9302 13.4505 1102 56.5563 500.242 504.223
1894 0 83.4111 14.4705 1207 56.6437 500.31 504.416
1895 0 83.0992 14.0435 1167 57.5158 500.367 503.469
1896 0 90.2965 13.3117 1202 58.3494 500.631 497.309
1897 0 92.5412 12.7078 1176 58.9609 500.847 498.374
1898 0 96.2529 15.4697 1489 55.2136 500.737 502.551
1899 0 96.1268 13.8151 1328 57.8607 500.723 497.273
1900 0 99.2539 14.6191 1451 57.111 500.754 496.491
1901 1 53.0796 12.9617 688 57.9506 500.234 516.07
1902 0 50.1708 12.9757 651 59.7942 500.421 514.015
1903 0 52.058 12.5053 651 60.3042 500.55 511.796
1904 0 57.0919 13.6622 780 57.7833 501.228 514.736
1905 0 59.2487 14.4644 857 57.4667 500.417 513.516
1906 0 61.2703 13.0895 802 59.3117 500.956 510.979
1907 0 65.4695 14.8008 969 57.2549 500.541 512.258
1908 0 68.3722 13.4996 923 57.8982 500.681 511.613
1909 0 69.5796 14.6451 1019 57.1668 501.08 508.952
1910 0 72.3762 15.9721 1156 56.8512 501.645 507.357
1911 0 71.1959 13.1187 934 59.7784 501.711 509.464
1912 0 74.0886 9.54263 707 65.5955 501.255 429.482
1913 0 77.4611 12.7419 987 60.4924 500.808 506.329
1914 0 81.5818 14.6356 1194 58.5829 501.257 503.668
1915 0 84.2383 15.8954 1339 57.9171 500.638 499.258
1916 0 85.4173 15.0438 1285 59.2109 500.932 499.789
1917 0 89.4314 14.5027 1297 59.276 501.271 501.749
1918 0 91.1975 14.9785 1366 59.1442 500.697 500.015
1919 0 95.5258 14.8442 1418 59.7835 500.796 497.032
1920 0 97.0727 16.8327 1634 57.5851 501.682 499.131
1921 0 102.183 15.4037 1574 59.2948 501.663 497.252
1922 1 49.3217 12.5908 621 60.7343 501.498 520.253
1923 0 51.0391 14.1656 723 59.4357 501.465 519.499
1924 0 54.3558 14.6074 794 59.2519 501.652 519.589
1925 0 53.3077 14.0693 750 60.4613 501.107 519.445
1926 0 55.4194 14.6699 813 61.0049 501.953 517.708
1927 0 57.1676 15.2184 870 59.9322 501.726 518.384
1928 0 58.3498 13.539 790 63.2329 501.847 513.175
1929 0 62.4236 16.2278 1013 59.5074 501.378 514.07
1930 0 65.2763 16.8974 1103 58.1958 500.808 516.443
1931 1 0 0 0 -nan -nan -nan
1932 1 59.083 14.8097 875 63.7943 500.968 514.12
1933 1 13.1248 9.06679 119 41.7479 497.361 545.975
1934 0 12.0304 4.073 49 44.1837 497.347 547.122
1935 0 5 6 30 39.2333 492.667 540.533
1936 0 5 7.2 36 39.1944 492.806 540.806
1937 0 12.0472 3.07126 37 46.4324 496 545.676
1938 0 2 3 6 42.6667 496 541.833
1939 0 5 4 20 43 494.9 542.2
1940 0 13.0295 6.21668 81 43.284 495.926 547.346
1941 0 13.0223 6.45047 84 44.5357 495.881 548.917
1942 0 15.1403 9.64315 146 42.1507 496.322 547.151
1943 0 12.0691 6.37994 77 45 496.039 549.312
1944 0 12.0212 2.32922 28 47.5714 495.679 550.071
1945 0 14.0327 5.77222 81 45.4074 495.963 548.914
1946 0 14.1085 7.65495 108 45.0093 495.639 549.259
1947 0 14.0652 2.20402 31 46.5484 494.387 545.613
1948 0 13.0637 3.59776 47 47.3192 495.511 549.149
1949 0 14.0064 2.64165 37 48.7027 495.027 548.892
1950 0 14.1679 11.5049 163 43.3804 495.245 546.791
1951 0 15.179 6.32452 96 45.7604 494.76 545.604
1952 0 11.0004 3.45443 38 48.3684 495.711 547.842
1953 0 15.3362 9.7156 149 43.4027 494.752 546.389
1954 0 14.1545 8.19526 116 44.3793 494.172 545.138
1955 0 12.0649 4.06137 49 46.4694 493.082 545.796
1956 0 14.1037 7.37395 104 45.4231 494.731 547.625
1957 0 14.1924 6.48235 92 46.0217 494.717 548.098
1958 0 14.1601 6.70898 95 45.6 495.495 549.305
1959 0 14.0822 2.91147 41 47.6829 495.171 548.585
1960 0 16.2015 9.69046 157 44.4204 496.363 547.006
1961 0 12.0479 8.2172 99 45.6364 495.485 547.748
1962 0 13.0091 7.99441 104 45.375 496.212 547.558
1963 0 13.0617 7.12006 93 45.871 495 547.505
1964 0 12.2175 3.76509 46 47.3043 495.435 545.87
1965 0 11.0081 11.8095 130 43.7077 496.662 546.615
1966 0 14.1808 8.10955 115 45.6087 496.565 546.722
1967 0 12.0251 6.1538 74 46.7568 497.946 547.5
1968 0 13.0217 3.83975 50 49.58 496.82 548.5
1969 0 15.1278 5.68489 86 48.314 495.884 546.942
1970 0 14.1953 9.6511 137 45.1168 497.08 547.058
1971 0 13.1133 10.2186 134 45.8284 496.269 547.112
1972 0 14.0869 5.3951 76 48.5658 496.382 545.053
1973 0 13.0757 6.42412 84 48.5714 496.488 545.452
1974 0 15.143 9.31121 141 46.4894 496.908 545.376
1975 0 15.133 6.07943 92 49.0978 497.652 545.141
1976 0 14.1478 3.67548 52 50.6538 496.442 545.788
1977 0 13.0963 9.85008 129 47.5504 496.643 543.907
1978 0 15.1006 9.6685 146 47.8356 496.897 543.493
1979 0 15.2719 7.39923 113 49.3805 496.832 544.558
1980 0 14.2335 10.8898 155 47.7097 498.045 544.29
1981 0 14.1462 10.038 142 48.0423 497.261 545.106
1982 0 13.1041 6.94439 91 50.3297 497.56 545.176
1983 0 14.0755 7.38872 104 49.4135 498.067 543.625
1984 0 15.2793 8.05011 123 49.4228 497.203 543.78
1985 0 14.1521 9.25656 131 48.9924 498.389 544.916
1986 0 13.0875 8.02292 105 49.4857 497.19 544.562
1987 0 14.0948 5.95966 84 51.0595 497.25 545.548
1988 0 16.1424 9.97373 161 48.5342 497.963 543.571
1989 0 14.218 10.0577 143 48.4056 497.762 542.937
1990 0 15.2491 9.37763 143 49.6713 498.538 543.846
1991 0 16.388 6.16304 101 51.2574 498.535 543.812
1992 0 15.2357 7.35117 112 51.1429 498.321 542.67
1993 0 15.1083 7.47933 113 51.1327 498.15 544.699
1994 0 13.0927 8.40161 110 51.5545 498.155 544.709
1995 0 16.1695 8.2872 134 50.4478 498.545 544.104
1996 0 13.1077 7.01879 92 53.5761 499.304 544.011
1997 0 16.2634 10.084 164 50.2073 499.348 544.78
1998 0 15.2817 9.55393 146 50.1233 498.774 541.706
1999 0 15.2223 11.4306 174 48.9713 498.971 543.322
2000 0 16.3279 8.32933 136 51.3676 498.625 543.721
2001 0 15.2217 7.8178 119 52.605 498.218 544.496
2002 0 16.0945 7.08318 114 52.7895 498.614 545.035
2003 0 16.2696 7.99036 130 52.1692 498.169 544.392
2004 0 13.1256 7.0092 92 53.5544 497.565 544.141
2005 0 16.1836 9.88653 160 50.9875 498.569 543.575
2006 0 16.2677 8.72894 142 50.8451 498.232 542.535
2007 0 13.0807 7.49193 98 53.4592 498.245 543.031
2008 0 13.0173 3.91788 51 56.902 498.157 545.059
2009 0 15.2383 8.33427 127 52.7717 497.488 543.008
2010 0 16.2086 8.88416 144 51.5764 498.049 542.681
2011 0 15.2434 11.546 176 50.0966 497.648 542.347
2012 0 15.4746 9.69329 150 50.1267 498.733 542.4
2013 0 15.013 11.3901 171 50.5672 499.035 543.368
2014 0 15.2015 9.07805 138 52.7681 498.181 542.572
2015 0 14.296 7.3447 105 53.6286 498.467 544.724
2016 0 15.3223 9.20228 141 51.7234 497.993 542.816
2017 0 15.0787 8.48878 128 52.3906 497.953 542.945
2018 0 14.0795 7.31559 103 52.1748 498.262 543.039
2019 0 14.131 2.54759 36 56.7778 498.417 544.306
2020 0 15.0253 8.25272 124 51.871 498.25 543.903
2021 0 15.2348 10.3054 157 50.414 498.274 543.49
2022 0 16.0538 7.3503 118 52.0763 497.475 543.178
2023 0 15.1257 9.18967 139 51.1583 498.288 544.784
2024 0 15.0821 3.04997 46 55.413 498.109 545.652
2025 0 13.014 12.7555 166 49.3374 498.669 543.355
2026 0 16.2711 10.2636 167 49.3892 498.826 544.162
2027 0 15.079 5.57066 84 53.1429 498.202 544.119
2028 0 13.1216 7.46862 98 51.6224 497.806 543.592
2029 0 14.0328 5.41587 76 53.2237 497.947 545
2030 0 16.148 8.23631 133 50.5338 497.85 544.135
2031 0 15.2479 6.82062 104 50.9423 498.356 542.788
2032 0 16.154 12.3189 199 47.7286 499.111 544.427
2033 0 13.1228 9.83025 129 49.8605 498.256 543.806
2034 0 15.029 5.72227 86 52.3721 498.523 547.012
2035 0 13.1131 8.61732 113 51.1327 497.646 545.363
2036 0 14.001 3.42833 48 55.4375 497.708 545.521
2037 0 14.1372 6.2247 88 52.9318 498.477 545.716
2038 0 15.0458 7.311 110 51.1455 497.936 544.8
2039 0 16.3131 7.04954 115 51.8174 498.287 545.983
2040 0 14.1689 7.97522 113 50.8761 498.283 544.637
2041 0 13.066 7.11772 93 52.1505 498.097 545.204
2042 0 15.343 7.10423 109 51.0184 497.147 544.771
2043 0 14.0029 5.28464 74 52 496.905 547.041
2044 0 15.0264 6.65497 100 51.16 497.1 544.91
2045 0 16.1215 10.9171 176 48.1932 497.46 543.983
2046 0 14.0075 9.5663 134 49.2761 498.179 544.59
2047 0 15.2151 9.4643 144 49.4028 497.028 545.639
2048 0 14.3399 8.92617 128 49.3281 496.625 544.617
2049 0 13.0028 8.76736 114 49.9649 497.667 545.886
2050 0 13.1621 10.7126 141 48.7234 497.241 545.723
2051 0 15.2353 8.40152 128 49.7734 497.094 546.07
2052 0 15.1106 10.2577 155 48.2065 496.735 544.761
2053 0 14.0621 7.538 106 49.1415 496.849 545.245
2054 0 16.0077 9.87024 158 47.5127 497.006 544.658
2055 0 13.0673 9.25976 121 49.4545 496.645 546.628
2056 0 13.0466 7.74146 101 50.2871 497.05 547.752
2057 0 14.1363 6.5788 93 50.2796 497.484 546.151
2058 0 15.0238 14.2441 214 45.3598 497.444 545.547
2059 0 13.0667 11.7092 153 47.451 497.405 546.431
2060 0 15.0673 13.8711 209 46.866 497.455 544.742
2061 0 16.0104 5.80873 93 51.0753 496.634 546.097
2062 0 16.0645 8.90161 143 49.3496 497.021 547.79
2063 0 16.0517 10.4662 168 48.131 497.363 545.768
2064 0 14.1671 7.83507 111 50.1982 497.117 547.622
2065 0 15.0047 11.1965 168 47.1131 497.155 545.107
2066 0 14.0754 7.38878 104 50 497.346 547.577
2067 0 14.0434 11.4645 161 47.0621 497.894 547.242
2068 0 14.0194 7.27563 102 48.7549 496.49 545.892
2069 0 14.0631 8.31964 117 49.2137 496.077 547.051
2070 0 13.0836 6.87885 90 49.7889 497.233 547.233
2071 0 15.0528 10.9614 165 47.1152 497.758 546.721
2072 0 14.0466 13.2417 186 45.0699 497.398 545.312
2073 0 14.1309 10.2612 145 46.8414 497.49 545.448
2074 0 13.0071 8.14938 106 48.2547 497.142 547.283
2075 0 15.0049 9.46356 142 47.1479 496.514 546.697
2076 0 14.0078 8.56664 120 47.0583 496.442 545.008
2077 0 16.169 6.061 98 48.1633 495.735 545.296
2078 0 15.051 8.83663 133 46.4962 497.218 545.466
2079 0 13.0026 9.0751 118 47.2881 497.017 543.059
2080 0 14.0147 11.7733 165 45.4121 497.255 543.176
2081 0 14.06 4.19629 59 47.8475 496.288 544.339
2082 0 15.0321 8.24904 124 48.3226 497.766 547.105
2083 0 14.0166 3.5672 50 52.1 496.06 547.42
2084 0 16.0116 9.99274 160 46.9688 497.031 545.925
2085 0 16.0619 7.90689 127 48.9134 496.606 545.291
2086 0 15.0046 9.53042 143 48.2028 496.881 546.664
2087 0 17.2636 8.51504 147 48.034 496.986 544.755
2088 0 14.0601 8.60594 121 49.2893 497.587 545.174
2089 0 16.1212 10.5451 170 47.4059 497.341 544.947
2090 0 16.0219 4.24418 68 53.0294 497.838 547.559
2091 0 17.1221 8.35177 143 49.6084 496.797 544.734
2092 0 15.1613 8.44254 128 49.7031 496.992 546.633
2093 0 15.0677 6.90218 104 50.8462 497.26 546.654
2094 0 17.1349 9.74619 167 48.2934 496.647 545.066
2095 0 16.3192 8.94651 146 48.5685 497.219 543.918
2096 0 15.0123 11.1909 168 47.4226 497.083 544.804
2097 0 16.37 11.912 195 47.8256 496.78 546.415
2098 0 16.1156 10.0524 162 48.358 496.185 545.5
2099 0 16.0139 7.05637 113 50.0354 496.522 544.823
2100 0 17.1891 10.1809 175 47.5371 496.606 543.886
2101 0 15.0647 7.83288 118 51 497.686 545.966
2102 0 16.0845 8.331 134 50.0224 497.403 545.112
2103 0 12.007 6.82934 82 53.3537 497.378 547.5
2104 0 15.0155 6.46 97 52.6495 497.134 548.113
2105 0 15.0356 10.0428 151 50.2053 497.093 546.861
2106 0 16.0141 6.18207 99 52.5152 496.97 546.596
2107 0 17.0698 11.8338 202 48.5891 497.114 544.648
2108 0 16.1238 11.3497 183 49.4262 497.317 545.486
2109 0 16.0341 9.9164 159 48.9811 497.27 544.956
2110 0 16.0263 6.30212 101 52.4158 496.772 547.337
2111 0 15.037 7.1823 108 52.0648 496.528 546.62
2112 0 13.0367 8.1309 106 52.1226 497.377 545.5
2113 0 11.0115 5.72128 63 55.6349 496.508 547.429
2114 0 14.0124 7.99294 112 52.2589 497 545.705
2115 0 15.0135 7.32674 110 51.3909 497.209 545.218
2116 0 15.0834 7.69059 116 51.6293 497.569 545.776
2117 0 15.0712 7.96222 120 50.8833 496.058 545.25
2118 0 15.048 8.70549 131 50.7557 496.076 546.763
2119 0 14.0911 7.9483 112 51.25 496.929 545.866
2120 0 14.0755 12.8592 181 48.7182 497.58 546.066
2121 0 16.0124 6.55744 105 53.1238 496.629 547.533
2122 0 16.3475 8.56398 140 51.0714 496.679 545.821
2123 0 17.0166 11.812 201 48.5522 496.975 545.333
2124 0 15.0237 8.91922 134 50.3284 495.948 544.545
2125 0 16.0163 9.11569 146 50.5822 496.445 546.425
2126 0 14.0294 2.3522 33 58.1212 496.515 548.152
2127 0 16.1563 8.47968 137 50.438 496.62 544.949
2128 0 16.1373 7.68407 124 52.4274 496.435 547.161
2129 0 13.0209 5.68318 74 53.8919 497.054 546.743
2130 0 16.0096 7.87026 126 51.9603 497.389 546.675
2131 0 16.0315 5.05255 81 53.5679 496.469 546.901
2132 0 14.0129 9.99076 140 50.95 496.757 546.657
2133 0 13.0045 6.07483 79 54.1519 496.937 549.392
2134 0 15.2978 10.0668 154 50.1688 496.422 546.494
2135 0 17.0248 9.63302 164 50.5671 497.323 546.591
2136 0 16.0156 5.36977 86 53.8837 497.256 548.186
2137 0 15.049 5.84756 88 54.2727 497.409 548.08
2138 0 15.1626 7.1228 108 53.3704 497.019 547.694
2139 0 14.0381 9.40301 132 51.5985 497.288 548.053
2140 0 14.1828 5.28808 75 54.4533 497.627 547.8
2141 0 18.0249 8.26635 149 51.4094 497.228 546.94
2142 0 16.0254 7.23852 116 52.5345 498.069 546.164
2143 0 15.1238 11.4389 173 49.5723 497 545.104
2144 0 15.0301 7.51824 113 52.3451 497.23 546.761
2145 0 14.0314 7.76828 109 49.3119 497.459 548.239
2146 0 15.0016 11.1322 167 49.479 496.886 546.713
2147 0 17.1507 10.845 186 49.2796 496.597 545.064
2148 0 14.0264 7.69979 108 52.4537 496.546 546.982
2149 0 14.0519 9.32259 131 51.6947 496.916 547.656
2150 0 17.104 10.9331 187 56.7219 496.326 548.476
2151 0 23.1251 12.6702 293 66.8942 496.478 545.768
2152 1 70.1644 14.3092 1004 43.2341 498.455 508.724
2153 0 71.1405 12.8478 914 76.4694 498.482 431.809
