time division length width area intensity CMx CMy
0 0 80.0785 13.0622 1046 60.2734 955.119 464.748
1 0 82.0595 12.4056 1018 61.5167 954.485 460.55
2 1 41.0215 10.2629 421 132.52 953.648 480.109
3 0 42.0453 10.3935 437 61 953.764 481.872
4 0 45.0821 11.4458 516 59.5194 954.039 479.068
5 0 46.0366 10.622 489 61.0225 953.434 477.198
6 0 46.0789 11.3935 525 60.221 953.286 476.181
7 0 48.1085 11.3701 547 59.883 953.296 477.83
8 0 48.1237 11.699 563 60.0373 952.906 475.515
9 0 51.0266 11.2098 572 60.0909 952.766 475.988
10 0 53.0272 10.5795 561 60.934 953.282 475.189
11 0 51.039 9.6397 492 63.4065 953.354 471.839
12 0 55.0537 11.9701 659 60.0607 953.042 472.693
13 0 57.087 11.8416 676 59.9719 952.873 473.587
14 0 59.0455 13.3287 787 58.1639 952.807 472.109
15 0 60.1931 12.2772 739 59.0785 952.392 471.771
16 0 59.0227 10.7755 636 61.6069 953.146 471.384
17 0 62.0718 11.3739 706 60.5028 952.561 471.746
18 0 63.0368 10.8191 682 61.2698 953.009 469.541
19 0 64.0459 11.2576 721 60.9584 952.193 464.472
20 0 67.2213 11.3208 761 60.4744 951.737 467.152
21 0 70.0827 10.7302 752 60.6729 952.007 467.38
22 0 71.0327 11.0513 785 60.8828 951.908 463.056
23 0 74.1315 14.2045 1053 57.5859 952.259 462.821
24 0 74.1316 11.7359 870 60.6655 952.129 460.331
25 0 77.1239 10.5155 811 61.397 952.566 464.192
26 0 80.049 11.2681 902 60.7506 951.817 461.992
27 0 81.0608 11.3125 917 61.5311 951.457 455.809
28 0 85.1852 10.847 924 61.5509 951.538 458.648
29 0 87.1285 12.0282 1048 60.8244 951.81 456.166
30 0 90.1638 10.6362 959 62.2753 951.949 456.408
31 1 51.086 9.00442 460 60.5609 951.724 475.965
32 0 52.0728 11.4263 595 59.0975 952.121 473.308
33 0 55.1252 10.3401 570 60.1281 953.516 471.777
34 0 56.0944 11.3559 637 59.3391 953.364 473.298
35 0 57.0593 9.93703 567 61.0494 953.383 466.875
36 0 56.0893 9.7523 547 61.6015 953.181 469.943
37 0 62.0288 10.7853 669 59.8505 952.988 471.707
38 0 58.0752 9.88374 574 62.5261 952.934 466.284
39 0 60.0717 9.22231 554 62.9242 952.973 467.792
40 0 68.1932 10.9688 748 60.0628 952.832 466.781
41 0 65.0877 10.4014 677 61.5524 952.923 467.743
42 0 65.0243 10.6729 694 62.1383 952.745 466.146
43 0 71.0524 10.0348 713 62.4979 952.509 462.628
44 0 76.1773 11.657 888 59.768 952.235 467.025
45 0 77.0697 10.6786 823 61.949 952.271 464.725
46 0 76.1245 13.4911 1027 59.3836 952.677 462.345
47 0 83.2568 11.5666 963 61.0415 952.714 461.425
48 0 86.1552 12.9418 1115 59.6242 952.176 460.426
49 0 84.3 10.4271 879 63.5575 952.165 455.686
50 0 88.0733 9.9122 873 64.3081 952.258 453.15
51 0 92.1931 10.9444 1009 63.4014 952.686 453.933
52 0 97.3557 12.7984 1246 60.703 951.51 450.669
53 1 48.0889 7.54852 363 62.8457 952.386 474.777
54 0 50.1199 9.77655 490 60.9633 951.545 476.835
55 0 50.0223 7.57662 379 63.7995 951.52 473.084
56 0 55.0976 9.58299 528 61.0303 952.091 476.231
57 0 56.0828 11.1264 624 60.8333 952.753 473.409
58 0 58.0936 11.4987 668 60.9012 952.542 473.093
59 0 54.1377 8.18284 443 65.9323 952.4 467.905
60 0 60.0485 10.7413 645 61.755 952.352 470.212
61 0 62.2233 9.80341 610 62.7738 952.338 472.68
62 0 66.0575 10.4 687 62.5022 952.677 469.731
63 0 66.1313 11.7796 779 61.0308 952.401 466.773
64 0 68.2105 10.5116 717 62.9861 951.484 466.604
65 0 71.1764 11.3099 805 61.4522 951.247 466.107
66 0 72.1594 11.5855 836 61.6447 951.42 466.169
67 0 76.1519 11.8185 900 61.7744 951.552 465.177
68 0 79.1312 12.8015 1013 60.2113 951.344 464.521
69 0 80.1525 10.2679 823 63.8384 950.843 462.906
70 0 82.2122 9.98635 821 64.352 950.559 462.948
71 0 87.139 12.371 1078 61.1382 950.31 461.583
72 0 88.2099 12.4362 1097 61.2352 950.331 460.543
73 0 90.1397 11.227 1012 63.1472 950.581 456.381
74 0 92.1448 11.2106 1033 63.7338 950.269 454.71
75 0 96.1903 11.0926 1067 64.4386 950.592 453.229
76 1 51.1662 8.32581 426 64.9977 951.075 474.197
77 0 52.0991 7.21701 376 66.1835 950.949 471.271
78 0 55.0372 8.46701 466 64.1395 951.118 476.918
79 0 56.1312 8.5692 481 65.4116 950.077 470.148
80 0 46.0847 9.02686 416 67.0938 950.281 467.464
81 0 54.03 10.3831 561 69.5062 950.305 418.399
82 0 48.1186 8.60374 414 67.2633 950.947 465.273
83 0 48.1228 8.93548 430 66.7116 950.944 463.837
84 0 47.1747 7.92798 374 65.385 950.84 455.404
85 1 123.146 3.80849 469 71.9787 951.011 450.254
86 1 114.251 7.21221 824 71.25 951.243 425.385
87 1 65.2108 12.1146 790 61.1759 951.611 463.132
88 0 58.1725 6.58386 383 66.8146 951.266 450.948
89 0 55.0633 6.86483 378 70.1032 951.722 453.664
90 0 61.0211 8.58719 524 66.7595 951.183 451.403
91 0 64.101 9.29782 596 66.1661 951.344 454.111
92 1 85.0726 10.4381 888 62.2905 951.481 459.018
93 0 86.1961 10.1861 878 62.9317 950.909 455.685
94 0 85.1353 9.33807 795 64.7711 950.55 454.069
95 0 92.2382 9.49715 876 63.75 951.264 456.932
96 0 96.1454 10.8898 1047 62.2206 951.082 451.156
97 0 95.1907 10.1901 970 63.6175 951.487 450.821
98 0 99.105 9.5757 949 64.1264 951.319 447.541
99 1 53.054 9.46207 502 61.0697 950.769 472.651
100 0 57.0985 9.43983 539 61.757 950.801 472.033
101 0 59.0752 9.25939 547 61.6527 951.183 472.912
102 0 60.0482 8.95947 538 62.855 951.606 468.132
103 0 63.1391 10.0888 637 60.4741 951.573 471.366
104 0 64.0503 9.8204 629 61.5898 951.715 467.486
105 0 67.1739 10.1081 679 61.4065 950.979 464.632
106 0 69.1083 10.8815 752 60.3963 951.144 467.698
107 0 72.1473 10.1875 735 60.8571 951.287 467.435
108 0 73.1682 9.93601 727 62.0605 951.298 465.206
109 0 74.2439 9.1186 677 63.0798 951.139 460.892
110 0 77.0865 11.8309 912 59.682 950.292 462.873
111 0 81.1525 13.7149 1113 57.5211 950.513 460.783
112 0 83.162 11.5918 964 59.9243 950.499 460.675
113 0 84.2886 12.9911 1095 58.7808 950.205 458.521
114 0 86.3043 10.9728 947 61.2693 950.714 460.41
115 0 90.1624 10.9358 986 60.8418 951.073 457.735
116 0 93.5644 11.607 1086 59.8969 951.043 455.4
117 1 54.1031 8.96436 485 58.3732 951.499 478.639
118 0 54.0347 9.41987 509 58.8369 951.012 476.053
119 0 57.2167 10.7836 617 57.1102 951.316 475.822
120 0 59.2526 8.79286 521 58.6545 950.559 475.436
121 0 60.1391 8.18103 492 59.6667 950.644 473.327
122 0 63.092 9.38312 592 57.8412 950.203 472.78
123 0 64.1637 12.4681 800 54.6213 950.5 472.865
124 0 66.1475 10.5219 696 56.898 950.799 471.573
125 0 67.1484 12.4202 834 54.9832 950.635 470.388
126 0 69.0902 9.39351 649 58.8151 951.55 466.116
127 0 72.0859 13.3729 964 54.4481 951.684 467.518
128 0 74.1022 11.4302 847 56.5466 951.124 465.745
129 0 75.3208 12.0286 906 56.0375 951.738 466.092
130 0 76.0809 11.4615 872 57.328 951.989 463.001
131 0 77.1792 11.7519 907 57.5017 952.068 461.528
132 0 79.2928 10.5684 838 58.7983 952.345 462.025
133 0 82.0889 9.35572 768 59.9466 951.842 462.1
134 0 86.1755 11.639 1003 57.8664 951.947 460.026
135 0 87.1965 11.3078 986 58.5294 951.955 457.984
136 0 91.0844 10.1883 928 59.7231 951.269 457.654
137 0 92.1652 10.4378 962 59.3472 951.66 458.392
138 0 98.241 12.8561 1263 57.0206 951.98 456.707
139 0 98.2126 11.3529 1115 59.2637 951.652 453.483
140 0 102.13 12.9443 1322 57.8253 951.441 452.807
141 0 106.153 12.4914 1326 58.5422 951.715 449.09
142 1 60.0849 8.38814 504 59.7401 952.095 473.508
143 0 61.1286 9.30825 569 59.8102 951.773 472.17
144 0 61.0789 10.5765 646 59.7632 952.054 468.406
145 0 61.0862 9.77307 597 60.943 951.668 469.633
146 0 68.106 10.6892 728 59.8063 951.6 469.416
147 0 67.1608 10.7057 719 59.5522 950.86 471.695
148 0 69.0803 10.1331 700 61.05 951.504 469.346
149 0 71.1629 13.0686 930 58.429 951.69 467.769
150 0 75.1131 11.2497 845 60.2675 951.775 468.393
151 0 74.083 12.405 919 59.9119 951.734 464.494
152 0 78.2964 13.2062 1034 58.472 951.272 465.769
153 0 79.3684 11.1757 887 61.3799 951.713 464.221
154 0 82.0757 10.7218 880 61.6136 952.442 465.205
155 0 86.1687 11.9881 1033 60.5963 952.28 462.53
156 0 85.1197 11.1608 950 61.9063 952.349 458.859
157 0 85.2299 9.79703 835 63.8922 951.257 458.565
158 0 92.3706 12.1467 1122 60.4332 951.541 460.503
159 0 91.2589 10.2346 934 62.6981 951.791 458.155
160 0 97.1962 11.5128 1119 61.168 951.743 458.279
161 0 98.1681 11.3377 1113 62.336 952.108 455.405
162 0 99.3035 10.9462 1087 62.9604 952.631 455.672
163 0 105.322 12.495 1316 61.2774 952.832 454.138
164 1 57.0794 9.75834 557 63.079 952.794 472.23
165 0 59.0603 11.1581 659 61.9879 953.261 472.763
166 0 61.0875 9.36362 572 63.9458 953.103 473.191
167 0 63.2651 10.7168 678 62.5162 953.333 473.431
168 0 61.1972 9.08538 556 65.9155 953.07 470.052
169 0 63.0498 7.8668 496 67.5847 953.528 468.111
170 0 66.1484 11.187 740 62.8095 951.911 468.969
171 0 69.0495 9.44251 652 64.9294 952.259 468.186
172 0 73.1322 11.8416 866 62.1536 952.642 468.771
173 0 67.1003 8.10726 544 68.0864 952.285 461.193
174 0 73.0738 10.3457 756 64.8929 952.382 465.25
175 0 78.1634 10.0175 783 64.8812 952.622 462.6
176 0 78.1339 9.76528 763 66.1468 951.742 459.712
177 0 84.1276 12.9209 1087 60.7939 951.977 465.234
178 0 86.2029 11.2641 971 62.8847 952.031 464.115
179 0 86.1969 10.592 913 64.6999 951.41 458.541
180 0 91.0804 11.0232 1004 63.6514 951.858 458.715
181 0 93.2282 10.8658 1013 64.2942 951.675 456.282
182 0 99.18 11.8169 1172 63.0469 951.951 454.195
183 0 99.2249 9.98742 991 65.4147 952.337 451.861
184 0 101.143 10.1243 1024 65.9238 952.148 447.72
185 0 108.316 11.5219 1248 64.2748 952.609 447.695
186 0 111.232 12.0918 1345 63.7115 953.181 447.499
187 1 49.0654 6.17543 303 64.3861 953.389 474.947
188 0 51.1624 8.54142 437 59.9748 953.087 476.973
189 0 53.1517 9.3506 497 60.4346 952.115 474.97
190 0 55.1523 11.3685 627 58.5247 951.88 472.684
191 0 57.2834 9.84579 564 60.0301 952.089 474.888
192 0 58.1462 11.2131 652 59.1902 952.017 473.227
193 0 60.28 11.6954 705 59.1986 952.953 471.292
194 0 63.1925 10.5234 665 59.7023 952.639 472.146
195 0 63.0658 10.053 634 60.2524 952.749 472.748
196 0 64.2196 9.24952 594 61.5152 952.739 469.456
197 0 66.2254 9.67906 641 60.5226 952.435 471.651
198 0 68.2363 9.36451 639 61.3975 952.268 465.347
199 0 70.2393 11.6601 819 58.862 952.288 465.822
200 0 73.0486 10.2808 751 60.0626 952.316 464.702
201 0 74.1107 9.94459 737 60.327 952.475 465.67
202 0 78.1743 12.0244 940 57.8851 952.434 465.161
203 0 79.1455 9.70365 768 60.7305 952.518 462.247
204 0 79.2118 10.9832 870 60.2172 952.837 458.002
205 0 80.3107 9.58776 770 62.0584 951.982 454.522
206 0 85.2364 11.7907 1005 59.2249 952.035 459.724
207 0 87.1712 12.0223 1048 57.9313 951.497 454.667
208 0 88.3535 11.0805 979 59.1879 951.216 454.169
209 0 92.3472 11.5109 1063 58.1138 952.198 457.125
210 0 92.3164 10.8106 998 59.2475 952.157 455.541
211 0 94.3891 10.6262 1003 59.9163 951.922 449.744
212 0 97.3954 11.7357 1143 58.8749 951.554 449.621
213 0 99.4183 10.4709 1041 60.3285 951.303 447.939
214 0 103.186 13.2576 1368 56.9342 951.023 450.451
215 0 103.193 12.055 1244 58.3722 951.551 448.513
216 0 106.2 12.0245 1277 58.7165 951.295 446.738
217 0 110.174 11.9539 1317 58.754 951.552 444.149
218 0 112.219 11.1568 1252 59.7236 952.036 443.289
219 0 115.173 11.9472 1376 59.1352 952.087 442.395
220 0 119.275 13.5317 1614 57.1221 951.429 439.768
221 1 68.293 8.47818 579 58.4991 952.06 465.124
222 0 66.039 9.99409 660 57.4939 951.936 466.668
223 0 69.1907 9.3076 644 57.9084 952.028 467.078
224 0 72.2798 11.8844 859 56.5274 951.919 463.111
225 0 71.1632 9.31661 663 59.3575 951.881 457.608
226 0 74.0771 9.9356 736 58.4321 952.399 464.232
227 0 79.1434 11.1317 881 57.5709 951.959 461.911
228 0 81.17 12.3814 1005 56.4139 951.767 461.668
229 0 82.1111 11.0216 905 57.7669 951.535 461.705
230 0 84.1344 11.862 998 57.7154 951.068 460.606
231 0 87.1743 13.9491 1216 55.4482 950.471 458.321
232 0 87.2133 9.01238 786 61.1272 950.172 454.293
233 0 89.2691 11.8854 1061 58.1894 950.361 457.011
234 0 89.2042 10.1789 908 60.7346 951.046 452.281
235 0 93.3141 12.3132 1149 58.7946 951.211 448.911
236 0 95.3111 9.5162 907 61.9338 951.375 452.774
237 0 99.1356 11.2271 1113 60.4438 951.68 450.258
238 1 58.1154 7.9497 462 59.2165 952.182 472.924
239 0 61.108 9.55685 584 57.2979 952.688 475.69
240 0 60.0498 10.5579 634 57.3502 952.528 470.992
241 0 62.0367 7.72124 479 60.0543 952.848 471.407
242 0 64.106 11.9802 768 56.4518 952.698 471.909
243 0 65.1953 9.89336 645 58.1054 952.304 472.547
244 0 67.1337 10.9185 733 57.8581 952.3 472.569
245 0 69.1463 10.0078 692 59.1647 952.389 470.889
246 0 67.1067 9.55195 641 60.5523 952.172 468.292
247 0 72.0481 11.0343 795 58.444 952.664 469.821
248 0 75.1411 11.4185 858 58.1678 952.5 466.667
249 0 76.0974 10.0266 763 60.0904 952.334 465.375
250 0 79.106 12.5654 994 57.7827 952.078 463.068
251 0 79.1054 11.0738 876 60.137 952.162 462.379
252 0 84.1163 11.9359 1004 58.5159 952.039 464.948
253 0 83.2546 12.2756 1022 59.591 951.795 458.716
254 0 87.1926 10.6202 926 61.5724 951.667 457.47
255 0 90.1109 12.7731 1151 59.0964 951.769 460.942
256 0 93.1617 11.6572 1086 60.9503 951.473 456.731
257 0 97.2704 13.5396 1317 58.8633 951.557 459.146
258 0 98.174 12.2334 1201 61.1324 952.133 453.011
259 0 101.328 12.5138 1268 60.7752 952.467 454.831
260 0 103.33 10.181 1052 63.1492 952.657 455.904
261 0 105.236 11.9161 1254 62.2751 952.391 451.936
262 1 60.1769 8.8406 532 61.7744 952.374 472.852
263 0 64.0917 9.29917 596 60.9547 952.183 474.262
264 0 66.1297 8.86138 586 61.9642 952.514 471.568
265 0 64.0737 9.25497 593 61.7589 952.887 471.632
266 0 67.1311 10.4125 699 60.8884 952.757 471.345
267 0 68.1033 10.5134 716 61.5768 953.359 469.057
268 1 58.1654 12.8255 746 65.6394 952.485 409.031
269 0 59.0693 11.4442 676 66.2382 951.969 413.454
270 0 59.1388 12.31 728 65.603 952.42 415.706
271 0 61.0305 13.272 810 64.7642 952.62 417.179
272 0 62.1411 12.6969 789 65.3853 951.869 418.411
273 0 63.0667 11.2421 709 67.646 952.351 421.245
274 0 63.1524 13.1111 828 67.0362 952.72 418.89
275 0 65.138 10.946 713 69.7391 952.453 422.32
276 0 65.1853 9.98692 651 71.3625 952.714 424.462
277 0 69.178 12.186 843 68.8339 952.54 422.517
278 0 73.2788 12.3092 902 69.0477 952.31 421.049
279 1 35.0749 8.83823 310 72.3065 951.968 436.684
280 0 38.0726 9.50816 362 71.0967 952.171 437.506
281 0 42.0955 9.97731 420 70.3238 951.9 437.631
282 0 41.0313 10.8698 446 69.2242 951.951 438.895
283 0 42.0404 10.4423 439 71.246 951.822 436.861
284 0 45.1151 10.7725 486 69.4691 951.953 439.593
285 0 46.0384 11.7076 539 70.0223 952.414 436.827
286 0 49.1161 11.3812 559 69.3131 951.952 438.923
287 0 48.1549 11.733 565 70.2124 952.099 438.485
288 0 50.0741 12.5814 630 69.6603 951.663 436.992
289 0 52.0394 12.1254 631 69.4231 951.469 437.992
290 0 54.0532 12.7837 691 68.5297 951.3 437.679
291 0 55.1109 11.867 654 70.5902 951.843 438.795
292 0 56.1033 12.5126 702 70.0627 951.927 438.443
293 0 60.092 12.7638 767 68.2894 951.773 440.24
294 0 62.0592 14.3411 890 66.9573 951.794 438.871
295 0 62.0711 10.5041 652 72.365 951.429 440.069
296 0 64.091 12.139 778 70.0681 951.725 441.846
297 0 67.0971 11.774 790 70.8797 952.013 440.757
298 0 69.0572 13.3512 922 68.8341 952.504 440.642
299 0 70.0845 12.6419 886 70.9424 952.716 437.951
300 0 74.094 12.7001 941 70.1318 951.616 438.188
301 0 76.1124 12.0217 915 71.4743 952.208 436.801
302 0 80.1261 12.2931 985 70.7706 952.084 435.512
303 1 39.0388 10.6817 417 68.6859 952.161 457.962
304 0 41.0282 10.4319 428 68.4276 951.703 458.666
305 0 42.0809 11.264 474 68.1287 951.614 458.255
306 0 45.0281 11.304 509 67.4695 952.065 458.509
307 0 42.0382 10.3715 436 71.0046 952.151 456.057
308 0 44.1828 10.8866 481 69.1435 952.622 460.187
309 0 46.0459 11.4668 528 68.7765 952.252 459.106
310 0 48.0633 11.7553 565 68.1628 952.297 459.462
311 0 48.0528 12.3614 594 67.9091 952.348 460.636
312 0 50.0514 11.8279 592 68.647 952.431 457.639
313 0 51.0791 12.51 639 67.9437 952.264 458.917
314 0 53.062 10.9495 581 69.7418 952.525 456.552
315 0 55.1282 11.1195 613 68.9869 952.168 456.561
316 0 56.1431 10.8651 610 70.2934 952.295 454.63
317 0 58.0599 10.9025 633 70.297 951.695 451.67
318 0 58.158 9.90405 576 71.7274 951.422 449.307
319 0 62.0998 11.8197 734 69.5095 951.811 451.204
320 0 63.0938 11.3323 715 70.4462 951.912 448.273
321 0 65.0413 10.5933 689 71.4049 952.112 448.689
322 0 68.0786 9.94439 677 72.1241 951.66 452.124
323 0 68.1037 10.3078 702 72.6667 951.782 450.528
324 0 69.0997 9.23303 638 74.3292 951.998 449.508
325 0 74.1911 8.96334 665 74.2617 952.161 447.953
326 1 38.0414 8.35931 318 69.7956 950.984 470.365
327 0 40.1058 9.67442 388 67.951 951.887 468.76
328 0 42.0719 10.791 454 66.0595 951.791 468.72
329 0 41.0852 11.0015 452 67.0088 952.715 465.989
330 0 43.0477 10.0122 431 67.6961 952.694 467.413
331 0 45.0263 7.6844 346 70.6243 952.621 464.971
332 0 43.1173 8.95231 386 69.9974 952.676 465.565
333 0 47.0119 8.7212 410 69.5732 953.059 467.305
334 0 49.0803 10.6356 522 67.3333 952.724 464.58
335 0 51.0719 9.43768 482 67.9357 952.481 467.172
336 0 51.0497 11.0285 563 66.9538 952.732 462.979
337 0 53.1212 9.45009 502 68.0598 952.749 464.843
338 0 58.0702 11.6239 675 65.1644 952.144 463.732
339 0 59.0346 10.9089 644 66.0031 952.076 462.064
340 0 60.0699 10.9206 656 66.282 952.223 459.962
341 0 63.1377 12.1164 765 64.4706 952.084 458.999
342 0 65.122 10.5801 689 66.4572 952.038 455.99
343 0 66.1342 12.641 836 64.0742 951.827 452.2
344 0 69.0551 11.0491 763 65.9174 952.389 452.199
345 0 70.1364 10.6222 745 66.9101 951.839 447.725
346 0 74.1294 11.2506 834 65.8213 951.609 450.511
347 0 76.1591 11.3578 865 67.0578 951.658 445.884
348 0 80.2558 13.1206 1053 64.6676 951.584 443.817
349 1 39.0713 9.39307 367 65.8965 952.218 465.308
350 0 41.056 8.11087 333 68.4324 951.682 461.751
351 0 42.1086 10.7104 451 65.2018 951.206 460.517
352 0 45.095 11.7086 528 63.6212 951.812 459.928
353 0 46.0642 11.4623 528 64.3295 951.576 459.515
354 0 48.0397 11.9693 575 63.8713 951.657 457.205
355 0 49.1266 9.64853 474 66.6498 952.053 457.861
356 0 50.0835 9.98333 500 65.872 952.608 460.18
357 0 52.0592 12.1016 630 64.081 952.398 455.083
358 0 54.1057 12.2538 663 62.9005 952.262 458.13
359 0 55.0945 11.453 631 65.7306 952.881 454.837
360 0 57.0767 10.9852 627 66.0574 952.523 454.994
361 0 60.0449 12.2242 734 64.5668 951.898 452.582
362 0 63.1585 13.0149 822 62.8637 951.457 452.624
363 0 65.0655 12.9408 842 62.8515 951.607 453.855
364 0 67.0588 12.243 821 63.6431 951.738 453.967
365 0 68.1439 11.8426 807 64.3247 951.362 450.328
366 0 71.0779 13.4078 953 62.4774 951.216 449.833
367 0 74.1944 13.6668 1014 61.6262 951.652 449.258
368 0 75.1601 11.7616 884 64.4186 952.479 446.768
369 0 81.1737 11.5678 939 64.6337 953.07 446.194
370 0 81.1398 12.842 1042 63.3906 953 444.324
371 0 82.1713 11.3665 934 66.0867 953.243 439.7
372 0 86.1154 12.0884 1041 64.6177 952.395 441.278
373 1 48.0604 9.75856 469 64.2772 952.299 461.793
374 0 48.1359 11.426 550 63.0836 952.4 460.18
375 0 48.0438 11.7601 565 63.5257 952.285 458.076
376 0 51.0502 10.9304 558 65.0143 952.265 455.418
377 0 52.0279 10.3406 538 65.2937 951.885 455.34
378 0 55.2092 12.6247 697 62.4505 951.822 454.766
379 0 57.0794 11.1424 636 64.3616 951.569 455.016
380 0 58.0781 12.5693 730 63.2452 951.848 453.955
381 0 61.1989 11.7322 718 63.8607 951.535 452.088
382 0 62.1673 11.646 724 64.4171 951.421 452.037
383 0 66.1522 11.8666 785 63.5924 951.688 452.394
384 0 65.1643 10.7881 703 65.7496 951.647 451.036
385 0 69.2053 11.9355 826 64.0048 951.846 445.881
386 0 70.1734 11.5998 814 64.602 951.475 448.203
387 0 73.1311 10.6658 780 65.8423 951.677 446.11
388 0 75.1939 10.3067 775 65.56 951.63 445.683
389 0 79.1926 11.0743 877 64.8027 951.08 442.042
390 0 81.247 11.6558 947 64.3115 951.52 440.909
391 0 84.3003 11.376 959 64.5349 951.26 439.15
392 1 44.2306 9.69916 429 62.7249 951.639 459.727
393 0 45.1443 9.74651 440 62.9318 951.57 459.889
394 0 49.1583 10.4764 515 61.2718 951.412 459.513
395 0 48.1607 10.1327 488 61.2766 952.148 460.18
396 0 50.0681 10.7454 538 60.6989 952.333 459.76
397 0 52.0985 12.5531 654 59.2064 952.81 459.463
398 0 51.1259 8.76268 448 64.2924 953.132 459.46
399 0 54.0865 12.7943 692 59.5607 952.936 455.908
400 0 57.1432 10.8499 620 61.3242 952.392 457.716
401 0 58.1513 11.2637 655 61.0901 952.823 454.829
402 0 59.0518 11.6339 687 61.3479 952.454 453.796
403 0 62.0641 10.8597 674 61.7997 952.138 455.577
404 0 63.1298 10.819 683 62.2709 952.315 451.328
405 0 65.0525 11.5753 753 61.5657 951.742 450.039
406 0 69.1244 10.3292 714 62.5224 951.71 450.569
407 0 71.0992 12.5037 889 59.6625 952.189 449.021
408 0 72.0865 12.6653 913 59.5049 951.469 448.917
409 0 75.1333 11.1269 836 61.2057 951.728 446.768
410 0 77.0967 10.5193 811 62.2133 952.277 446.572
411 0 81.1434 12.3732 1004 59.8715 952.574 444.514
412 0 84.0976 11.7601 989 60.82 952.271 443.774
413 0 87.1071 11.4112 994 60.9356 951.854 444.546
414 1 46.0549 9.09783 419 60.9451 951.313 463.964
415 0 49.0794 9.61706 472 59.8941 951.557 463.038
416 0 48.1237 10.7224 516 59.564 952.194 461.444
417 0 50.0802 9.44485 473 61.63 952.266 461.315
418 0 49.051 9.17412 450 62.0756 952.876 455.713
419 0 53.0708 10.8534 576 60.0017 951.835 457.161
420 0 55.119 11.1032 612 59.3873 952.379 457.003
421 0 56.046 10.3843 582 60.311 952.521 457.931
422 0 59.1463 11.6153 687 58.984 952.096 455.902
423 0 61.055 11.3341 692 59.5448 951.829 454.516
424 0 62.0476 10.4114 646 60.1981 952.093 455.132
425 0 64.0741 12.3295 790 57.8911 951.966 454.222
426 0 66.0492 10.2651 678 60.0575 952.156 451.751
427 0 68.0489 11.6681 794 58.7254 952.571 449.277
428 0 71.0456 12.302 874 57.532 952.025 450.352
429 0 74.0833 12.432 921 57.0923 952.413 450.704
430 0 76.1041 11.4449 871 57.9656 952.168 449.208
431 0 78.1803 10.6804 835 58.6084 951.778 445.504
432 0 80.1092 11.1972 897 58.1494 951.691 442.924
433 0 82.1296 8.86404 728 60.0646 951.364 443.9
434 0 86.0749 10.305 887 58.2334 951.256 442.986
435 1 42.043 9.89462 416 56.3293 950.981 462.413
436 0 43.0424 9.01438 388 57.0876 951.093 462.851
437 0 46.0588 9.29247 428 55.9883 951.315 464.199
438 0 48.0889 10.0855 485 55.8082 951.46 460.48
439 0 48.0791 9.85875 474 56.1477 951.027 461.365
440 0 52.058 10.2962 536 55.8414 951.521 459.276
441 0 52.1622 10.2181 533 56.1651 951.795 459.176
442 0 53.1095 8.30359 441 58.1338 951.848 458.934
443 0 56.0314 8.81649 494 56.9899 951.84 459.014
444 0 55.0813 9.00487 496 58.0444 951.857 457.206
445 0 60.0883 11.2002 673 55.0996 951.649 457.244
446 0 59.0874 8.83437 522 58.4598 951.636 456.05
447 0 62.1266 10.7522 668 56.4731 951.826 455.278
448 0 63.06 9.43546 595 58.5899 951.536 452.766
449 0 66.1613 11.6987 774 56.1189 951.288 451.158
450 0 67.1102 11.7568 789 56.3194 951.492 451.169
451 0 70.0445 10.8074 757 57.1229 951.653 448.061
452 0 71.1473 11.7503 836 56.3457 951.429 448.916
453 0 73.1182 10.7497 786 57.2964 951.667 449.613
454 0 76.1632 12.0137 915 55.8087 951.791 446.336
455 0 77.0727 10.6004 817 57.2313 951.747 443.636
456 0 80.1086 10.5731 847 57.5502 950.9 444.091
457 0 84.0791 10.6447 895 56.8581 951.218 443.457
458 0 83.0764 9.91859 824 58.2549 950.572 440.794
459 0 87.1079 9.84986 858 58.296 950.401 438.808
460 0 91.1475 10.4666 954 57.6048 950.76 440.893
461 1 47.0269 10.7811 507 55.6213 951.03 459.842
462 0 49.1031 9.14403 449 57.078 950.909 459.668
463 0 50.0917 9.06338 454 57.489 951.326 458.407
464 0 51.0933 11.0974 567 56.0123 951.15 459.566
465 0 55.0866 8.94954 493 58.0061 951.164 456.485
466 0 56.1215 10.5129 590 57.1847 951.717 457.178
467 0 59.0352 11.383 672 56 951.275 459.926
468 0 58.1671 10.7793 627 57.7974 951.722 454.732
469 0 62.0547 10.1201 628 58.449 951.712 454.963
470 0 64.0814 10.237 656 58.125 951.424 456.399
471 0 67.1991 9.56858 643 58.8834 951.79 455.639
472 0 68.0931 11.1318 758 57.9868 951.731 452.57
473 0 69.1158 11.7484 812 57.5074 951.496 450.078
474 0 71.0993 11.3503 807 57.9467 951.133 452.622
475 0 77.0804 12.5194 965 55.9927 950.709 451.087
476 0 78.0968 11.1272 869 58.5604 951.23 449.394
477 0 79.2194 11.6638 924 58.2814 950.754 447.264
478 0 80.1146 11.4835 920 59.3261 950.389 446.383
479 0 85.1162 16.5656 1410 53.5064 950.565 447.115
480 0 88.1501 13.7152 1209 56.2076 950.979 446.024
481 0 88.1428 13.0583 1151 57.7046 950.394 441.41
482 0 91.4454 11.6572 1066 59.7889 950.641 442.145
483 0 94.3166 11.9279 1125 59.9902 950.899 440.975
484 0 97.2114 11.2024 1089 60.854 951.112 439.036
485 1 47.0582 10.1576 478 60.0293 950.849 463.033
486 0 49.0221 7.44562 365 62.4959 951.762 463.699
487 0 51.0296 11.1504 569 58.5026 951.167 462.924
488 0 51.0127 9.84069 502 61.1195 951.61 459.869
489 0 55.1016 10.2356 564 59.6667 951.418 461.736
490 0 55.0582 11.9328 657 58.8234 951.756 459.746
491 0 58.1175 13.7136 797 56.6173 951.602 457.967
492 0 60.0844 10.8847 654 59.7752 951.575 456.547
493 0 64.0594 11.3332 726 58.7686 951.58 457.613
494 0 64.1085 10.9502 702 59.7407 951.594 455.135
495 0 64.0757 12.5008 801 58.8727 951.072 452.245
496 0 66.1156 10.7236 709 60.3512 951.138 454.399
497 0 71.1112 13.725 976 56.7664 951.074 452.407
498 0 72.0932 12.6225 910 58.6681 951.398 450.211
499 0 70.0489 11.0922 777 61.2677 951.169 450.461
500 0 75.177 11.4663 862 60.2204 951.121 450.712
501 0 77.0526 12.6537 975 59.7118 950.776 445.796
502 0 80.1452 13.6502 1094 58.5293 951.291 449.404
503 0 82.1164 11.301 928 61.5366 951.116 446.733
504 0 84.1669 11.8693 999 61.7307 950.675 444.359
505 1 44.034 10.8553 478 59.9979 950.232 464.404
506 0 46.0904 10.8265 499 59.1242 950.491 465.21
507 0 45.1097 9.02245 407 62.0418 950.698 465.012
508 0 47.0428 11.4151 537 60.5326 950.847 463.479
509 0 48.0381 10.0753 484 62.5909 950.961 461.727
510 0 50.0352 12.4113 621 60.0644 950.725 462.116
511 0 53.0299 12.4835 662 59.4335 950.825 461.766
512 0 53.0532 10.8382 575 61.6191 951.059 460.569
513 0 56.0624 13.2352 742 58.2911 950.276 460.821
514 0 55.0653 11.3683 626 62.0112 950.24 458.056
515 0 60.052 12.8888 774 59.2842 950.357 458.159
516 0 62.0405 12.508 776 60.6675 950.558 456.174
517 0 63.0824 12.7452 804 61.8557 950.3 453.72
518 0 65.1105 11.7493 765 63.0458 951.125 454.418
519 0 63.0431 10.5008 662 65.4441 951.284 451.779
520 0 67.0778 11.0171 739 64.3748 951.095 452.437
521 0 71.042 13.0064 924 61.7186 951.141 450.175
522 0 73.0713 11.8378 865 63.4705 950.859 448.531
523 0 73.0545 11.4435 836 64.6328 950.788 448.579
524 0 80.0808 14.0483 1125 60.2649 949.598 445.5
525 0 80.1271 12.4303 996 62.6074 949.103 444.676
526 1 41.0562 10.2299 420 61.8024 949.264 464.979
527 0 41.0571 10.1809 418 61.8971 949.766 465.177
528 0 43.0721 10.0065 431 61.5777 949.223 465.636
529 0 45.085 11.7112 528 60.2064 949.438 463.398
530 0 46.0283 12.7965 589 59.343 950.109 460.591
531 0 50.1278 12.0293 603 59.3118 950.015 462.993
532 0 50.0747 10.9437 548 62.1697 950.786 460.58
533 0 50.0369 9.01335 451 64.5588 950.716 461.268
534 0 53.1418 11.8551 630 61.0841 950.886 460.506
535 0 54.0619 11.1354 602 62.2076 951.047 459.952
536 0 55.0709 11.2401 619 62.2036 950.719 458.727
537 0 58.0803 11.949 694 61.5504 951.039 458.206
538 0 59.0984 10.8294 640 63.0078 950.511 456.681
539 0 61.0337 10.8465 662 63.8021 950.449 453.986
540 0 62.1335 11.1373 692 63.2991 950.279 453.329
541 0 65.1267 11.8538 772 62.522 950.065 451.525
542 0 68.113 11.1433 759 63.1265 949.565 450.544
543 0 69.0775 11.2338 776 63.4137 949.688 450.014
544 0 72.0509 12.9353 932 61.6427 949.818 447.845
545 0 75.0758 12.1211 910 62.2978 949.682 448.153
546 0 77.159 11.4957 887 63.7227 950.098 445.123
547 0 79.0517 11.6506 921 64.1889 950.156 442.203
548 1 41.0292 10.261 421 61.3848 950.273 465.995
549 0 41.0471 10.0373 412 63.284 949.93 463.473
550 0 46.0845 11.5223 531 60.629 950.998 461.989
551 0 45.0765 8.89599 401 64.0873 950.367 462.299
552 0 47.0406 12.5849 592 60.3868 950.292 460.688
553 0 49.0575 11.1298 546 62.4231 950.709 460
554 0 50.1672 10.0265 503 63.9165 951.133 458.203
555 0 50.0661 10.0268 502 64.4721 950.155 458.303
556 0 55.1623 12.0191 663 60.7843 950.198 457.94
557 0 55.0217 11.3592 625 63.0704 950.472 454.512
558 0 58.0622 9.86872 573 64.0349 950.204 456.752
559 0 61.1639 13.3085 814 60.1032 950.413 454.091
560 0 61.1961 12.6315 773 61.4631 950.821 452.92
561 0 64.033 11.9001 762 61.9042 950.591 453.776
562 0 66.0543 12.1718 804 62.7326 950.754 450.121
563 0 67.1012 12.1756 817 62.9792 950.645 450.119
564 0 69.0365 10.3279 713 64.9453 950.698 449.844
565 0 72.1839 11.0551 798 63.9248 950.504 449.382
566 0 72.0771 10.4749 755 64.9338 950.213 449.46
567 0 75.0604 12.1769 914 63.3042 950.732 447.793
568 1 40.005 12.5734 503 59.5586 950.636 466.05
569 0 40.014 10.8212 433 62.1501 949.933 465.961
570 0 43.0165 12.0884 520 60.1923 950.15 463.763
571 0 43.0302 8.57537 369 64.4932 950.011 464.081
572 0 44.1335 11.0347 487 62.1848 949.887 462.398
573 0 46.1195 10.6029 489 62.4888 949.689 461.994
574 0 50.0326 10.693 535 62.5439 949.381 460.852
575 0 50.073 11.5232 577 62.4315 950.061 459.69
576 0 53.0453 11.9897 636 62.0975 949.178 458.629
577 0 53.0518 12.0825 641 61.8003 949.365 458.922
578 0 53.0795 11.756 624 63.1587 949.817 458.75
579 0 56.0617 10.8274 607 64.1301 949.672 456.862
580 0 55.0652 10.5511 581 65.3305 949.728 457.103
581 0 59.106 10.9464 647 64.4513 949.496 456.19
582 0 62.0627 12.3585 767 62.7432 950.185 454.752
583 0 64.0531 11.4592 734 63.6689 950.191 455.435
584 0 64.0682 10.3483 663 65.8778 950.472 452.938
585 0 67.0437 11.7088 785 63.3809 950.687 453.741
586 0 70.1091 12.0241 843 63.4448 950.705 447.702
587 0 69.1328 11.4996 795 64.644 950.491 449.511
588 0 73.1152 12.0905 884 62.9038 950.656 450.529
589 0 76.1421 10.7168 816 64.1838 950.468 449.419
590 1 40.0505 10.0123 401 60.8603 950.815 465.494
591 0 38.0356 9.14931 348 63.3534 951.069 464.828
592 0 42.0792 10.1475 427 61.0468 950.74 465.637
593 0 44.0992 9.84146 434 61.6498 950.71 463.221
594 0 45.1335 9.26142 418 62.2751 951.33 461.919
595 0 47.0334 11.5025 541 58.8835 950.743 462.277
596 0 49.051 10.6828 524 59.8588 950.813 459.135
597 0 49.0368 11.3384 556 59.3489 950.565 458.676
598 0 51.0676 9.43847 482 61.5913 950.745 457.985
599 0 55.033 10.3756 571 59.8897 950.462 457.937
600 0 57.0866 11.9468 682 58.522 950.672 456.711
601 0 56.0871 11.9457 670 59.3015 950.927 455.578
602 0 57.053 11.13 635 60.726 950.65 452.915
603 0 59.0575 12.1915 720 58.7819 950.199 454.528
604 0 60.0445 9.443 567 62.4056 951.325 453.623
605 0 61.1765 10.6577 652 60.7101 950.14 452.393
606 0 60.15 10.3741 624 118.713 949.163 451.554
607 0 66.1184 10.9349 723 60.852 950.703 450.632
608 0 69.178 11.0873 767 61.1786 950.168 446.987
609 0 71.3236 11.1464 795 60.7874 950.165 446.25
610 0 73.0434 10.8018 789 60.9797 950.098 448.921
611 0 76.0714 10.661 811 61.5968 950.1 443.467
612 0 78.0616 10.7863 842 61.7933 950.746 443.601
613 0 80.0678 12.4145 994 59.9698 950.129 443.846
614 0 82.1832 9.58833 788 63.4201 950.005 444.622
615 1 44.0703 9.87058 435 61.2299 950.145 462.52
616 0 45.0408 11.0788 499 61.3307 949.964 461.95
617 0 46.083 9.22249 425 62.9835 949.936 461.802
618 0 48.0795 10.1915 490 62.1857 950.286 459.712
619 0 50.0784 10.5634 529 62.0397 950.35 459.764
620 0 53.0545 10.6117 563 61.508 949.792 458.732
621 0 53.0506 11.4042 605 61.2364 949.851 456.74
622 0 55.1187 10.2869 567 62.2945 949.951 458.81
623 0 55.0848 11.328 624 62.8622 950.421 453.056
624 0 58.1305 10.098 587 64.0647 950.465 453.668
625 0 62.1009 11.1271 691 62.042 950.54 454.052
626 0 64.2054 11.1206 714 62.0896 950.165 453.064
627 0 66.2033 12.084 800 61.1325 950.211 450.93
628 0 65.0621 9.57547 623 64.7448 950.055 450.586
629 0 70.1346 11.8914 834 61.6631 950.511 449.934
630 0 73.1427 13.1934 965 60.0591 950.205 447.045
631 0 75.1438 14.6253 1099 58.5232 950.259 446.933
632 0 76.2189 12.0443 918 61.7647 949.671 445.261
633 1 39.0746 8.93163 349 60.9742 949.84 466.358
634 0 42.0822 9.31511 392 60.2959 949.796 465.23
635 0 44.0805 12.0235 530 57.3604 949.881 464.834
636 0 45.097 12.1959 550 57.5764 950.273 463.347
637 0 47.07 11.5148 542 58.5129 949.825 461.659
638 0 47.1126 13.0326 614 57.5456 950.107 460.059
639 0 47.0794 10.769 507 60.1953 950.047 461.241
640 0 50.0884 11.6793 585 59.2325 950.328 458.716
641 0 49.097 11.1819 549 60.5264 950.302 458.971
642 0 51.0381 11.1485 569 60.1388 950.241 459.543
643 0 55.0463 11.9899 660 58.9364 950.008 457.95
644 0 55.0205 12.6317 695 58.2633 949.925 458.994
645 0 57.1162 10.4699 598 60.7408 949.639 458.547
646 0 60.1495 13.1173 789 57.9214 950.08 455.561
647 0 59.0488 12.7522 753 59.1155 950.778 455.161
648 0 63.0615 12.5275 790 59.0494 950.495 454.175
649 0 65.0449 13.5445 881 58.0829 950.569 454.171
650 0 66.0717 11.427 755 61.1152 950.523 452.453
651 0 68.1249 12.7853 871 59.527 950.544 453.424
652 0 70.0472 12.877 902 60.2705 949.787 449.943
653 0 73.1272 14.3175 1047 58.1156 950.002 449.822
654 0 75.0698 13.1744 989 59.7816 950.65 450.076
655 0 77.1171 13.8361 1067 59.4077 949.947 448.176
656 0 80.1344 13.4399 1077 60.2841 950.246 447.136
657 0 83.2073 13.905 1157 60.0882 949.895 445.195
658 1 40.0626 11.2075 449 60.6659 950.156 465.158
659 0 39.0945 10.692 418 62.1794 949.533 464.49
660 0 43.0212 11.1805 481 61.6383 948.923 463.445
661 0 44.0629 12.9588 571 60.3783 949.301 461.061
662 0 45.0468 12.3427 556 61.5899 949.023 461.712
663 0 46.0413 11.4897 529 63.2042 949.11 460.147
664 0 43.0578 10.1259 436 66.4954 949.397 459.963
665 0 48.0521 13.2356 636 61.7626 949.3 459.656
666 0 50.072 11.8429 593 63.4924 949.727 460.626
667 0 52.0646 13.5217 704 60.7926 950.239 460.663
668 0 51.0318 10.758 549 65.6412 950.153 458.659
669 0 52.1051 11.6303 606 64.2228 949.642 459.198
670 0 54.0713 12.391 670 63.2358 949.622 453.722
671 0 57.0326 11.3444 647 63.5147 949.893 456.406
672 0 58.1218 11.6308 676 63.1953 949.93 456.033
673 0 59.1041 12.0127 710 63.069 949.839 452.446
674 0 63.0595 11.3544 716 63.1383 949.965 453.707
675 0 63.1376 11.6412 735 63.4163 950.201 448.192
676 0 65.117 11.1031 723 63.6432 950.429 450.299
677 0 67.0591 11.3482 761 63.6045 950.268 449.018
678 1 38.0337 11.7527 447 59.4541 949.622 465.727
679 0 38.0664 9.90375 377 61.4721 949.82 465.735
680 0 40.0984 9.30211 373 62.7239 949.826 465.091
681 0 41.0892 8.51806 350 63.0943 949.637 464.097
682 0 42.1721 11.951 504 59.8532 950.258 461.73
683 0 42.0647 10.1035 425 62.1506 949.765 462.828
684 0 45.0524 9.67761 436 63.3326 950.706 461.243
685 0 48.1102 11.8894 572 60.6801 950.36 460.114
686 0 50.0958 12.4561 624 59.9022 950.019 458.601
687 0 49.0678 10.3938 510 63.1196 949.908 459.261
688 0 52.0457 11.2209 584 61.8836 949.774 457.586
689 0 53.1974 11.2975 601 62.3411 949.988 457.273
690 0 54.0616 12.7262 688 61.0247 949.862 454.699
691 0 56.0383 11.849 664 61.7349 949.788 454.792
692 0 57.0427 10.9918 627 63.3844 949.866 454.802
693 0 59.0841 11.7121 692 62.354 949.679 452.247
694 0 60.0422 9.79311 588 64.7517 949.716 451.554
695 0 61.0878 10.1984 623 64.2616 950.225 452.624
696 0 66.2597 11.6511 772 61.9845 950.588 449.468
697 0 64.0585 11.6768 748 62.3396 950.318 450.201
698 0 66.1285 9.60251 635 65.4457 950.701 448.472
699 0 71.0519 10.9357 777 63.5933 950.591 446.727
700 0 68.0729 10.239 697 65.5524 949.835 444.469
701 0 74.0718 11.2458 833 63.6531 949.555 445.785
702 0 76.0481 10.7564 818 65.2714 949.067 444.502
703 1 35.0912 7.35227 258 66.1628 949.705 465.039
704 0 38.0579 9.90597 377 63.2334 949.446 464.082
705 0 38.0651 10.0354 382 63.589 949.62 463.767
706 0 40.0961 10.1506 407 63.4668 949.877 463.157
707 0 41.0426 10.1358 416 63.8606 950.188 461.089
708 0 40.0453 9.2645 371 65.6092 950.461 460.372
709 0 45.0468 10.7666 485 63.0598 950.474 459.34
710 0 45.0263 9.83869 443 64.1738 950.427 459.995
711 0 47.0416 11.7343 552 60.5453 951.004 457.123
712 0 49.0575 11.191 549 61.0929 950.862 457.787
713 0 50.0242 11.1546 558 61.3136 951.783 455.387
714 0 52.0519 11.4117 594 60.7946 951.286 456.178
715 0 53.0339 10.3519 549 61.7067 951.184 456.663
716 0 53.0258 10.9004 578 61.6419 951.37 453.173
717 0 57.0331 11.6073 662 59.5589 950.563 454.973
718 0 59.0544 12.7679 754 58.5902 950.495 451.407
719 0 60.2706 12.4107 748 59.0414 949.902 452.905
720 0 61.0642 11.9383 729 60.2483 949.971 449.119
721 0 62.07 11.5998 720 60.5556 950.753 448.772
722 0 66.1054 11.2699 745 60.3074 950.256 448.447
723 0 69.0824 12.116 837 59.0251 950.498 449.422
724 0 70.0809 13.2704 930 58.2108 950.699 448.783
725 0 71.0666 11.0882 788 61.3794 949.958 443.272
726 0 77.2006 12.8885 995 58.605 950.382 445.855
727 0 78.2461 11.8217 925 60.1903 950.368 444.471
728 1 38.0691 10.1395 386 59.5674 949.474 463.697
729 0 38.1044 8.55544 326 62.5092 949.669 462.291
730 0 40.0438 10.8132 433 59.5427 949.824 460.727
731 0 41.0108 9.77791 401 61.1546 949.324 461.87
732 0 43.0493 12.5205 539 57.9666 949.564 459.499
733 0 44.0704 9.71172 428 61.8224 950.285 460.297
734 0 46.0469 10.9671 505 60.5842 950.723 458.226
735 0 47.0609 12.5157 589 59.2156 950.61 457.698
736 0 46.0589 10.3129 475 62.1853 950.726 457.455
737 0 50.089 9.00397 451 62.255 951.071 459.39
738 0 50.0842 10.8817 545 61.1266 950.783 456.736
739 0 54.1306 11.3429 614 59.9365 951.072 455.296
740 0 55.0643 12.3129 678 59.6873 951.147 452.981
741 0 56.104 11.55 648 60.4506 951.131 454.358
742 0 58.0544 11.4203 663 60.6938 951.421 451.71
743 0 59.1031 10.727 634 61.4795 951.636 452.934
744 0 63.0985 12.0922 763 59.5098 951.476 450.515
745 0 64.0351 11.6655 747 60.5355 951.776 450.996
746 0 66.0942 10.5002 694 61.8112 951.46 448.847
747 0 67.224 10.5766 711 62.1828 951.568 447.301
748 0 71.2892 11.6988 834 60.3046 951.819 447.427
749 0 74.0456 12.4383 921 59.6069 951.38 445.958
750 0 75.1316 11.939 897 60.5452 951.065 445.371
751 0 79.1306 11.9296 944 60.5805 951.081 442.681
752 0 79.0968 9.7602 772 63.6036 951.705 441.166
753 0 83.1058 11.6959 972 61.323 951.429 439.35
754 1 44.1509 11.0756 489 59.6135 950.959 459.965
755 0 44.0574 10.8949 480 60.6542 950.767 459.354
756 0 47.1134 10.8249 510 59.6882 950.773 459.3
757 0 47.1061 9.10709 429 61.1002 951.072 460.86
758 0 48.0768 11.336 545 59.4697 950.921 458.908
759 0 48.0934 10.6044 510 60.4588 951.225 457.247
760 0 52.0713 12.3484 643 58.381 951.37 455.935
761 0 55.1481 13.2915 733 56.5825 951.664 455.673
762 0 54.1409 11.8025 639 58.8873 951.023 456.2
763 0 55.2418 12.563 694 57.0735 950.646 454.853
764 0 58.0636 14.4497 839 54.4267 950.246 455.194
765 0 57.1356 11.989 685 58.0058 950.298 455.029
766 0 59.0906 13.1662 778 57.099 951.096 453.495
767 0 62.0793 11.8075 733 57.543 951.216 453.362
768 0 63.0567 11.3866 718 58.7075 950.964 451.641
769 0 64.1351 12.9882 833 57.024 950.621 450.532
770 0 67.1639 11.6878 785 58.535 951.005 448.102
771 0 67.1255 11.6796 784 58.8278 950.753 447.686
772 0 69.1304 12.7585 882 57.9161 950.385 446.567
773 0 73.1285 12.3345 902 57.9379 949.841 448.072
774 0 73.195 11.3806 833 59.5786 950.328 447.887
775 0 78.1726 12.5364 980 57.5592 950.861 449.599
776 1 40.0854 11.7749 472 58.4852 950.36 461.854
777 0 40.0528 8.93819 358 61.3184 949.964 463.631
778 0 44.0321 13.6264 600 55.705 950.318 464.395
779 0 44.0816 11.025 486 59.1872 950.854 462.539
780 0 45.0816 10.7139 483 60.1636 951.122 460.828
781 0 49.0258 13.3195 653 56.8392 951.02 458.812
782 0 50.0702 12.802 641 58.0577 950.573 458.373
783 0 50.101 11.2173 562 60.3968 950.413 457.97
784 0 53.0749 15.5441 825 55.1891 950.44 458.161
785 0 56.0739 14.1599 794 56.17 950.418 457.8
786 0 55.0873 14.1412 779 57.0449 949.95 457.055
787 0 57.0373 12.2376 698 59.5931 950.132 453.741
788 0 58.0585 13.6759 794 58.4194 949.753 451.826
789 0 58.051 11.4038 662 61.5106 950.192 453.453
790 0 62.0711 12.5985 782 58.9297 950.199 453.65
791 0 63.0721 13.7145 865 57.7329 949.695 452.637
792 0 65.0817 13.8595 902 58.2428 949.621 448.279
793 0 66.0931 11.9528 790 60.2772 949.554 450.734
794 0 70.1501 12.3307 865 59.3445 950.286 450.647
795 0 73.1341 13.0856 957 59.3751 950.09 447.166
796 0 76.0914 13.2472 1008 59.4058 950.468 446.738
797 0 80.0485 13.6043 1089 58.7851 950.726 444.863
798 0 81.0688 12.6683 1027 60.4411 950.008 443.508
799 0 84.1463 12.8586 1082 59.9769 950.85 443.675
800 0 87.0713 13.2535 1154 59.8111 951.028 443.789
801 0 91.169 13.2172 1205 60.0822 950.838 441.971
802 0 92.1829 13.6576 1259 60.4766 950.858 438.621
803 0 94.0983 12.6251 1188 61.7138 950.715 439.363
804 0 99.1272 12.832 1272 61.7217 950.364 434.362
805 0 105.153 13.6183 1432 60.3596 949.803 433.836
806 0 106.206 14.858 1578 58.7763 949.975 435.004
807 0 110.055 12.6573 1393 61.7365 950.564 432.424
808 1 57.0363 10.73 612 61.7533 950.706 454.905
809 0 60.1232 13.2395 796 58.7927 951.008 456.927
810 0 60.0901 11.7657 707 61.8105 950.747 453.571
811 0 63.1087 12.3438 779 61.6996 950.615 452.619
812 0 67.194 13.3792 899 60.1301 950.373 451.408
813 0 67.1095 11.5781 777 62.9151 950.152 450.795
814 0 69.0441 11.3261 782 62.798 950.756 450.93
815 0 74.1026 14.21 1053 59.4046 950.38 446.437
816 0 74.158 11.5025 853 62.864 950.388 448.28
817 0 80.1846 14.0301 1125 59.3929 950.431 446.372
818 0 82.2064 13.4904 1109 60.3003 950.558 445.442
819 0 86.1986 13.3297 1149 60.611 950.619 444.869
820 0 85.1596 12.5177 1066 62.8199 950.829 440.762
821 0 90.1487 13.2337 1193 61.9338 950.891 441.946
822 0 92.0816 12.7061 1170 63.2641 950.841 440.604
823 1 48.1147 11.2024 539 64.0111 950.625 460.002
824 0 52.0237 14.1282 735 60.2395 951.029 458.584
825 0 51.064 10.6141 542 64.9391 950.522 459.961
826 0 55.0332 13.4282 739 61.8755 950.935 454.984
827 0 58.0527 12.6437 734 62.8229 950.519 456.605
828 0 61.0621 14.0513 858 60.7145 950.351 454.777
829 0 60.0736 11.6357 699 64.4478 950.458 454.233
830 0 62.1396 12.1501 755 64.1907 951.49 453.246
831 0 66.1249 13.5804 898 62.2372 951.42 452.304
832 0 66.1266 12.9146 854 63.8232 951.07 450.156
833 0 70.067 12.2454 858 63.5105 951.297 451.855
834 0 71.0809 11.6909 831 64.9868 951.205 449.243
835 0 74.0968 13.199 978 63.1973 950.711 448.409
836 0 78.0651 12.9379 1010 63.7644 950.602 444.926
837 0 81.0888 12.3568 1002 64.1477 950.215 444.594
838 1 42.0981 10.333 435 64.0943 950.846 464.025
839 0 42.0857 9.2668 390 66.2231 950.551 462.038
840 0 47.0365 12.3734 582 61.7474 950.734 460.789
841 0 50.052 11.6878 585 62.7675 950.832 459.485
842 0 50.0439 11.0703 554 65.0199 950.41 458.042
843 0 51.0804 10.5716 540 65.2204 950.215 458.046
844 0 53.081 9.75867 518 66.2606 950.027 457.394
845 0 59.0541 12.2938 726 62.5275 950.46 457.135
846 0 55.1005 11.7603 648 64.7022 950.892 453.765
847 0 61.0914 11.6219 710 64.1394 950.493 454.568
848 0 62.1296 12.6993 789 62.9113 950.161 452.028
849 0 62.035 11.9126 739 64.5995 950.871 449.261
850 0 65.0619 11.6812 760 64.5895 950.576 448.482
851 0 68.121 12.2282 833 63.922 950.14 449.798
852 0 69.0693 11.4667 792 65.2311 950.503 446.936
853 0 71.0614 11.0609 786 65.2888 951.056 445.808
854 0 76.0526 13.5564 1031 62.2017 950.807 444.629
855 0 79.0595 12.8511 1016 63.3681 951.12 443.832
856 1 44.0987 10.4992 463 61.5486 950.879 465.078
857 0 46.0377 10.9041 502 61.7012 951.074 462.028
858 0 47.0456 11.0531 520 62.1192 950.681 460.387
859 0 47.0948 9.85247 464 63.7672 951.129 459.765
860 0 49.0627 10.8025 530 62.0113 951.415 460.143
861 0 51.0584 11.1441 569 61.7469 951.207 457.033
862 0 51.0598 11.9664 611 61.5499 951.286 456.134
863 0 53.1161 11.4654 609 62.1215 950.319 454.856
864 0 55.0214 12.4497 685 61.2818 950.711 455.854
865 0 56.1478 10.223 574 63.1463 951.289 455.608
866 0 57.1289 10.065 575 64.3826 951.157 452.59
867 0 59.1503 10.8199 640 63.1922 950.453 453.406
868 0 63.1377 12.8608 812 60.665 950.677 449.938
869 0 64.1366 11.5535 741 62.9325 950.715 450.109
870 0 69.0729 14.9263 1031 57.7139 950.832 450.986
871 0 69.1233 11.805 816 62.5674 950.684 447.5
872 0 70.1207 10.7529 754 64.6021 950.405 445.646
873 0 75.075 11.9747 899 62.6796 950.776 445.376
874 0 78.1156 11.675 912 63.1601 950.62 443.603
875 0 80.0574 11.092 888 64.6655 950.352 440.516
876 1 37.016 8.50984 315 63.8349 950.076 464.06
877 0 43.0363 11.1302 479 60.5219 950.305 461.132
878 0 43.0913 10.8839 469 61.0554 950.136 461.527
879 0 44.0515 9.33 411 63.0341 950.285 461.934
880 0 46.0808 11.6535 537 60.365 950.698 459.637
881 0 48.0519 10.3222 496 62.7278 950.548 458.532
882 0 48.0767 11.3569 546 61.9945 950.976 454.756
883 0 51.1054 11.9165 609 61.1938 950.767 458.401
884 0 51.1419 10.6566 545 63.0972 951.143 458.516
885 0 52.0457 11.682 608 62.2566 951.033 457.431
886 0 56.057 13.076 733 59.6057 950.461 457.738
887 0 56.1624 10.5765 594 63.8704 950.741 456.029
888 0 58.0852 11.3454 659 62.3642 950.53 454.936
889 0 60.0338 11.2603 676 63.5666 950.982 452.383
890 0 61.0517 11.0562 675 63.7644 950.753 453.215
891 0 65.1156 11.9941 781 62.4699 951.17 452.165
892 0 67.0458 12.126 813 62.1685 950.685 449.205
893 0 67.146 12.0335 808 62.4158 951.358 446.983
894 0 72.062 11.9342 860 61.6512 951.35 447.874
895 0 74.0494 11.2222 831 62.207 950.895 447.383
896 0 75.0696 11.7624 883 62.2911 951.191 445.24
897 1 37.0098 7.91682 293 64.2935 950.765 464.935
898 0 39.0213 9.30262 363 63.1405 951.281 463.176
899 0 42.0278 10.4217 438 60.7397 951.288 461.721
900 0 42.0302 12.3721 520 58.6654 950.785 460.942
901 0 43.0185 10.9255 470 60.0915 951.081 461.9
902 0 45.145 10.4552 472 60.0318 951.22 460.966
903 0 46.047 11.4014 525 59.0514 951.528 461.49
904 0 49.0441 11.7853 578 58.8131 950.855 458.393
905 0 51.0493 12.2822 627 57.7576 950.855 457.837
906 0 52.0583 12.486 650 57.3015 950.792 456.191
907 0 52.0508 11.508 599 58.6461 950.654 457.574
908 0 56.034 12.4032 695 57.2676 950.24 456.518
909 0 56.1216 11.3325 636 58.5597 951.02 455.011
910 0 56.2194 10.6013 596 59.9916 951.122 451.159
911 0 61.0729 11.3307 692 59.2558 951.064 452.28
912 0 59.0672 9.22678 545 61.8936 951.097 453.062
913 0 64.0247 10.4803 671 59.6513 951.079 452.478
914 0 66.131 12.3089 814 58.0233 950.984 449.236
915 0 68.1146 11.5834 789 59.294 950.188 448.883
916 0 71.1515 12.4101 883 58.1891 950.049 446.666
917 1 36.0306 9.90824 357 59.6835 949.849 463.148
918 0 38.0444 9.77806 372 59.6694 950.465 462.228
919 0 40.0358 11.6646 467 57.9615 950.069 461.158
920 0 39.053 10.5498 412 59.8277 949.587 460.015
921 0 42.027 10.3267 434 59.7166 950.237 460.896
922 0 45.0683 12.1371 547 57.5759 949.894 457.684
923 0 45.0355 12.368 557 57.0539 950.113 459.417
924 0 49.0306 12.8899 632 56.2801 950.345 457.65
925 0 49.0295 11.0954 544 59.1379 950.55 457.54
926 0 50.162 11.0243 553 58.6275 950.217 456.099
927 0 51.0261 10.622 542 59.6642 949.67 456.446
928 0 54.045 11.1019 600 58.455 950.028 457.4
929 0 55.0109 11.525 634 57.9953 949.899 455.227
930 0 58.0453 12.6281 733 57.0791 949.559 453.759
931 0 59.0975 12.6232 746 57.382 949.922 452.29
932 0 61.1017 10.1798 622 59.8441 949.905 453.76
933 0 61.0756 10.2332 625 60.8928 950.245 452.182
934 0 66.1472 11.4442 757 58.782 949.997 450.037
935 0 68.0242 11.8487 806 58.7841 950.001 447.947
936 0 69.1454 11.8157 817 59.1824 949.69 446.528
937 0 71.0668 12.5234 890 58.2764 949.66 445.982
938 0 73.104 10.615 776 60.6044 949.524 447.232
939 0 76.0473 12.2687 933 58.3473 949.491 445.364
940 0 79.1289 15.3041 1211 55.4104 949.8 442.692
941 0 80.1148 10.9343 876 59.8893 949.518 441.67
942 0 84.1411 12.6573 1065 58.0742 949.758 437.072
943 0 88.0599 13.2864 1170 56.9496 949.327 439.991
944 0 88.1507 10.8904 960 59.7885 949.49 434.706
945 0 93.2026 12.2314 1140 58.0623 949.748 434.258
946 0 98.1396 13.7457 1349 56.1171 949.898 431.72
947 0 98.3329 12.0611 1186 57.8794 949.675 431.464
948 0 104.249 12.6236 1316 57.1892 949.745 430.165
949 0 107.372 11.8188 1269 57.8487 949.509 432.229
950 0 112.482 14.2068 1598 55.3404 949.632 429.715
951 0 112.191 10.0722 1130 59.8929 949.265 428.435
952 0 118.255 12.5322 1482 57.3644 948.912 423.781
953 0 120.434 11.5167 1387 58.8068 949.198 420.164
954 0 124.266 11.9421 1484 58.2379 949.206 419.898
955 0 131.181 13.0354 1710 56.4427 948.977 418.519
956 0 135.138 12.5723 1699 56.5798 948.943 417.451
957 1 71.1909 11.4621 816 55.7855 950.061 447.757
