time division length width area intensity CMx CMy
0 0 51.04 13.0878 668 53.8922 1108.64 522.434
1 0 50.0169 12.5757 629 53.7599 1108.19 525.122
2 0 52.0609 12.3701 644 54.5776 1107.96 522.512
3 0 52.03 12.9156 672 54.2262 1107.79 523.115
4 0 53.0472 12.3098 653 55.0046 1106.97 520.413
5 0 53.0604 11.5152 611 56.4304 1107.47 522.997
6 0 55.0339 12.029 662 56.1012 1107.14 519.745
7 0 56.0438 13.2575 743 54.2705 1106.47 522.888
8 0 57.0382 12.2024 696 55.819 1106.12 521.501
9 0 58.0684 11.9859 696 56.6954 1107.13 518.948
10 0 58.1163 11.1673 649 56.9291 1106.48 521.347
11 0 60.0354 10.5438 633 57.3412 1106.62 522.393
12 0 61.0865 11.0499 675 57.1926 1106.77 520.459
13 0 62.1075 12.3979 770 56.3844 1107.13 519.856
14 0 63.0999 13.2488 836 55.4916 1106.12 519.135
15 0 67.09 11.1045 745 57.2188 1107.31 518.58
16 0 66.0809 12.1215 801 56.8177 1107.47 520.296
17 0 67.1371 11.3499 762 57.9593 1106.86 515.172
18 0 68.1054 12.1576 828 57.8249 1107.78 513.833
19 0 71.1459 11.2164 798 58.4361 1107.48 516.031
20 0 74.1142 11.7926 874 57.7048 1107.02 516.501
21 0 75.1975 11.9552 899 58.6652 1107.71 514.117
22 0 75.0365 12.0475 904 59.7301 1107.44 512.489
23 0 77.1544 13.3239 1028 58.1449 1106.77 513.33
24 0 79.0613 12.2816 971 60.0937 1107.29 512.937
25 0 81.1084 13.747 1115 59.2807 1107.64 508.873
26 0 82.0724 12.1965 1001 61.5375 1106.79 509.701
27 0 83.0608 10.9318 908 63.7974 1107.43 508.381
28 0 86.0524 11.1909 963 63.1038 1107.23 509.928
29 0 90.056 12.2035 1099 62.7907 1108.66 508.854
30 0 97.0908 11.103 1078 62.7662 1107.12 509.683
31 0 95.1057 12.5545 1194 63.4581 1108.38 502.74
32 0 98.074 11.8788 1165 63.7725 1107.97 503.503
33 0 99.1295 10.7233 1063 65.2013 1107.65 505.008
34 0 105.282 12.5758 1324 63.2931 1108.3 503.623
35 0 102.135 10.2218 1044 67.4732 1108.67 500.692
36 1 51.0894 10.9416 559 65.2504 1108.96 524.34
37 0 55.107 11.8497 653 65.0459 1108.99 522.692
38 0 55.1192 10.6134 585 66.8821 1108.86 522.648
39 0 58.0455 10.13 588 66.7925 1109.03 523.646
40 0 59.1517 12.3242 729 64.6598 1109.4 524.694
41 0 60.0427 10.4759 629 67.2734 1109 521.493
42 0 63.0496 10.7534 678 67.7832 1108.39 519.476
43 0 65.0581 9.89884 644 67.2981 1108.11 521.967
44 0 64.0693 11.6749 748 68.5682 1108.83 516.544
45 0 68.0503 11.6678 794 67.7834 1108.62 515.941
46 0 71.1094 10.9268 777 68.9369 1108.94 515.407
47 0 73.0892 12.0264 879 68.6462 1109.38 513.257
48 0 75.1263 11.4208 858 69.0548 1109.21 514.042
49 0 76.0433 11.7828 896 69.6797 1108.93 511.733
50 0 78.0609 11.0683 864 70.6377 1109.04 509.5
51 1 42.043 9.91842 417 68.8921 1108.96 528.621
52 0 44.1358 10.0146 442 68.3145 1109.3 528.536
53 0 47.1038 12.3769 583 64.9262 1108.98 526.425
54 0 48.0129 10.4139 500 67.848 1109.32 523.78
55 0 48.0249 9.64083 463 68.8315 1109.5 522.942
56 0 52.0155 10.4969 546 67.5165 1109.02 523.733
57 0 54.034 11.8074 638 65.9906 1109.93 521.809
58 0 55.1435 10.7719 594 67.6818 1109.27 521.847
59 0 55.044 11.3001 622 67.6559 1108.99 519.243
60 0 58.0438 10.3542 601 68.7188 1109.32 519.857
61 0 61.0589 10.7437 656 68.0015 1109.24 518.98
62 0 62.0918 11.7085 727 67.2545 1108.54 517.369
63 0 63.0928 10.0487 634 68.0095 1108.74 518.328
64 0 67.0504 11.8717 796 66.6093 1109.17 513.16
65 0 69.0979 10.3911 718 67.7799 1109.52 515.294
66 0 74.1583 11.4889 852 66.108 1109.52 514.257
67 0 75.0694 12.6416 949 65.5859 1108.92 510.569
68 0 76.051 9.74346 741 69.0972 1109.2 511.872
69 1 41.0737 9.03255 371 66.2129 1109.5 531.41
70 0 42.0865 9.48048 399 66.4311 1109.29 530.539
71 0 45.0258 10.394 468 65.859 1108.61 528.496
72 0 44.1459 10.9183 482 65.9274 1108.91 527.164
73 0 45.054 9.43313 425 67.92 1108.9 526.198
74 0 49.0314 10.9726 538 64.8401 1109.37 527.491
75 0 51.034 9.91496 506 66.2431 1108.98 525.283
76 0 52.1145 11.0334 575 65.0661 1108.94 524.273
77 0 53.018 10.2795 545 64.9945 1109.25 524.82
78 0 55.0342 11.084 610 64.959 1109.52 520.523
79 0 56.1036 11.9957 673 63.2779 1109.48 520.009
80 0 57.0486 13.1642 751 62.4434 1109.9 518.824
81 0 60.0425 11.9582 718 63.8162 1109.75 518.522
82 0 60.0225 12.3287 740 63.8784 1110.56 517.239
83 0 63.0872 11.6822 737 64.3691 1109.83 517.149
84 0 65.0752 11.3254 737 65.2252 1110.09 515.991
85 0 68.0559 13.4301 914 62.4497 1110.16 515.842
86 0 69.0962 12.0267 831 64.5283 1109.79 515.076
87 0 71.0293 11.3052 803 65.2391 1109.97 512.914
88 1 38.0339 10.4118 396 64.2449 1110.62 529.965
89 0 40.0101 11.1972 448 62.9732 1110.32 530.259
90 0 41.0311 12.0153 493 62.6491 1110.63 529.598
91 0 42.0741 10.6716 449 64.5523 1110.64 529.151
92 0 43.0206 11.971 515 62.8544 1111.12 528.099
93 0 44.016 10.6779 470 65.317 1111.17 527.506
94 0 44.0532 11.1002 489 65.818 1110.69 527.008
95 0 48.0336 11.7001 562 64.8007 1110.42 524.379
96 0 49.0951 11.4472 562 64.7491 1110.14 524.571
97 0 51.1104 12.3067 629 63.3561 1109.95 524.356
98 0 53.1252 12.2164 649 64.1972 1109.65 522.737
99 0 55.0758 11.6567 642 63.9174 1109.31 522.442
100 0 55.1034 11.5782 638 65.127 1109.79 520.644
101 0 56.1226 12.2054 685 64.9504 1109.94 517.546
102 0 57.0953 10.7189 612 66.0408 1110.05 520.732
103 0 59.1594 11.038 653 65.657 1110.11 519.172
104 0 61.0412 11.566 706 65.17 1110.33 517.249
105 0 65.0389 11.9313 776 64.8428 1109.97 515.259
106 0 67.1128 11.8755 797 64.0916 1109.89 516.043
107 0 66.1272 11.8106 781 65.5416 1108.97 515.131
108 0 69.1612 12.5359 867 64.6782 1109.43 511.779
109 0 72.1105 12.5363 904 64.3241 1108.48 510.4
110 0 75.1562 12.3476 928 64.7974 1109.13 509.268
111 0 76.1464 11.6355 886 65.6377 1108.86 509.079
112 0 80.1488 12.2772 984 64.5061 1108.77 508.758
113 0 82.1254 11.0441 907 66.7475 1109.15 507.011
114 1 42.1313 11.1319 469 65.629 1109.75 524.802
115 0 45.08 13.1322 592 62.5693 1109.5 524.792
116 0 46.0268 12.4058 571 64.5972 1109.4 524.2
117 0 47.0578 11.9853 564 65.594 1109.05 523.387
118 0 49.0791 10.7378 527 67.4156 1109.93 523.315
119 0 52.0197 12.0147 625 66.5408 1109.72 521.21
120 0 52.0348 12.7415 663 64.9729 1109.73 521.658
121 0 53.0703 12.9074 685 64.5358 1109.72 522.73
122 0 54.0927 11.24 608 67.5707 1109.85 521.485
123 0 56.0754 12.8042 718 65.8524 1109.54 519.174
124 0 59.0639 13.5277 799 64.3091 1108.98 518.269
125 0 60.1806 13.6257 820 63.8024 1109.1 519.434
126 0 61.0525 12.825 783 65.8199 1109.21 516.957
127 0 63.0602 12.7973 807 65.2701 1109.5 515.401
128 0 64.0614 14.33 918 64.281 1110.05 513.3
129 0 65.076 11.9092 775 67.3845 1109.65 513.541
130 0 68.0409 14.021 954 63.7537 1109.06 513.464
131 0 68.0409 13.9769 951 146.81 1108.04 513.507
132 0 72.1019 11.6641 841 66.9631 1109.23 510.622
133 0 73.0432 11.0619 808 66.88 1109.22 511.955
134 0 76.0482 13.452 1023 64.1935 1109.33 510.185
135 0 77.1165 11.3465 875 66.5737 1110.06 508.21
136 0 81.0769 12.2846 996 64.5171 1109.82 509.075
137 0 82.1415 11.468 942 66.0531 1109.86 504.71
138 0 87.061 13.324 1160 62.7405 1109.52 504.484
139 0 88.1369 12.7415 1123 63.9101 1109.99 502.587
140 1 46.0607 11.3329 522 64.3678 1109.63 523.462
141 0 47.0312 10.5887 498 65.7008 1110.36 522.072
142 0 49.041 11.2559 552 64.0906 1110.23 521.853
143 0 52.1391 11.2583 587 64.1704 1109.94 519.605
144 0 53.0866 12.9223 686 62.2901 1109.58 517.542
145 0 54.0737 12.2241 661 63.1286 1109.71 517.598
146 0 56.0523 13.0949 734 61.3188 1109.25 516.958
147 0 57.1747 12.1907 697 62.439 1108.61 517.149
148 0 59.0543 12.8018 756 61.8929 1108.95 515.52
149 0 61.1111 13.86 847 60.059 1108.75 514.418
150 0 63.1674 12.2057 771 61.6913 1109.3 514.948
151 0 62.1059 12.3499 767 62.3038 1109.67 512.737
152 0 66.1123 12.7662 844 61.359 1109.4 510.562
153 0 68.0664 11.9295 812 61.585 1109.47 513.621
154 0 72.047 13.2136 952 60.1408 1109.98 511.956
155 0 73.1104 12.57 919 60.9869 1109.8 509.614
156 0 75.0398 13.3662 1003 60.0339 1110.07 509.477
157 0 76.0729 12.1594 925 61.5924 1109.24 505.916
158 0 79.1268 12.5748 995 60.9216 1109.11 507.721
159 0 78.2069 11.2906 883 62.8652 1108.49 506.681
160 0 83.0773 11.7962 980 62.2969 1108.91 503.4
161 1 41.0528 10.523 432 61.0625 1109.43 525.213
162 0 42.0232 10.0421 422 62.3934 1109.81 523.36
163 0 43.0296 11.8291 509 60.9607 1109.46 523.377
164 0 46.0636 11.1151 512 60.4707 1109.55 525.652
165 0 47.0685 12.7686 601 59.8037 1109.18 523.376
166 0 47.0699 10.5375 496 63.3589 1109.54 522.125
167 0 46.0663 11.4834 529 62.9905 1109.03 519.76
168 0 51.0582 12.2409 625 60.6384 1109.63 522.523
169 0 51.0636 11.9655 611 61.5466 1109.51 519.484
170 0 49.0325 10.4624 513 64.6979 1109.17 519.901
171 0 54.0404 12.6017 681 61.4479 1109.7 520.493
172 0 55.0709 10.5863 583 63.916 1110.22 517.688
173 0 54.0659 11.0791 599 64.1052 1110 517.97
174 0 60.0576 11.3391 681 62.6344 1109.6 516.305
175 0 61.0759 11.2974 690 62.9696 1109.89 516.787
176 0 62.0253 13.0269 808 61.5322 1110.48 513.757
177 0 65.0633 12.849 836 61.39 1109.6 513.87
178 0 68.244 12.0743 824 62.301 1109.56 514.437
179 0 68.1114 11.1582 760 64.1658 1110.38 511.612
180 0 70.158 11.6024 814 63.683 1109.68 510.851
181 0 73.0593 10.8542 793 63.86 1109.42 512.484
182 1 39.0675 10.4691 409 62.9951 1109.34 526.296
183 0 40.0457 11.6617 467 61.6531 1108.9 526.797
184 0 40.0546 10.8102 433 63.5058 1108.94 525.598
185 0 43.1097 10.1601 438 63.7283 1107.97 526.838
186 0 44.082 10.4578 461 64.4664 1108.81 525.95
187 0 47.0304 11.567 544 62.4963 1108.35 525.66
188 0 46.0482 10.2719 473 65.4313 1108.19 524.863
189 0 48.0674 11.2966 543 63.8969 1107.7 523.44
190 0 51.0725 11.6305 594 63.1869 1107.15 523.785
191 0 50.0402 11.5107 576 64.1615 1107.34 524.035
192 0 51.0283 11.5034 587 64.8552 1106.92 521.947
193 0 55.0292 12.139 668 63.8114 1106.9 522.238
194 0 56.0438 11.1163 623 65.0241 1106.62 522.162
195 0 57.0617 11.8644 677 63.9335 1107.06 522.16
196 0 58.1591 12.0532 701 64.0999 1106.85 521.155
197 0 60.0699 11.9694 719 63.8832 1106.98 522.293
198 0 64.1418 11.9267 765 63.8392 1107.2 520.86
199 0 66.096 12.0431 796 63.1018 1107.08 520.76
200 0 67.0418 11.9329 800 64.0075 1107.09 515.727
201 0 68.0838 9.72332 662 66.1556 1106.56 519.724
202 0 70.098 13.1102 919 62.2187 1106.65 516.337
203 0 70.1584 11.8874 834 63.5576 1106.23 516.73
204 0 72.0614 9.76945 704 66.5185 1105.67 517.112
205 1 36.0646 9.39981 339 65.2242 1107.41 534.08
206 0 40.1021 10.5231 422 62.8863 1106.68 534.185
207 0 40.008 10.223 409 63.6675 1106.55 533.555
208 0 43.0357 10.9212 470 62.034 1106.63 532.857
209 0 42.0591 11.365 478 61.8452 1106.96 533.845
210 0 44.158 11.5268 509 61.4912 1106.55 533.974
211 0 44.0693 11.2096 494 62.664 1106.11 531.358
212 0 43.067 10.9597 472 62.7627 1105.91 532.159
213 0 47.067 11.8979 560 61.5893 1105.18 530.482
214 0 48.109 12.534 603 60.6584 1105.84 531.159
215 0 46.055 9.5755 441 65.6531 1104.37 529.202
216 0 51.0514 12.5168 639 61.1095 1104.55 529.055
217 0 51.0206 10.9368 558 63.3513 1103.94 526.977
218 0 52.0528 10.8544 565 63.2655 1104.98 528.763
219 0 54.0526 11.3963 616 62.8815 1104.53 524.836
220 0 54.0472 11.5455 624 63.1699 1104.24 526.896
221 0 57.0213 11.9078 679 62.813 1104.45 524.233
222 0 59.0761 12.0523 712 62.6882 1104.76 523.739
223 0 60.0525 11.0736 665 64.7083 1104.27 522.791
224 0 62.065 11.633 722 64.144 1103.98 521.385
225 0 63.0333 10.312 650 66.4446 1103.88 518.365
226 0 68.0824 13.469 917 61.3533 1103.98 518.761
227 0 70.0365 13.0361 913 61.6889 1104.08 518.322
228 0 70.0472 12.5058 876 62.911 1103.55 518.965
229 0 73.0681 13.4121 980 62.1612 1104.54 513.361
230 0 74.0512 12.5319 928 63.4784 1104.47 512.578
231 0 76.0818 11.6059 883 64.3749 1104.55 513.696
232 0 80.0795 12.7249 1019 63.2306 1104.74 510.367
233 0 82.1199 11.5563 949 65.1675 1103.96 508.338
234 0 83.102 11.4799 954 66.0493 1104.46 507.236
235 1 46.0203 11.408 525 62.7695 1104.64 527.45
236 0 45.1453 10.9646 495 64.1051 1104.04 527.313
237 0 47.1428 11.3697 536 63.5896 1104.88 525.498
238 0 50.0617 11.4459 573 62.6265 1105.28 527.044
239 0 51.0202 11.2308 573 63.8621 1105.35 525.213
240 0 50.0568 10.6279 532 65.297 1105.49 525.094
241 0 55.0971 11.9607 659 62.7724 1104.99 524.137
242 0 54.0943 12.8664 696 62.2011 1105.07 522.779
243 0 52.1193 10.2073 532 66.4211 1105.41 520.009
244 0 59.0594 11.2937 667 63.6852 1104.93 521.847
245 0 58.0365 11.4411 664 65.6913 1104.06 518.119
246 0 61.0615 12.3482 754 63.1499 1105.13 518.537
247 0 61.0453 11.041 674 65.3145 1104.53 520.073
248 0 65.0609 11.5891 754 64.2653 1104.64 518.829
249 0 64.0954 10.0475 644 66.4984 1105.8 519.646
250 0 69.0791 12.0442 832 63.9291 1105.39 516.281
251 0 69.1764 13.2704 918 62.9346 1105.28 516.066
252 0 71.0886 12.6884 902 63.8548 1104.82 515.739
253 0 75.0515 12.5381 941 64.4006 1105.55 514.76
254 0 76.0953 12.1952 928 64.861 1105.72 514.426
255 0 78.1575 11.4256 893 66.0538 1104.82 512.605
256 0 82.0905 12.5715 1032 64.3101 1105.55 513.319
257 0 81.1665 11.2115 910 66.8879 1104.15 510.353
258 1 44.0475 10.1254 446 64.8251 1105.13 531.563
259 0 43.0282 10.2723 442 66.1674 1104.79 531.025
260 0 46.1101 11.7762 543 63.5028 1104.81 531.267
261 0 47.0387 11.4586 539 64.4879 1104.9 531.302
262 0 48.0849 12.062 580 63.9603 1104.59 529.962
263 0 51.0497 11.4594 585 64.2684 1104.95 530.253
264 0 52.1691 13.0537 681 62.699 1104.52 528.414
265 0 53.0542 12.5155 664 63.5994 1104.56 528.432
266 0 54.1206 10.6798 578 65.9152 1104.81 528.064
267 0 54.0875 10.0578 544 66.5809 1104.43 528.574
268 0 55.0474 10.8089 595 66.5395 1104.46 524.933
269 0 56.0335 9.65494 541 68.2311 1104.55 522.739
270 0 60.0615 10.739 645 66.1209 1104.23 524.264
271 0 62.2195 11.9737 745 64.5383 1104.8 524.413
272 0 63.0466 11.6105 732 65.4194 1104.19 521.936
273 0 67.0746 13.3135 893 62.5913 1104.29 522.919
274 0 67.0356 11.7997 791 64.7295 1104.17 522.848
275 0 70.1289 11.9779 840 64.5226 1103.36 518.573
276 0 72.0895 11.8603 855 64.6503 1103.59 519.38
277 0 72.0464 10.5904 763 66.6042 1103.64 519.56
278 0 77.0745 11.0153 849 65.0683 1103.47 518.458
279 0 79.0958 12.7314 1007 62.7766 1103.53 519.301
280 1 42.0366 9.96749 419 64.6802 1104.16 534.599
281 0 43.0449 10.8956 469 63.7207 1103.21 534.588
282 0 45.0838 11.645 525 62.8762 1102.82 533.398
283 0 45.0651 11.2726 508 63.4843 1102.59 533.9
284 0 47.0967 11.0624 521 63.6871 1102.21 531.084
285 0 49.0199 10.5467 517 63.9632 1103.18 531.559
286 0 50.1401 11.9266 598 61.7458 1102.75 529.699
287 0 51.0514 10.4796 535 63.9869 1102.73 529.948
288 0 51.0651 11.1035 567 63.4303 1103.16 526.642
289 0 54.0765 11.7426 635 62.4126 1103.12 524.737
290 0 57.1359 12.8816 736 60.7269 1102.99 525.016
291 0 59.107 11.1831 661 62.9788 1103.14 524.649
292 0 61.0648 11.6434 711 62.3038 1102.76 524.364
293 0 60.0591 9.5406 573 64.555 1102.9 523.611
294 0 65.0935 12.2439 797 60.8507 1103.4 521.883
295 0 65.0522 12.7744 831 60.6089 1102.85 519.792
296 0 67.0639 11.0044 738 62.5312 1102.85 519.907
297 0 70.0437 11.6784 818 61.4462 1102.68 519.765
298 0 72.1402 11.1727 806 62.3747 1102.83 517.542
299 0 73.1223 11.1184 813 62.7417 1102.79 514.016
300 0 79.1497 11.7246 928 61.4763 1102.4 514.498
301 1 39.0074 10.3057 402 60.6791 1102.91 532.289
302 0 42.0311 10.8967 458 60.5764 1102.98 530.989
303 0 44.2238 9.97201 441 61.5692 1103.05 532.331
304 0 45.0289 12.1477 547 60.6691 1102.6 528.801
305 0 46.1347 11.4447 528 62.0095 1103.09 528.462
306 0 48.055 11.1539 536 62.1437 1102.97 529.218
307 0 50.0226 12.0945 605 61.2182 1102.55 526.669
308 0 50.0483 10.1502 508 64.811 1102.88 526.281
309 0 51.0671 10.6331 543 64.453 1102.63 525.783
310 0 53.0334 11.4456 607 62.9522 1102.52 526.616
311 0 54.1002 11.3863 616 64.2955 1103.22 523.416
312 0 55.0733 11.0761 610 64.7098 1102.5 522.718
313 0 59.1309 11.297 668 63.4446 1102.92 523.865
314 0 59.0511 11.7695 695 63.977 1102.16 520.955
315 0 60.0232 11.9121 715 63.4769 1101.94 521.669
316 0 64.0396 12.5391 803 62.4421 1102.14 521.138
317 0 67.0503 11.7822 790 63.7253 1102.44 520.535
318 0 65.0291 11.2104 729 65.3841 1102.05 517.597
319 0 68.0381 11.1261 757 64.9221 1102.13 516.45
320 0 69.0714 12.8128 885 63.5797 1102.57 514.949
321 0 71.0314 9.531 677 67.1064 1103.13 517.783
322 0 76.0485 11.6505 886 64.9131 1103.17 511.679
323 1 40.0594 11.4081 457 61.9934 1102.67 531.871
324 0 41.0536 11.8382 486 61.4547 1102.59 531.984
325 0 44.0432 10.9211 481 63.499 1102.75 529.985
326 0 44.0147 10.1557 447 63.774 1103.34 531.318
327 0 46.0577 11.8764 547 62.5174 1102.12 528.861
328 0 48.0236 11.5985 557 62.3788 1103.16 528.693
329 0 48.0747 12.5222 602 61.6379 1103.17 527.404
330 0 48.0712 11.2958 543 63.9669 1103.28 525.273
331 0 52.1132 11.9547 623 62.122 1103.49 526.347
332 0 53.0461 10.3118 547 64.5558 1103.5 524.501
333 0 54.081 12.4628 674 61.5801 1102.82 522.887
334 0 56.0618 11.2733 632 62.5222 1101.85 523.935
335 0 57.0463 11.8676 677 62.4505 1102.38 522.663
336 0 59.0899 11.254 665 63.0902 1102.52 522.32
337 0 59.0979 11.3202 669 63.6203 1102.52 521.123
338 0 61.0725 12.3787 756 62.2183 1102.98 519.206
339 0 64.167 10.535 676 64.2589 1102.91 519.404
340 0 65.0688 11.6338 757 62.7768 1102.9 519.668
341 0 68.0584 11.5195 784 62.7538 1102.23 518.037
342 0 71.0656 12.3407 877 62.3124 1102.86 514.074
343 0 70.1098 11.6531 817 63.4823 1102.72 515.815
344 1 36.116 8.41732 304 65.5066 1102.53 531.836
345 0 38.0106 8.7081 331 64.8218 1102.88 531.846
346 0 39.0406 10.0408 392 64.1939 1102.57 530.709
347 0 40.0198 9.44533 378 64.6799 1103.69 531.897
348 0 43.0474 11.3363 488 62.373 1103.49 530.168
349 0 46.0163 11.5177 530 61.6943 1103.98 528.692
350 0 45.0273 9.94951 448 64.8504 1103.69 527.446
351 0 47.0159 16.2073 762 46.3228 1103.08 526.35
352 0 50.116 11.3138 567 61.1235 1103.61 528.242
353 0 49.0498 9.39861 461 64.2473 1103.35 527.9
354 0 52.0872 11.4424 596 61.5956 1102.95 526.257
355 0 52.0712 10.7737 561 62.6435 1102.09 525.624
356 0 53.0258 10.7684 571 62.8336 1102.87 524.725
357 0 58.0891 11.9816 696 61.1351 1102.24 523.859
358 0 55.108 9.90782 546 64.3645 1103.08 522.679
359 0 58.1347 10.1832 592 63.2399 1103.95 523.483
360 0 60.0829 10.4689 629 62.9396 1102.57 523.954
361 0 63.1373 11.277 712 62.9242 1102.33 520.298
362 0 64.0481 10.9137 699 64.0887 1102.77 519.053
363 0 67.104 12.3689 830 61.8434 1103.02 518.289
364 0 70.0626 12.3461 865 62.0983 1103.69 517.583
365 0 69.1127 10.5335 728 63.7857 1103.59 516.507
366 0 72.1384 11.5195 831 63.3706 1103.2 513.253
367 0 73.1482 11.3195 828 63.6582 1102.97 513.324
368 0 77.257 11.9342 922 61.7321 1103.29 514.632
369 0 81.0875 12.4064 1006 61.3708 1103.29 512.319
370 1 44.0414 11.6708 514 61.3988 1102.75 530.467
371 0 46.0811 10.9589 505 61.9109 1103.49 529.305
372 0 48.1094 10.8087 520 62.6981 1103.28 527.138
373 0 49.0489 14.5773 715 58.214 1103.09 526.929
374 0 50.1076 12.3135 617 61.6013 1103.29 526.263
375 0 54.0214 12.9578 700 60.1171 1103.6 524.05
376 0 54.0209 11.5511 624 61.8846 1103.53 523.5
377 0 56.0658 10.8444 608 62.9474 1102.99 525.081
378 0 59.0557 12.175 719 61.5716 1102.89 522.907
379 0 59.1216 11.4341 676 63.0207 1103.15 519.898
380 0 62.1358 11.3461 705 62.6411 1102.71 520.143
381 0 63.0579 13.0039 820 60.1244 1102.83 521.85
382 0 65.0557 11.7591 765 62.1582 1102.67 516.625
383 0 66.0513 11.5516 763 62.3971 1103.36 518.544
384 0 68.0424 10.7727 733 62.9632 1103.59 518.468
385 0 70.1427 11.5194 808 62.1002 1103.01 515.387
386 0 74.17 11.5141 854 61.4508 1102.98 515.166
387 0 74.1386 13.2724 984 59.9461 1103.14 511.982
388 0 78.1739 13.1374 1027 59.5803 1103.67 513.653
389 0 80.1307 11.8432 949 61.3151 1103.55 510.882
390 0 84.1194 13.2312 1113 59.5651 1103.68 507.774
391 0 84.1464 11.7177 986 61.3996 1103.63 506.417
392 0 89.0697 13.0909 1166 59.542 1103.2 503.238
393 0 92.0455 11.6138 1069 61.1254 1103.17 505.961
394 0 95.1684 14.1749 1349 57.96 1103.38 503.574
395 1 49.2142 9.672 476 61.7878 1103.09 528.378
396 0 51.0587 11.6728 596 58.604 1103.73 529.95
397 0 53.0463 10.9715 582 60.0481 1103.63 527.656
398 0 54.0701 12.7982 692 59.3237 1104 523.302
399 0 57.0398 12.4825 712 59.0927 1104.14 523.829
400 0 57.0722 11.8096 674 60.2033 1104.3 524.78
401 0 60.047 11.9406 717 59.6416 1103.82 524.434
402 0 54.0385 9.30818 503 63.8429 1103.79 515.006
403 0 49.0278 7.05722 346 65.8642 1103.7 508.5
404 0 50.0718 7.18967 360 66.9806 1103.43 509.808
405 0 55.0956 5.93514 327 66.9572 1103.5 505.706
406 0 58.0569 9.31845 541 64.6229 1103.31 508.608
407 0 65.0816 9.75699 635 63.8976 1103.37 510.482
408 1 76.1529 12.0153 915 60.5934 1103.51 513.984
409 0 77.1402 11.343 875 61.3611 1104.2 513.309
410 0 80.2961 12.5785 1010 60.0059 1103.98 513.143
411 0 82.0965 11.5961 952 60.8813 1103.53 511.718
412 0 87.2003 11.594 1011 60.6192 1103.84 508.08
413 0 88.2141 12.6397 1115 59.9327 1103.63 506.943
414 1 47.1485 11.2835 532 60.3647 1103.79 528.008
415 0 50.1426 9.41316 472 61.0148 1103.29 529.699
416 0 49.1404 10.6633 524 62.1947 1103.5 526.771
417 0 53.0768 11.4174 606 59.4208 1104.06 529.15
418 0 53.1603 10.5342 560 62.1393 1103.98 525.705
419 0 56.1626 10.8969 612 61.1503 1103.56 525.698
420 0 56.1305 10.9922 617 62 1103.52 523.126
421 0 58.1383 13.6399 793 58.0366 1103.72 522.551
422 0 61.0434 10.5499 644 61.4519 1103.27 521.764
423 0 62.0699 9.61819 597 62.4874 1103.7 521.477
424 0 63.0618 9.70477 612 62.0245 1103.36 517.766
425 0 66.0986 13.026 861 57.7398 1102.97 516.422
426 0 68.1955 10.8658 741 60.5776 1103.26 515.93
427 0 71.1065 11.0679 787 59.9301 1103.25 516.858
428 0 73.1264 9.75024 713 61.7279 1103.4 511.811
429 0 76.2071 11.1013 846 59.682 1103.85 515.775
430 0 77.2448 10.1366 783 61.6041 1102.9 511.63
431 0 81.2144 10.3553 841 60.8086 1103.07 512.031
432 0 82.1272 11.19 919 59.8825 1103.42 510.766
433 0 86.1952 11.6248 1002 59.3792 1103.5 507.246
434 0 87.1725 10.5079 916 60.6583 1103.27 509.147
435 1 45.0854 10.3581 467 58.9422 1103.81 528.972
436 0 47.078 9.62232 453 59.9514 1104.35 528.135
437 0 48.1199 9.43477 454 59.8855 1103.61 528.947
438 0 50.0734 11.8226 592 57.5051 1103.67 527.882
439 0 50.06 11.0867 555 58.6757 1103.17 524.942
440 0 51.0898 9.88456 505 60.1406 1103.4 523.392
441 0 54.1179 10.3663 561 58.8289 1103.58 527.643
442 0 55.0603 11.2604 620 58.9435 1103.68 524.332
443 0 58.0658 12.2619 712 57.4438 1102.89 521.692
444 0 59.1376 12.0228 711 58.1378 1103.51 521.54
445 0 60.2071 10.713 645 59.0853 1103.41 522.293
446 0 62.1428 9.4138 585 59.8889 1103.85 525.115
447 0 63.1071 10.4267 658 59.5274 1103.39 519.85
448 0 64.2269 10.821 695 58.8144 1103.86 523.309
449 0 68.0952 11.2049 763 58.6042 1104.21 519.013
450 0 68.0822 9.50322 647 60.3957 1102.72 517.643
451 0 71.1181 10.9677 780 58.7372 1103.57 516.723
452 0 75.0901 9.6817 727 59.8735 1103.58 517.593
453 0 76.0825 11.3298 862 58.2517 1103.72 514.546
454 0 79.2891 11.6409 923 57.675 1104.05 513.906
455 1 42.1192 9.99543 421 58.9121 1103.97 531.829
456 0 43.0176 10.4143 448 59.2254 1103.38 529.955
457 0 46.0552 11.4211 526 57.308 1103.73 530.359
458 0 47.0285 11.0359 519 57.1908 1103 528.879
459 0 49.0637 10.8023 530 57.5981 1103.26 528.783
460 0 48.049 9.59437 461 59.4685 1102.98 527.013
461 0 50.1448 10.8685 545 58.2697 1103.47 523.128
462 0 53.0959 10.2268 543 58.1105 1103.7 526.578
463 0 55.1093 11.9581 659 57.0698 1103.64 521.768
464 0 56.1476 11.4876 645 57.3333 1102.49 522.051
465 0 57.0797 9.72324 555 59.4342 1103.03 524.241
466 0 58.1619 11.4508 666 57.3303 1103.27 524.111
467 0 60.1059 11.5463 694 57.9524 1103.11 522.159
468 0 62.089 13.1907 819 56.5849 1103.12 519.092
469 0 66.1807 11.2571 745 58.1624 1103.17 521.211
470 0 68.0785 11.5308 785 58.172 1103.34 520.397
471 0 68.3007 11.9618 817 58.257 1103.26 518.124
472 0 68.0478 11.7417 799 58.9074 1102.92 514.009
473 0 72.1139 11.26 812 58.7993 1103.11 513.233
474 0 73.0756 11.5223 842 58.9572 1103.25 514.539
475 0 77.2619 11.9075 920 58.0946 1103.28 514.236
476 0 77.1988 10.8421 837 60.4886 1102.6 509.726
477 0 81.3907 12.0407 980 58.3663 1102.67 511.086
478 0 82.1242 10.6424 874 60.6556 1102.65 509.259
479 1 44.035 11.718 516 56.5891 1103.16 530.903
480 0 42.0347 9.80144 412 59.6578 1102.38 529.413
481 0 45.0464 10.4781 472 59.411 1103.3 528.059
482 0 48.0272 10.8272 520 57.9096 1103.65 530.704
483 0 47.0764 10.5361 496 59.6028 1103.36 528.29
484 0 49.0503 11.7838 578 58.0398 1103 527.92
485 0 54.0502 10.3977 562 58.5712 1104.24 528.534
486 0 52.1415 10.6058 553 59.3508 1103.66 526.134
487 0 53.0902 9.87 524 60.2195 1103.55 526.065
488 0 55.0402 10.6286 585 59.3282 1103.46 524.768
489 0 57.0658 11.2151 640 58.9422 1104.04 522.611
490 0 57.1128 10.0853 576 60.1319 1104.02 522.24
491 0 61.0915 11.6546 712 57.9368 1104.04 520.944
492 0 62.0438 11.0245 684 58.4488 1103.87 518.746
493 0 65.0662 11.0042 716 58.1355 1103.7 519.337
494 0 65.1001 10.1997 664 59.3268 1103.54 516.837
495 0 65.0973 10.6149 691 58.9363 1102.58 514.774
496 0 69.1212 11.0964 767 57.9739 1103.44 516.155
497 0 70.0357 11.8654 831 56.5776 1102.99 518.531
498 0 74.1372 11.9373 885 55.9831 1103.4 516.493
499 0 74.089 9.97448 739 58.387 1102.98 515.304
500 0 78.1445 11.5939 906 56.5342 1103.46 514.65
501 0 80.1518 12.5886 1009 55.2795 1102.84 512.032
502 0 82.1186 11.8122 970 55.5773 1103.71 512.464
503 0 84.1277 11.0427 929 57.1087 1103.43 510.509
504 1 46.077 9.09347 419 57.253 1103.9 527.788
505 0 48.128 8.33195 401 57.9701 1103.64 525.833
506 0 50.0518 9.35032 468 56.2073 1103.5 525.088
507 0 51.0994 9.78484 500 56.274 1102.93 525.336
508 0 52.0805 10.7526 560 55.9 1102.82 525.725
509 0 56.1018 10.5701 593 56.2293 1102.64 523.744
510 0 57.0801 10.5641 603 56.6186 1102.73 522.741
511 0 58.1947 9.81189 571 57.0841 1103.22 521.331
512 0 59.0637 7.99137 472 57.8856 1103.17 522.667
513 0 61.1166 10.4882 641 56.0952 1102.88 520.332
514 0 64.0779 9.84739 631 56.0919 1103.45 518.815
515 0 66.1381 10.3269 683 55.6135 1103.52 518.874
516 0 69.1085 12.3284 852 53.6831 1103.33 516.506
517 0 69.049 9.6598 667 56.0585 1102.81 514.096
518 0 72.0707 10.8088 779 54.7805 1103.37 514.513
519 0 76.0997 10.7491 818 53.8961 1102.88 514.554
520 0 77.2983 11.3327 876 53.6016 1102.88 512.925
521 0 80.2685 10.1783 817 54.388 1102.86 513.601
522 0 83.2433 11.8688 988 53.2986 1102.86 510.224
523 0 85.2062 9.91712 845 55.4805 1103.29 505.773
524 0 90.1324 9.03116 814 55.3292 1103.14 509.405
525 1 43.0684 8.91605 384 53.6979 1103.74 530.44
526 0 48.0866 11.812 568 51.2852 1102.97 529.984
527 0 47.0471 10.3938 489 53.0245 1103.2 527.536
528 0 49.0284 10.5449 517 53.1721 1103.39 528.818
529 0 52.0664 10.525 548 53.0821 1103.08 528.044
530 0 52.0836 10.9631 571 53.9072 1102.31 523.702
531 0 55.1314 9.72223 536 54.9272 1101.52 525.646
532 0 54.1132 11.5683 626 53.8323 1102.45 523.235
533 0 57.1132 11.5385 659 53.3551 1101.95 525.683
534 0 57.0939 9.63325 550 56.0473 1102.13 522.613
535 0 61.0508 11.6297 710 53.2479 1102.67 524.341
536 0 62.0665 11.971 743 53.5007 1102.79 521.416
537 0 61.0497 10.2539 626 55.8466 1102.42 517.815
538 0 65.0963 11.9669 779 53.8357 1101.81 518.012
539 0 70.0677 12.6735 888 52.4381 1102.84 519.214
540 0 67.09 10.4934 704 55.3011 1102.85 517.781
541 0 71.066 11.2431 799 54.4343 1102.66 515.635
542 0 74.1029 12.5501 930 53.1613 1103.12 512.071
543 0 78.1569 11.0419 863 54.4612 1102.59 515.173
544 0 81.1882 11.6519 946 53.778 1102.86 514.264
545 0 81.1666 10.6078 861 55.1672 1102.35 511.195
546 1 45.017 10.3072 464 55.1336 1102.91 528.431
547 0 45.0319 11.1921 504 54.8611 1102.87 528.188
548 0 48.0359 11.2832 542 54.6052 1103.18 527.886
549 0 51.029 12.8946 658 52.9514 1102.72 526.673
550 0 49.0376 11.0731 543 55.4917 1102.41 525.169
551 0 54.0515 10.527 569 54.7786 1102.49 525.701
552 0 54.0931 10.4449 565 54.7487 1102.84 527.572
553 0 54.0452 10.8428 586 55.4027 1103.19 523.971
554 0 56.064 9.23945 518 57.0116 1103 521.307
555 0 57.0754 10.7227 612 55.5703 1103.07 519.807
556 0 61.019 12.1274 740 54.023 1102.71 521.63
557 0 60.1044 10.0325 603 56.7662 1102.74 520.295
558 0 64.0926 11.2494 721 55.663 1102.94 518.28
559 0 64.053 10.5381 675 55.9556 1102.64 518.415
560 0 66.2452 10.4762 694 56.4942 1102.99 514.676
561 0 69.0836 11.4499 791 55.5487 1102.66 514.764
562 0 70.0707 10.7891 756 56.2857 1102.7 515.005
563 0 69.1567 7.88065 545 59.3486 1102.66 510.967
564 0 77.1308 10.6183 819 56.0452 1102.48 513.518
565 0 79.1436 10.4746 829 56.1568 1102.21 508.438
566 0 80.0564 11.8791 951 54.6351 1102.2 511.609
567 1 42.0913 9.09927 383 56.9661 1102.02 527.525
568 0 43.0228 10.3666 446 54.9619 1101.51 530.473
569 0 48.0261 11.6603 560 54.0018 1101.92 528.109
570 0 48.0685 9.92333 477 55.4759 1102.62 529.216
571 0 48.0917 11.3533 546 55.4579 1102.62 527.386
572 0 50.0619 10.4471 523 56.5296 1102.4 526.359
573 0 50.0783 10.2639 514 57.5195 1102.24 524.233
574 0 51.0649 11.0448 564 56.8777 1102.95 523.711
575 0 54.1326 13.781 746 54.0603 1102.52 523.092
576 0 55.1583 10.3158 569 58.065 1102.48 521.868
577 0 57.067 12.3539 705 55.7376 1102.46 522.01
578 0 59.0331 11.9086 703 56.6117 1102.38 519.62
579 0 61.1826 10.7383 657 57.6347 1103.46 520.408
580 0 64.1765 11.2814 724 56.8854 1104.3 519.177
581 0 64.0461 12.1007 775 56.3806 1103.85 518.822
582 0 68.1121 12.0096 818 56.0367 1103.56 517.539
583 0 67.1341 12.5421 842 56.0012 1104.12 515.201
584 0 68.2005 11.2609 768 57.724 1103.36 514.375
585 0 72.0956 11.3183 816 57.8664 1102.81 511.641
586 0 73.0605 11.1141 812 58.4286 1103.39 512.222
587 0 76.1599 9.72953 741 59.8408 1102.87 509.447
588 0 82.0787 11.9276 979 56.7783 1102.44 508.043
589 0 83.4293 11.5547 964 57.8278 1102.74 505.022
590 0 88.1725 12.3962 1093 56.7521 1102.39 505.793
591 0 91.1402 11.3013 1030 57.7757 1102.28 504.776
592 0 91.1044 10.9325 996 58.6004 1102.64 502.754
593 1 46.02 11.495 529 56.3006 1102.2 526.631
594 0 47.0512 9.8191 462 57.3355 1103.01 528.078
595 0 51.0853 9.72882 497 58.2938 1102.73 524.074
596 0 51.0379 10.1101 516 57.907 1102.84 523.207
597 0 55.1134 11.0499 609 56.4302 1102.92 523.458
598 0 56.0621 11.6478 653 56.3905 1103.18 520.786
599 0 56.0469 10.741 602 57.7591 1102.41 520.267
600 0 58.0224 10.6511 618 58.1327 1102.7 520.172
601 0 60.0327 10.8608 652 58.0077 1102.78 519.41
602 0 64.0694 12.7206 815 56.1092 1102.81 517.2
603 0 64.018 11.3874 729 57.5748 1102.45 517.826
604 0 65.0436 12.2226 795 56.7358 1102.48 516.397
605 0 70.0763 13.0144 912 55.8399 1103.68 515.738
606 0 71.1508 11.581 824 57.7282 1103.16 514.273
607 0 72.0506 13.0603 941 56.8119 1103.44 513.301
608 0 76.1008 11.5242 877 57.8974 1103.19 514.463
609 0 75.0613 12.4298 933 57.9743 1102.59 511.81
610 0 79.0891 12.8083 1013 57.46 1102.91 511.061
611 0 83.1855 13.4519 1119 57.1135 1103.21 507.733
612 0 84.0822 11.5006 967 59.7518 1103.14 508.56
613 0 86.0545 12.4456 1071 59.2297 1102.54 506.009
614 0 88.0803 13.079 1152 58.9983 1103.01 507.593
615 0 92.1787 12.5517 1157 60.3302 1102.61 503.663
616 0 94.127 13.8642 1305 59.2 1102.92 504.504
617 0 95.1261 12.2469 1165 61.273 1103.32 505.097
618 0 99.1921 15.1726 1505 58.2558 1103.14 500.937
619 0 102.125 12.6512 1292 61.2005 1102.92 502.397
620 0 105.095 12.3793 1301 62.5903 1103.15 497.608
621 1 54.1825 9.24652 501 62.7046 1103.41 525.701
622 0 57.0738 11.6165 663 60.6817 1103.2 524.053
623 0 57.1617 12.176 696 60.819 1103.45 521.17
624 0 59.1174 11.5702 684 61.8933 1103.88 521.018
625 0 58.1106 11.7535 683 62.4802 1103.71 521.045
626 0 63.0466 12.4353 784 60.676 1102.79 519.202
627 0 62.054 13.2143 820 60.2463 1102.69 517.971
628 0 64.0698 10.6134 680 62.8059 1103.47 520.346
629 0 69.1252 12.6871 877 60.1414 1103.52 517.3
630 0 69.0472 11.427 789 62.3473 1103.61 512.677
631 0 72.1564 10.4357 753 62.5498 1103.67 516.311
632 0 75.1035 12.1965 916 60.6365 1103.15 516.052
633 0 76.1005 11.6294 885 62.261 1103.15 512.174
634 0 79.1447 13.3174 1054 59.9592 1103.54 512.88
635 0 83.1029 12.5988 1047 61.1299 1103.6 511.136
636 0 83.0667 13.7841 1145 60.4288 1103.94 508.624
637 0 86.1328 12.7826 1101 60.7838 1104.05 509.251
638 1 40.0598 9.43588 378 64.9788 1104.04 527.878
639 0 45.0638 10.8513 489 62.7096 1103.35 528.413
640 0 47.1039 11.8037 556 62.1187 1103.55 526.532
641 0 49.0612 12.1685 597 61.392 1103.01 526.776
642 0 47.0397 10.6506 501 64.2475 1103.08 525.303
643 0 51.143 12.5335 641 61.4119 1102.81 524.541
644 0 53.0848 12.2822 652 61.3497 1102.77 524.702
645 0 52.068 11.0625 576 64.0052 1103.34 522.366
646 0 55.0307 11.7571 647 62.7434 1102.99 520.913
647 0 59.1245 11.7887 697 62.297 1103.17 520.359
648 0 59.1259 12.8539 760 61.5671 1103.28 519.559
649 0 61.2364 14.5175 889 59.6333 1102.78 519.927
650 0 64.1175 12.2431 785 61.7682 1103.26 518.973
651 0 66.2539 12.7691 846 60.9953 1103.6 517.891
652 0 67.0269 13.9496 935 60.1048 1103.09 516.157
653 0 69.0947 13.9953 967 59.9224 1103.17 516.478
654 0 72.16 12.6247 911 61.2437 1103.52 516.544
655 0 73.1435 14.4237 1055 59.4806 1103.24 513.371
656 0 73.0993 11.3134 827 63.6215 1103.24 513.169
657 0 78.1155 13.0448 1019 61.0805 1103.99 513.702
658 0 79.1378 12.9774 1027 61.8238 1103.38 506.91
659 0 81.1726 13.4159 1089 61.4004 1103.18 509.102
660 0 85.2528 13.3016 1134 62.1067 1103.51 506.22
661 0 86.1154 12.4716 1074 63.0875 1103.13 505.589
662 0 91.1712 12.5478 1144 62.5376 1103.33 504.616
663 0 95.1626 12.9042 1228 62.0375 1103.47 502.245
664 0 96.2216 12.7102 1223 62.7228 1102.98 499.984
665 1 48.0186 10.4751 503 63.7873 1103.52 527.316
666 0 54.0936 11.3692 615 64.0081 1103.11 522.476
667 0 54.0191 12.1253 655 63.3557 1103.19 523.638
668 0 57.0975 12.0846 690 63.1812 1102.89 519.059
669 0 57.1204 15.2835 873 59.1329 1102.72 523.034
670 0 60.0972 14.7261 885 60.1356 1102.62 519.2
671 0 62.1453 12.6478 786 61.8219 1103.63 520.062
672 0 66.148 12.5627 831 61.4669 1103.6 519.448
673 0 64.0289 12.4787 799 62.4668 1103.01 514.751
674 0 68.1383 12.4893 851 61.6075 1102.86 515.796
675 0 68.0355 11.4793 781 63.4968 1103.21 514.375
676 0 70.0782 12.7286 892 62.2825 1103.13 512.772
677 0 76.1763 12.4448 948 61.7384 1103.62 513.55
678 0 74.1179 10.8206 802 64.2319 1103.17 510.5
679 0 80.1261 12.343 989 62.4348 1103.45 509.258
680 0 84.1085 13.6134 1145 60.676 1103 508.509
681 0 87.1501 12.7596 1112 62.0126 1103.27 508.808
682 0 90.0962 13.5189 1218 61.1962 1103.39 507.043
683 0 94.0557 12.9498 1218 61.4286 1103.69 506.228
684 1 49.0616 12.576 617 61.0373 1103.44 527.284
685 0 50.0996 12.1757 610 61.9721 1103.59 527.03
686 0 49.1233 10.4024 511 64.0998 1103.32 526.012
687 0 55.0612 12.8584 708 61.1907 1102.52 525.268
688 0 53.1006 11.4688 609 63.0558 1103.11 526.222
689 0 55.0514 12.4066 683 62.9941 1103.92 523.398
690 0 56.0266 12.7797 716 61.8771 1103.59 524.018
691 0 57.0646 10.8649 620 63.9839 1103.18 521.511
692 0 61.0636 13.2321 808 60.9827 1103.21 522.575
693 0 64.2155 13.4703 865 61.363 1102.67 519.027
694 0 65.0393 12.6231 821 62.2229 1103.2 519.212
695 0 67.02 12.3694 829 62.2075 1102.64 517.717
696 0 70.138 12.1332 851 62.9553 1102.84 515.311
697 0 74.1172 13.5191 1002 61.3473 1103.27 516.613
698 0 74.2401 12.5269 930 63.3624 1103.06 513.132
699 0 75.1256 13.737 1032 61.1531 1103.49 516.205
700 0 79.1036 12.5532 993 63.0433 1103.13 512.107
701 0 82.1021 14.823 1217 60.636 1103.22 511.46
702 0 84.0755 13.4165 1128 62.3431 1103.76 508.998
703 0 85.1604 13.3513 1137 63.6069 1102.93 506.386
704 0 87.1211 11.3635 990 65.4141 1102.87 507.474
705 1 45.0516 9.94415 448 65.3549 1103.13 529.243
706 0 45.1027 11.4184 515 64.7223 1102.96 528.606
707 0 48.1717 11.0023 530 65.717 1103.39 525.409
708 0 51.1577 13.9764 715 62.7049 1102.63 525.634
709 0 51.1134 12.1495 621 64.6651 1102.95 524.816
710 0 54.1299 12.3037 666 64.4069 1103.24 525.311
711 0 55.1124 12.1025 667 64.919 1103 523.966
712 0 55.1297 10.9741 605 67.2843 1102.52 521.502
713 0 56.0979 11.676 655 66.5008 1102.68 522.398
714 0 60.0903 13.0138 782 64.734 1102.52 520.918
715 0 60.1179 11.2945 679 67.1311 1103.14 517.644
716 0 66.1011 12.1027 800 65.0888 1103.02 519.625
717 0 68.0809 13.0286 887 64.3698 1103.22 518.167
718 0 70.1715 12.9112 906 64.5342 1103.2 518.137
719 0 71.0638 12.7632 907 65.2911 1103.55 517.961
720 0 74.1557 11.9209 884 66.0192 1102.78 515.766
721 0 77.1473 12.0549 930 66.0441 1102.77 514.313
722 0 78.094 11.4093 891 67.2144 1103.22 512.235
723 0 82.1642 14.2154 1168 64.1969 1102.78 510.682
724 0 81.2108 10.9099 886 68.7912 1102.89 510.23
725 0 86.1076 12.3102 1060 66.5425 1103.06 510.765
726 0 90.3152 12.1796 1100 66.9591 1103.25 509.631
727 0 93.1229 12.0915 1126 67.6989 1103.07 506.287
728 0 96.1812 13.3706 1286 66.3523 1103.16 504.945
729 1 52.0446 11.4709 597 68.0335 1103.08 525.528
730 0 54.093 11.6281 629 68.1081 1103.27 526.746
731 0 54.0731 11.4845 621 67.8486 1103.66 525.614
732 0 56.1262 12.2937 690 68.4638 1103.33 523.758
733 0 59.1389 12.7327 753 67.2762 1103.21 524.497
734 0 62.0412 12.0887 750 68.2013 1102.99 522.641
735 0 62.0933 13.4636 836 66.6483 1103.22 521.702
736 0 65.0994 11.8127 769 67.8283 1103.45 523.1
737 0 68.0806 13.4546 916 65.7784 1103.78 520.556
738 0 70.1063 12.2386 858 67.0186 1103.51 520.41
739 0 71.2128 12.9331 921 67.3344 1103.59 516.828
740 0 74.1296 12.006 890 68.2461 1103.3 516.709
741 0 78.1292 14.3992 1125 64.6187 1103.5 514.159
742 0 81.1499 13.0992 1063 66.5061 1102.99 512.419
743 0 82.0779 11.9642 982 68.1701 1102.75 512.579
744 1 44.049 11.6915 515 66.5689 1102.58 529.283
745 0 45.1086 11.9268 538 66.0056 1102.12 531.147
746 0 46.0361 12.6205 581 66.2324 1102.6 528.189
747 0 48.0779 12.5838 605 66.3058 1102.43 528.754
748 0 49.0322 11.6862 573 68.0558 1102.33 526.991
749 0 52.11 12.9534 675 65.9496 1102.86 527.317
750 0 53.0693 13.2468 703 65.7127 1102.61 526.007
751 0 53.0455 11.9332 633 67.9194 1102.45 525.445
752 0 57.2093 12.8301 734 66.2289 1102.18 524.47
753 0 57.1516 12.4406 711 67.0689 1102.98 523.695
754 0 60.0844 11.9332 717 67.5411 1102.97 522.778
755 0 61.1774 12.5863 770 66.0104 1102.91 522.422
756 0 63.0868 12.8236 809 66.0606 1103.24 520.2
757 0 64.1451 12.7367 817 66.3231 1102.74 517.812
758 0 67.1055 14.0823 945 63.9291 1102.5 519.19
759 0 69.091 13.0842 904 64.729 1103.03 518.396
760 0 72.0763 12.7226 917 64.4896 1102.63 518.444
761 0 73.0821 12.5338 916 65.6015 1102.84 514.093
762 0 76.3062 13.0658 997 64.339 1102.61 515.6
763 0 78.1103 13.0713 1021 64.4476 1102.42 513.683
764 0 80.1251 13.8159 1107 63.4526 1102.93 510.341
765 0 82.069 11.5391 947 66.3939 1102.26 511.324
766 0 86.1244 11.8782 1023 64.9501 1103.29 513.921
767 0 89.1244 13.1726 1174 63.5954 1102.16 511.15
768 1 46.0463 10.9021 502 65.1673 1102.93 531.145
769 0 49.104 11.7506 577 63.7695 1103.11 529.532
770 0 51.1748 12.4475 637 62.3783 1102.82 528.484
771 0 51.0422 13.6358 696 61.6552 1102.92 526.542
772 0 54.1228 13.5618 734 61.248 1103.03 526.168
773 0 52.0332 10.3588 539 65.885 1102.7 523.748
774 0 56.1121 12.5285 703 63.1422 1102.56 525.091
775 0 60.1319 12.0901 727 62.4691 1102.44 524.955
776 0 59.2831 13.1572 780 61.5692 1102.94 524.138
777 0 62.0764 12.3719 768 62.487 1102.71 522.301
778 0 62.0363 12.9924 806 62.0422 1102.88 519.453
779 0 64.1423 12.8464 824 61.9939 1102.53 519.834
780 0 67.1024 11.2813 757 63.4478 1102.76 518.19
781 0 70.0666 12.431 871 62.3146 1102.56 517.279
782 0 71.0768 12.6905 902 61.9313 1103.17 518.093
783 0 74.1086 11.9554 886 62.2506 1103.09 518.084
784 0 76.3254 11.5951 885 62.9356 1102.85 516.704
785 0 81.1144 13.4995 1095 59.9269 1103.4 514.268
786 0 84.1868 11.5339 971 62.3697 1102.91 510.625
787 0 87.1206 14.1643 1234 59.1313 1102.62 512.768
788 1 46.171 11.3708 525 61.7543 1102.65 532.086
789 0 47.304 11.944 565 62.2283 1102.27 529.984
790 0 49.131 11.9476 587 62.3169 1101.79 529.968
791 0 47.1173 10.3147 486 65.3539 1102.15 527.889
792 0 53.2652 11.377 606 62.4158 1102.5 529.378
793 0 55.1686 13.4497 742 60.5135 1102.64 527.966
794 0 56.1406 12.0234 675 62.077 1103.16 521.359
795 0 60.1614 13.4472 809 60.3585 1102.7 524.79
796 0 61.2528 13.1586 806 60.7568 1102.63 525.304
797 0 62.1836 12.8973 802 61.485 1102.72 521.944
798 0 65.168 11.6622 760 62.0987 1102.8 522.738
799 0 67.2336 13.9811 940 59.5596 1102.99 522.319
800 0 69.2099 12.7149 880 61.2705 1102.71 519.758
801 0 72.1847 13.0776 944 60.5032 1102.82 519.729
802 0 72.0863 12.3602 891 62.193 1103.07 516.44
803 0 75.1954 12.4742 938 61.1674 1103.01 518.953
804 0 77.2563 11.4683 886 62.0587 1103.1 516.766
805 0 80.2029 12.6679 1016 60.3238 1102.78 517.139
806 0 86.2629 14.6645 1265 57.9123 1102.74 513.272
807 0 86.4817 13.3323 1153 59.3382 1102.92 513.332
808 0 90.2692 13.5927 1227 58.6447 1102.56 513.105
809 0 93.1291 12.4021 1155 60.0745 1102.97 512.727
810 1 48.2804 12.1374 586 60.7986 1102.71 530.87
811 0 48.0763 11.7938 567 62.4321 1102.8 526.616
812 0 52.1961 13.3343 696 60.4698 1102.38 527.882
813 0 52.0847 12.4413 648 61.4244 1103.34 525.924
814 0 55.2325 13.579 750 60.296 1102.99 526.397
815 0 56.1037 15.0792 846 58.9953 1102.89 525.364
816 0 60.1342 13.3036 800 60.4088 1102.92 524.596
817 0 61.1505 13.1806 806 60.8809 1103.48 523.61
818 0 65.1638 14.1336 921 59.2986 1102.94 524.593
819 0 65.2224 13.247 864 60.9433 1102.88 521.015
820 0 67.129 12.5281 841 62.0713 1103.02 520.403
821 0 69.1818 14.975 1036 59.3041 1102.66 518.835
822 0 71.1441 12.9456 921 61.3692 1102.96 517.879
823 0 75.133 14.5875 1096 59.677 1102.31 515.614
824 0 76.287 11.732 895 62.4324 1102.12 514.818
825 0 80.2657 13.8914 1115 60.2323 1102.85 515.093
826 0 85.1635 13.8205 1177 59.808 1102.49 512.79
827 0 87.1299 13.4856 1175 60.6826 1102.75 511.719
828 0 90.2666 13.1721 1189 60.9924 1102.61 509.243
829 0 93.4194 13.5732 1268 60.6609 1102.44 509.972
830 1 47.4159 13.6663 648 61.5077 1103.12 529.894
831 0 50.1809 13.2919 667 61.7406 1101.93 530.777
832 0 54.2387 13.9568 757 61.5799 1102.5 529.115
833 0 53.1727 13.2963 707 62.6761 1102.57 529.881
834 0 57.194 14.8442 849 60.5677 1103.43 529.198
835 0 58.0903 13.4274 780 62.7128 1102.88 527.317
836 0 59.2569 12.3192 730 63.6685 1102.81 527.54
837 0 62.2712 15.7216 979 59.7058 1102.6 525.663
838 0 62.3717 13.9486 870 61.3931 1102.32 527.136
839 0 66.3197 12.6358 838 62.3878 1102.22 526.089
840 0 67.1112 15.1689 1018 60.6424 1102.7 523.308
841 0 71.1863 14.0196 998 61.6934 1102.89 521.575
842 0 72.1256 13.5458 977 62.2743 1102.84 521.702
843 0 74.1543 14.6586 1087 60.9328 1103.19 522.774
844 0 76.2328 14.6787 1119 60.9884 1102.98 520.567
845 0 80.724 14.7168 1188 60.6658 1102.94 516.676
846 0 81.1996 12.771 1037 63.3549 1102.12 514.149
847 0 85.2745 15.8312 1350 59.7333 1102.59 515.825
848 0 86.2014 14.8606 1281 61.3029 1102.63 515.082
849 0 91.341 14.8126 1353 60.7361 1102.19 512.792
850 0 92.5828 14.992 1388 60.8602 1102.16 511.94
851 1 53.2892 14.3556 765 61.2614 1103.06 531.268
852 0 53.2552 12.2429 652 63.3512 1102.57 530.808
853 0 56.394 12.9269 729 62.8738 1102.48 529.75
854 0 58.2167 13.3639 778 61.8522 1102.25 529.607
855 0 58.2343 13.5659 790 62.3709 1102.43 528.933
856 0 61.2357 15.5465 952 60.4464 1102.28 525.354
857 0 63.2624 15.0801 954 60.5933 1102.34 526.244
858 0 65.4125 13.3308 872 62.6984 1101.93 525.632
859 0 68.1123 14.8138 1009 61.1843 1101.98 524.403
860 0 69.2508 13.7038 949 62.9062 1102.8 522.689
861 0 72.4014 15.1378 1096 62.6834 1102.22 522.309
862 0 74.3097 13.8744 1031 64.4646 1102.52 521.949
863 0 76.1402 14.5784 1110 63.945 1101.72 520.063
864 0 80.3832 14.8912 1197 63.1069 1102.43 521.206
865 0 82.2998 14.3621 1182 64.5279 1102.37 517.914
866 0 85.4622 13.6552 1167 65.6787 1102.95 515.765
867 0 86.3062 13.8113 1192 66.2601 1102.38 514.11
868 0 90.2858 14.3212 1293 65.6713 1102.8 513.502
869 0 95.3161 14.8978 1420 65.1775 1102.91 511.718
870 0 97.4155 14.279 1391 66.1704 1102.51 512.384
871 0 100.456 14.9817 1505 65.9455 1102.16 510.987
872 1 52.269 13.9662 730 67.1685 1102.57 532.248
873 0 55.2506 14.4614 799 66.7597 1101.72 531.648
874 0 55.3047 15.5321 859 65.8626 1101.99 530.159
875 0 60.2507 14.2903 861 67.0499 1102.35 529.062
876 0 58.3265 13.7673 803 68.68 1102.51 528.269
877 0 62.185 15.8398 985 65.7574 1102.21 527.061
878 0 65.047 15.7117 1022 64.8356 1101.75 526.899
879 0 64.4064 13.6011 876 68.3699 1102.07 525.685
880 0 68.1304 15.3676 1047 65.978 1102.27 524.504
881 0 69.1589 14.604 1010 67.5208 1102.61 523.565
882 0 72.2691 13.6296 985 68.2497 1102.52 524.077
883 0 74.1018 16.113 1194 65.474 1102.36 521.356
884 0 77.4401 14.0108 1085 67.177 1102.31 521.321
885 0 83.3718 14.0335 1170 66.7829 1102.55 519.556
886 0 82.35 14.5234 1196 66.6062 1102.56 519.739
887 0 85.1653 13.0335 1110 68.8865 1102.46 515.696
888 0 89.525 13.5605 1214 67.5395 1102.62 516.765
889 0 89.2429 14.6566 1308 66.961 1102.63 515.104
890 0 95.4024 14.9263 1424 66.0681 1102.85 513.007
891 0 98.1443 14.6009 1433 66.3043 1102.43 512.008
892 1 51.1201 12.7543 652 68.5613 1102.67 530.552
893 0 54.1723 15.34 831 66.2852 1103.31 528.919
894 0 53.4505 14.5181 776 67.8621 1102.49 528.271
895 0 55.4149 13.6065 754 69.0212 1102.64 527.695
896 0 57.0965 14.9046 851 67.5217 1102.51 527.599
897 0 57.1996 13.9337 797 68.1945 1102.42 527.885
898 0 60.2485 13.8925 837 67.6834 1102.46 526.674
899 0 62.2685 13.9396 868 68.5265 1102.73 525.151
900 0 67.1372 16.4737 1106 64.2414 1102.95 525.891
901 0 68.1472 14.1312 963 67.4029 1102.63 523.857
902 0 71.3801 15.6766 1119 65.4182 1102.52 523.507
903 0 70.2936 14.4963 1019 67.5927 1102.29 522.473
904 0 75.2984 14.6484 1103 67.1269 1102.08 519.874
905 0 76.2335 14.6392 1116 66.9247 1102.55 520.163
906 0 79.2875 14.3781 1140 67.7509 1102.38 517.706
907 0 82.4018 13.7861 1136 67.9982 1102.4 515.941
908 0 83.2432 13.5387 1127 68.606 1102.9 515.177
909 0 86.0737 14.6038 1257 67.5084 1103.18 517.492
910 0 88.3214 13.5075 1193 69.4778 1104.07 516.254
911 0 89.0928 13.4354 1197 70.518 1103.71 513.7
912 0 92.3389 11.891 1098 72.2969 1103.9 512.078
913 0 96.1794 15.2839 1470 67.751 1104.15 511.583
914 0 99.1889 14.1346 1402 69.5335 1103.85 507.72
915 0 102.243 14.133 1445 68.8796 1103.01 509.278
916 0 105.414 11.175 1178 72.2895 1103.21 509.486
917 0 107.1 13.0626 1399 70.3624 1103.05 508.746
918 0 112.418 14.0014 1574 68.8024 1103.07 507.193
919 0 118.263 14.324 1694 68.7745 1102.55 502.19
920 0 120.627 14.2754 1722 69.2038 1102.63 501.721
921 0 124.542 14.1317 1760 69.6301 1102.41 496.719
922 0 128.106 14.0587 1801 69.8218 1102.97 497.892
923 0 134.186 15.2252 2043 68.557 1102.28 495.676
924 0 136.359 13.0244 1776 71.3367 1102.7 493.952
925 0 140.137 15.0852 2114 69.6414 1102.99 490.365
926 0 146.235 16.5008 2413 67.9764 1102.61 486.721
927 1 68.179 14.4033 982 72.3259 1103.17 522.768
928 0 70.1126 13.1075 919 74.0054 1102.74 521.683
929 0 71.1797 14.3299 1020 73.0392 1102.74 519.598
930 0 75.2569 15.7593 1186 71.1273 1102.71 518.552
931 0 76.4632 12.8035 979 74.0644 1102.87 521.884
932 0 81.0532 14.3486 1163 72.6526 1102.67 517.191
933 0 83.4658 16.33 1363 69.6867 1103.04 516.115
934 0 86.505 14.8315 1283 71.9532 1103.24 514.225
935 0 89.3418 13.6554 1220 72.8 1103.18 513.328
936 0 91.2729 14.1773 1294 72.5155 1103.44 511.044
937 0 93.1705 11.6346 1084 74.7869 1103.34 513.429
938 0 96.2174 13.0746 1258 73.9682 1103.26 509.236
939 0 100.21 13.9806 1401 73.5589 1102.82 506.505
940 0 104.256 12.6131 1315 74.2144 1102.41 508.582
941 0 107.327 12.6809 1361 75.1543 1102.8 504.305
942 0 111.324 12.5849 1401 75.1185 1103.34 503.949
943 0 110.281 11.5704 1276 77.7939 1102.88 495.162
944 0 116.63 12.8098 1494 75.1941 1103.55 504.518
945 0 123.324 13.7524 1696 74.1822 1103.5 499.354
946 0 126.24 13.0862 1652 74.6834 1103.25 499.278
947 0 130.219 12.8015 1667 75.6461 1103.67 496.958
948 0 135.585 12.8849 1747 74.3337 1103.41 497.859
949 0 140.554 14.2223 1999 73.2431 1103.82 495.511
950 0 144.244 14.6003 2106 73.32 1103.22 488.924
951 0 150.391 13.9636 2100 74.2038 1103.33 488.732
952 1 75.2365 13.9028 1046 74.7132 1102.78 519.204
953 0 76.2364 14.3501 1094 74.6197 1103.25 518.564
954 0 78.2337 14.2138 1112 74.5647 1103.34 518.23
955 0 80.5827 13.8988 1120 75.517 1102.38 514.614
956 0 86.4514 14.9217 1290 73.0411 1103.22 517.416
957 0 87.274 13.6467 1191 74.3291 1102.6 516.215
958 0 89.2792 14.2698 1274 74.4922 1103.14 513.284
959 0 93.2857 13.9357 1300 73.5815 1102.53 515.865
960 0 95.1451 15.2714 1453 72.8011 1102.8 509.593
961 0 100.182 15.0926 1512 72.4894 1103.34 508.632
962 0 103.34 14.0604 1453 73.7502 1102.99 508.485
963 1 49.1824 14.4971 713 72.6353 1103.85 532.323
964 0 45.2945 12.3856 561 77.3672 1102.63 531.947
965 0 50.2861 14.2982 719 73.7065 1103.02 531.702
966 0 48.1777 13.0973 631 76.71 1103.33 531.436
967 0 52.0731 12.5593 654 75.9541 1103.01 532.876
968 0 52.1227 13.7944 719 75.886 1103.37 530.768
969 0 55.2805 13.4224 742 76.1469 1103.01 530.654
970 0 58.2259 14.9074 868 74.4712 1103.43 528.288
971 0 57.0846 13.5063 771 77.5707 1103.3 527.733
972 0 59.2095 14.7274 872 75.8819 1103.44 526.537
973 0 62.13 15.0491 935 75.2385 1103.43 525.645
974 0 63.2158 13.5567 857 77.9055 1103.3 524.954
975 0 65.0839 15.3341 998 75.8597 1103.15 524.152
976 0 68.1742 14.9177 1017 76.178 1103.04 521.479
977 0 72.1286 15.001 1082 75.0998 1103.11 522.928
978 0 73.0685 13.7132 1002 76.8094 1102.88 524.187
979 0 76.1419 14.9852 1141 75.5197 1102.76 521.416
980 0 77.292 15.5643 1203 74.8462 1103.21 519.69
981 0 80.1995 15.3118 1228 75.3469 1102.86 517.026
982 0 83.1595 15.825 1316 74.0532 1103.36 515.169
983 0 86.0811 15.4273 1328 73.8502 1103.28 517.986
984 0 89.2048 14.9544 1334 74.9955 1103.43 513.876
985 1 40.3147 15.3294 618 75.6052 1103.61 535.783
986 0 40.3295 13.7864 556 76.0737 1103.26 536.588
987 0 41.1238 15.271 628 75.801 1103.79 535.949
988 0 43.1455 14.9263 644 75.7624 1103.3 535.689
989 0 47.1573 14.0169 661 76.3177 1102.55 535.303
990 0 47.1107 14.0732 663 77.549 1103.44 534.471
991 0 45.0908 15.0585 679 78.2194 1102.92 533.233
992 0 48.1827 16.3752 789 76.1698 1103.25 532.542
993 0 49.1089 15.8016 776 77.4884 1103.25 532.879
994 0 52.0731 16.3616 852 75.7441 1103.6 532.013
995 0 53.1452 14.9778 796 77.7952 1102.91 531.813
996 0 53.1844 16.8095 894 76.736 1103.7 530.072
997 0 55.0983 14.5013 799 80.3279 1103.22 530.635
998 0 56.055 16.8406 944 77.6335 1102.79 527.681
999 0 58.087 15.1497 880 79.5773 1103.31 528.547
1000 0 60.0855 15.5778 936 78.8259 1103.04 526.824
1001 0 61.0648 14.6074 892 80.2646 1103.05 527.138
1002 0 64.0719 16.7468 1073 76.781 1103.01 526.28
1003 0 66.0593 15.5466 1027 78.2142 1102.61 524.765
1004 0 69.1291 16.216 1121 76.1686 1102.72 526.018
1005 0 71.1091 15.7223 1118 77.5877 1102.11 523.004
1006 0 73.1713 15.9352 1166 77.5806 1102.53 521.712
1007 0 74.1294 14.9738 1110 78.7432 1102.74 522.415
1008 0 76.343 15.9674 1219 77.2633 1102.31 519.865
1009 0 80.1287 16.6482 1334 75.9708 1102.1 518.358
1010 0 84.1122 16.8346 1416 74.9329 1102.43 517.876
1011 0 86.2691 15.2082 1312 76.952 1102.68 519.379
1012 0 88.1268 16.0791 1417 76.1397 1101.95 515.389
1013 0 91.306 15.1907 1387 77.3915 1102.16 516.236
1014 0 94.1347 16.0833 1514 76.5766 1102.22 514.684
1015 0 97.2415 16.1659 1572 75.2863 1102.24 515.659
1016 0 101.191 15.4262 1561 76.7367 1102.78 513.782
1017 0 102.136 16.8206 1718 75.429 1102.87 511.658
1018 0 106.174 16.115 1711 76.6201 1102.69 509.802
1019 1 48.1614 14.2645 687 80.1033 1102.49 536.006
1020 0 48.094 14.139 680 81.6824 1102.47 534.257
1021 0 50.0864 14.8743 745 79.9852 1102.2 534.682
1022 0 50.1192 13.4679 675 82.5215 1102.36 533.711
1023 0 53.0339 15.1413 803 79.528 1102.1 533.832
1024 0 54.0931 15.3994 833 79.4154 1102.46 532.397
1025 0 53.0485 14.5527 772 82.0933 1102.11 532.091
1026 0 58.357 15.1139 882 79.8968 1102.49 533.446
1027 0 58.1491 17.2832 1005 77.1184 1101.67 533.547
1028 0 58.0827 15.7362 914 81.2538 1101.81 531.849
1029 0 60.1561 15.1938 914 82.2002 1101.52 530.987
1030 0 63.2256 15.0888 954 81.5839 1101.33 530.767
1031 0 63.1078 16.1311 1018 81.3006 1101.32 529.645
1032 0 66.0857 14.3904 951 82.878 1101.77 529.874
1033 0 64.1295 14.689 942 83.8577 1102.08 528.344
1034 0 68.1323 17.8036 1213 77.216 1101.87 527.947
1035 0 70.096 15.222 1067 81.2231 1101.99 526.512
1036 0 73.2608 14.4006 1055 82.3716 1101.56 524.642
1037 0 73.3178 15.5897 1143 80.5468 1101.75 524.241
1038 0 76.1196 13.3606 1017 83.1711 1101.02 524.34
1039 0 80.117 15.7395 1261 79.3315 1101.21 521.888
1040 0 82.0448 14.8456 1218 80.6461 1100.55 521.767
1041 0 86.1283 15.5234 1337 78.4884 1101.02 520.937
1042 0 89.2367 16.3946 1463 77.5974 1101.2 518.331
1043 0 92.27 17.0044 1569 75.8241 1101.41 517.858
1044 0 94.155 16.3348 1538 77.4837 1101 516.107
1045 0 98.1527 14.7525 1448 80.0407 1101 513.805
1046 0 101.246 14.2919 1447 80.0498 1100.79 514.708
1047 1 40.0486 14.3825 576 80.2274 1100.81 540.179
1048 0 42.015 14.0426 590 81.3492 1102.05 539.132
1049 0 42.0518 13.7449 578 81.9758 1101.78 539.671
1050 0 44.1112 13.6247 601 82.4642 1101.61 538.378
1051 0 45.0259 16.6127 748 79.1992 1101.32 537.182
1052 0 46.0463 14.4854 667 80.6507 1101.16 540.057
1053 0 46.102 14.5113 669 83.3528 1101.07 537.103
1054 0 47.0544 13.8351 651 84.3702 1100.75 538.507
1055 0 49.1372 15.2023 747 83.253 1101.37 535.569
1056 0 51.0955 14.8545 759 82.6179 1100.92 535.976
1057 0 51.0772 14.9186 762 82.8819 1101.01 535.261
1058 0 53.0776 14.5448 772 83.0168 1100.9 534.628
1059 0 54.0583 15.3538 830 82.1855 1101.33 533.717
1060 0 57.1775 14.1139 807 82.6047 1101.13 535.292
1061 0 57.1383 14.5262 830 83.6373 1101.48 533.941
1062 0 59.1662 15.0086 888 81.6723 1101.45 534.976
1063 0 60.1044 15.9556 959 79.9864 1101.67 534.252
1064 0 59.0808 14.6071 863 83.0695 1101.32 529.866
1065 0 65.1598 15.2548 994 80.4185 1101.64 532.148
1066 0 67.128 14.9714 1005 80.201 1101.05 531.163
1067 0 68.1311 14.4868 987 80.4296 1101.06 528.354
1068 0 68.3389 14.8378 1014 80.0207 1101.6 528.415
1069 0 73.222 14.8726 1089 78.8567 1101.22 529.207
1070 0 75.1227 16.0138 1203 77.9227 1102.26 525.771
1071 0 77.091 15.4752 1193 78.1744 1101.51 525.89
1072 0 80.0597 16.5377 1324 75.9736 1102 523.659
1073 0 83.1589 13.5524 1127 79.3966 1101.05 520.87
1074 0 87.144 15.1014 1316 76.2166 1102.34 521.414
1075 0 87.1297 15.3908 1341 76.6637 1101.87 519.101
1076 0 92.5521 15.3211 1418 75.2645 1101.88 517.801
1077 1 42.0629 14.93 628 76.5223 1102.08 540.462
1078 0 43.1352 14.1184 609 76.4368 1102.29 541.944
1079 0 46.0867 14.234 656 76.2988 1102.37 540.226
1080 0 45.1432 14.6866 663 77.4917 1102.24 537.9
1081 0 43.1387 14.6736 633 79.1043 1102.73 536.913
1082 0 48.1665 14.8443 715 77.1091 1102.39 537.143
1083 0 46.3154 15.0706 698 78.255 1102.73 537.181
1084 0 49.0856 16.5833 814 75.3378 1101.98 536.321
1085 0 50.2481 13.6324 685 80.2482 1102.9 535.365
1086 0 52.1456 17.2593 900 73.2478 1102.14 535.861
1087 0 53.1855 17.2039 915 74.0284 1102.26 534.369
1088 0 54.1322 15.3144 829 77.4415 1102.04 533.016
1089 0 56.3387 17.732 999 73.4324 1101.76 533.964
1090 0 58.2819 16.3344 952 75.6019 1102.85 532.372
1091 0 58.1679 15.6444 910 77.4473 1102.14 532.114
1092 0 60.178 15.1052 909 78.077 1103.32 532.001
1093 0 63.1816 16.2547 1027 75.4294 1102.5 530.688
1094 0 63.1542 15.6443 988 76.8057 1102.57 529.75
1095 0 64.3826 16.4175 1057 75.7739 1103.4 529.094
1096 0 68.3082 16.9526 1158 74.4456 1102.69 525.29
1097 0 71.0939 17.0479 1212 73.514 1102.02 525.765
1098 0 73.1579 16.4576 1204 74.2168 1102.37 523.912
1099 0 73.1283 16.601 1214 74.2323 1102.12 520.919
1100 0 74.1839 15.6368 1160 75.9233 1102.39 522.284
1101 0 78.1068 16.2982 1273 74.6119 1102.64 518.369
1102 0 81.1763 16.2855 1322 74.2685 1102.09 518.412
1103 0 85.1567 15.9471 1358 74.1333 1102.66 516.713
1104 0 87.1532 14.813 1291 76.1325 1102.27 516.438
1105 0 91.3387 16.51 1508 73.1379 1102.43 517.073
1106 0 94.318 15.0979 1424 75.2135 1102.24 514.966
1107 0 97.1898 17.08 1660 72.9217 1102.45 509.686
1108 0 99.1369 15.7661 1563 74.8093 1102.34 511.017
1109 0 100.194 14.0727 1410 77.0546 1102.76 511.653
1110 0 107.244 15.7678 1691 74.5908 1102.78 507.226
1111 1 46.0535 14.418 664 75.0271 1102.99 537.952
1112 0 45.1748 13.968 631 77.3201 1102.41 535.916
1113 0 47.1314 14.6824 692 76.2384 1102.76 536.145
1114 0 48.0488 15.0472 723 76.8935 1102.51 533.664
1115 0 49.1763 15.658 770 76.4584 1102.9 533.639
1116 0 49.1133 14.3342 704 79.1023 1103.11 532.908
1117 0 53.0638 15.9431 846 75.1147 1102.63 533.259
1118 0 54.1606 16.1372 874 75.0057 1102.65 534.355
1119 0 55.2052 15.379 849 77.4617 1102.05 531.776
1120 0 53.1217 14.4009 765 79.5725 1101.79 532.688
1121 0 57.0851 13.8039 788 79.9886 1102.68 531.532
1122 0 58.1708 14.9903 872 78.9633 1102.77 530.47
1123 0 61.2017 14.5911 893 79.3751 1102.62 528.666
1124 0 63.1589 16.8622 1065 75.0141 1102.9 529.604
1125 0 62.0804 15.0611 935 78.9059 1103.01 527.661
1126 0 67.125 16.432 1103 76.0399 1103.09 526.932
1127 0 67.13 16.0584 1078 76.5167 1103.09 526.265
1128 0 70.4481 16.0828 1133 75.9303 1103 526.16
1129 0 72.0875 16.8545 1215 74.8708 1103.14 524.972
1130 0 75.3238 15.9843 1204 75.8239 1103.01 523.637
1131 0 77.2905 15.6423 1209 76.2233 1102.72 523.055
1132 0 79.1718 15.8137 1252 76.2308 1102.57 521.188
1133 0 79.1727 14.6642 1161 77.9759 1102.75 521.78
1134 0 85.108 15.5802 1326 75.3341 1102.41 519.24
1135 0 86.1216 14.7698 1272 76.6792 1102.93 518.566
1136 0 89.1508 14.2119 1267 77.7111 1102.57 515.823
1137 0 93.2128 16.7144 1558 74.3306 1102.28 514.68
1138 0 95.1542 15.1859 1445 77.1702 1102.85 510.949
1139 0 98.1738 15.0549 1478 76.4493 1103 512.49
1140 0 102.391 14.7963 1515 77.4759 1103.32 510.929
1141 0 105.128 15.9805 1680 75.6065 1103.46 510.113
1142 0 109.215 14.8972 1627 77.3423 1103.74 507.77
1143 0 113.443 14.6682 1664 77.3365 1103.21 505.981
1144 0 116.16 15.7627 1831 75.6423 1103.26 505.717
1145 0 119.13 16.1001 1918 75.5652 1103.15 504.005
1146 0 122.15 14.9079 1821 77.3438 1102.85 503.279
1147 0 128.162 16.1748 2073 75.0458 1102.35 500.218
1148 1 57.0901 14.083 804 80.3458 1103.13 531.955
1149 0 57.1216 15.3532 877 79.8597 1103.34 532.169
1150 0 60.1351 15.6647 942 78.9724 1103.47 530.314
1151 0 59.3049 15.0746 894 80.4195 1103.58 531.698
1152 0 61.1468 15.9289 974 79.0996 1102.88 529.761
1153 0 64.1031 15.0071 962 80.0405 1103.09 529.322
1154 0 64.1226 15.5639 998 80.1202 1103.98 527.924
1155 0 66.1028 15.1431 1001 80.2478 1103.68 527.486
1156 0 68.0867 15.9356 1085 78.4802 1103.45 525.545
1157 0 69.1656 15.7737 1091 79.6031 1103.04 523.671
1158 0 72.1405 16.5372 1193 77.9061 1103.46 524.486
1159 0 74.062 14.8524 1100 80.5927 1103.25 524.294
1160 0 74.1083 15.9631 1183 79.5089 1102.62 525.124
1161 0 77.2366 14.967 1156 81.25 1103.2 522.333
1162 0 82.2352 16.8176 1383 76.7831 1103.3 522.729
1163 0 81.206 15.2205 1236 81.1796 1103.5 518.31
1164 0 83.1679 15.2463 1268 81.4566 1102.91 517.92
1165 0 88.153 16.0063 1411 78.9185 1103.39 516.819
1166 0 89.1544 15.1423 1350 80.9289 1103.12 516.859
1167 0 94.118 17.0956 1609 77.4823 1103.4 513.684
1168 0 96.1735 15.524 1493 78.9685 1103.47 515.499
1169 0 101.179 15.3787 1556 79.0758 1103.03 512.839
1170 0 102.12 15.1587 1548 80.2616 1102.82 508.22
1171 0 106.368 16.5087 1756 77.5188 1102.7 508.887
1172 0 110.146 15.2071 1675 79.2722 1103 507.17
1173 0 113.222 15.1825 1719 79.1611 1102.38 506.963
1174 0 117.161 15.1416 1774 78.8963 1102.61 503.994
1175 0 123.132 14.3748 1770 78.6045 1102.58 505.202
1176 0 127.336 15.5966 1986 77.779 1102.9 499.944
1177 0 131.174 15.1174 1983 77.829 1102.93 500.286
1178 0 136.454 15.6536 2136 76.8736 1103.18 498.369
1179 0 138.121 13.575 1875 79.8421 1103 496.989
1180 0 143.109 15.7222 2250 76.6436 1102.35 493.844
1181 0 146.316 15.323 2242 77.3417 1102.82 490.132
1182 0 153.488 14.9523 2295 77.5595 1102.2 488.803
1183 0 155.338 14.5683 2263 78.2771 1103.2 487.388
1184 0 160.202 14.4879 2321 77.237 1103.08 488.93
1185 1 62.1288 14.9689 930 80.8978 1102.65 529.143
1186 0 64.11 15.1926 974 79.9363 1103.01 528.172
1187 0 67.2441 16.0906 1082 77.9104 1103.16 526.116
1188 0 67.0622 14.7773 991 79.0373 1102.77 528.3
1189 0 70.154 13.9408 978 80.5031 1102.42 526.476
1190 0 73.2464 14.1167 1034 80.1141 1102.88 523.905
1191 0 75.093 16.1533 1213 76.3545 1102.61 524.146
1192 0 78.1216 15.5655 1216 78.2722 1103.1 519.404
1193 0 82.2563 14.0536 1156 79.0441 1103.03 519.265
1194 0 82.2937 16.1495 1329 76.1859 1102.53 517.521
1195 0 81.1643 14.2304 1155 78.7403 1102.63 518.971
1196 0 89.1426 14.875 1326 77.7609 1102.71 515.103
1197 0 90.1221 14.1253 1273 78.1493 1102.15 515.238
1198 0 93.1581 14.5559 1356 76.733 1102.61 516.038
1199 1 44.0776 14.5425 641 76.4774 1102.94 536.76
1200 0 45.0372 14.1439 637 77.5228 1102.46 535.793
1201 0 47.2156 15.2492 720 75.6208 1102.15 535.414
1202 0 46.0408 15.5514 716 76.1327 1102.71 536.068
1203 0 49.0596 13.4123 658 77.6565 1102.51 535.859
1204 0 51.0693 14.7838 755 76.5086 1102.56 533.428
1205 0 50.1102 14.1887 711 78.0928 1102.21 532.937
1206 0 54.1001 14.8798 805 75.7602 1101.85 532.657
1207 0 56.1273 15.5896 875 74.8251 1102.28 529.523
1208 0 56.1473 14.462 812 76.2525 1102.37 531.159
1209 0 57.1654 14.1169 807 76.1561 1102.38 531.705
1210 0 59.3833 15.1389 899 75.3059 1102.25 528.205
1211 0 63.1358 15.0311 949 73.6839 1102.57 529.543
1212 0 62.2923 15.5878 971 75.1298 1102.92 526.068
1213 0 66.139 14.152 936 75.8429 1102.75 526.754
1214 0 67.1941 13.9447 937 75.5176 1102.18 527.28
1215 0 70.5234 14.4208 1017 73.9587 1102.29 526.179
1216 0 70.1872 14.9458 1049 73.7579 1102.86 525.478
1217 0 74.1788 14.6133 1084 73.4456 1102.41 523.648
1218 0 79.0773 15.2635 1207 71.4615 1102.64 523.012
1219 0 80.1532 14.9464 1198 72.328 1102.74 519.866
1220 0 84.1769 15.5149 1306 71.2121 1102.62 517.378
1221 1 38.1083 13.068 498 75.3755 1102 536.363
1222 0 41.1432 15.5068 638 71.0533 1102.3 537.379
1223 0 41.1525 15.6977 646 71.7121 1102.35 536.282
1224 0 44.0767 16.0629 708 71.0847 1102.98 534.921
1225 0 44.0727 15.724 693 72.1991 1102.8 534.685
1226 0 46.1025 16.2464 749 70.5194 1103.07 534.75
1227 0 46.0555 15.0036 691 73.7366 1103.04 533.88
1228 0 46.1125 14.4429 666 75.1066 1103.27 532.288
1229 0 48.0673 14.0844 677 75.2806 1102.64 533.258
1230 0 50.0918 16.1304 808 71.8416 1102.68 533.522
1231 0 50.2273 14.2552 716 75.5321 1103.02 530.302
1232 0 54.1019 14.0661 761 74.4547 1103.02 531.03
1233 0 55.1144 16.2934 898 71.784 1102.73 528.738
1234 0 57.1292 15.8063 903 71.5615 1102.73 530.957
1235 0 59.4354 15.3612 913 72.8949 1103.14 527.804
1236 0 60.2168 15.3778 926 72.3197 1103.46 528.865
1237 0 62.0695 16.2076 1006 72.2962 1103.72 525.913
1238 0 62.2615 14.9209 929 73.3186 1103.7 524.885
1239 0 65.1278 15.6922 1022 72.09 1102.98 523.65
1240 0 67.1157 14.1398 949 73.3246 1103.34 524.762
1241 0 69.4081 15.7907 1096 71.1889 1103.37 524.345
1242 0 73.3405 15.5439 1140 71.2114 1103.37 522.213
1243 0 74.4161 15.1983 1131 71.4916 1103.66 521.713
1244 0 78.1954 14.9369 1168 70.8467 1104 520.828
1245 0 79.1618 14.7293 1166 71.7556 1103.2 518.032
1246 0 82.1252 14.9528 1228 71.1661 1102.71 516.565
1247 0 83.2342 14.6574 1220 71.823 1103.66 513.462
1248 0 88.2138 14.0568 1240 71.2185 1103.1 516.866
1249 0 90.4514 14.2397 1288 71.5233 1103.35 514.937
1250 0 93.0809 15.6101 1453 70.6235 1103.82 510.352
1251 0 97.29 15.6645 1524 69.5774 1103.21 510.34
1252 0 101.196 17.4216 1763 67.2921 1103.75 509.712
1253 0 102.246 13.1056 1340 73.0769 1103.5 507.311
1254 0 106.231 15.7769 1676 69.96 1103.38 506.208
1255 1 50.4795 14.2632 720 70.9819 1103.67 533.75
1256 0 52.275 14.8255 775 71.7006 1103.45 530.631
1257 0 54.1422 13.8894 752 72.6822 1103.95 530.358
1258 0 56.0626 14.6087 819 72.0061 1103.81 529.339
1259 0 57.0692 14.6314 835 72.7677 1103.29 529.575
1260 0 60.2436 13.96 841 73.0071 1103.72 529.717
1261 0 56.1026 12.2811 689 78.2496 1103.16 525.84
1262 0 60.1905 12.5767 757 76.3844 1103.28 528.518
1263 0 63.1115 15.6548 988 72.3694 1103.53 526.682
1264 0 64.2393 14.446 928 73.6444 1102.93 527.072
1265 0 63.1192 12.817 809 77.3523 1103.47 525.108
1266 0 67.1774 13.9928 940 75.1277 1103.23 524.002
1267 0 70.2068 14.3576 1008 74.1796 1103.2 523.797
1268 0 72.1612 14.9665 1080 73.2426 1103.31 524.973
1269 0 75.2599 13.2873 1000 75.07 1103.25 524.508
1270 0 78.3106 15.5024 1214 72.3921 1102.74 521.458
1271 0 81.2692 17.6574 1435 69.0774 1103.17 519.929
1272 0 83.1239 15.6634 1302 71.9109 1102.92 519.852
1273 0 86.1239 14.6533 1262 73.1553 1103.03 516.756
1274 0 90.1372 15.7759 1422 70.8122 1103.54 517.151
1275 0 91.0761 14.8996 1357 72.3102 1103.71 517.371
1276 0 96.3478 14.4684 1394 72.9978 1103 512.811
1277 0 99.7063 15.1746 1513 72.1097 1104.04 512.019
1278 0 103.228 16.3813 1691 70.4211 1103.43 509.633
1279 0 108.344 16.5584 1794 69.8473 1103.39 509.507
1280 0 111.309 15.0033 1670 72.3551 1103.15 505.62
1281 0 114.316 13.2789 1518 74.2819 1103.96 505.233
1282 1 58.2796 15.0482 877 72.3489 1102.18 529.043
1283 0 62.1555 13.5949 845 74.1858 1103.45 526.811
1284 0 63.4342 14.1406 897 73.573 1103.3 526.527
1285 0 65.2193 14.7962 965 71.9057 1102.15 526.967
1286 0 68.2931 14.7745 1009 72.2319 1102.57 525.272
1287 0 72.1762 15.1989 1097 71.1285 1103.2 522.986
1288 0 73.2615 14.6462 1073 72.0531 1103.25 523.333
1289 0 76.1318 14.4355 1099 72.4668 1103.11 523.055
1290 0 78.1802 14.2875 1117 72.5148 1102.29 520.802
1291 0 81.1909 14.1518 1149 72.7842 1102.93 518.547
1292 0 84.2682 14.1216 1190 71.4723 1102.89 521.808
1293 0 86.2876 15.796 1363 69.5693 1102.49 518.565
1294 0 89.409 14.6741 1312 70.8895 1103.25 516.355
1295 0 91.3539 14.099 1288 71.8913 1102.1 510.856
1296 0 96.2472 14.4628 1392 70.62 1102.86 514.818
1297 0 100.434 15.1542 1522 69.7405 1102.3 509.886
1298 1 49.1853 12.6461 622 72.7508 1103.17 532.082
1299 0 52.2946 13.5769 710 71.2268 1102.39 531.33
1300 0 55.3124 12.7458 705 72.3872 1103.24 532.711
1301 0 57.2118 13.0742 748 72.643 1102.55 530.013
1302 0 57.1076 13.0455 745 74.0148 1102.94 529.757
1303 0 60.1242 14.5865 877 71.439 1103.3 530.235
1304 0 61.2101 14.099 863 71.9826 1103.02 529.757
1305 0 62.3881 14.9868 935 70.4738 1103.01 530.093
1306 0 64.2821 14.0786 905 72.5171 1102.89 527.069
1307 0 68.1901 14.6062 996 72.2189 1103.22 525.271
1308 0 71.5518 13.9619 999 72.951 1103.11 523.884
1309 0 68.3258 12.2648 838 75.9547 1103.66 523.712
1310 0 74.2314 14.347 1065 72.8376 1103.7 521.865
1311 0 77.4025 15.8005 1223 69.9264 1103.54 522.069
1312 0 78.1759 14.1732 1108 72.9711 1103.62 519.764
1313 0 81.1637 15.8322 1285 70.9883 1103.18 519.153
1314 0 82.3271 12.7054 1046 74.979 1102.58 516.924
1315 0 87.1083 13.5119 1177 73.4027 1103.49 515.551
1316 0 91.406 13.9925 1279 72.6396 1103.18 515.024
1317 0 91.0996 13.5456 1234 73.2626 1102.59 511.226
1318 0 96.2206 15.028 1446 70.6086 1103.13 510.377
1319 1 52.114 12.3383 643 71.0358 1103.32 533.171
1320 0 53.2281 13.6206 725 69.9517 1102.72 531.476
1321 0 55.1306 13.4045 739 69.7388 1103.49 531.456
1322 0 58.2257 13.6366 794 69.3262 1102.9 530.984
1323 0 59.1044 13.9076 822 69.5 1102.9 530.387
1324 0 63.1284 13.5755 857 69.6978 1102.46 528.027
1325 0 62.36 12.6042 786 72.0471 1102.91 525.674
1326 0 65.1065 13.547 882 70.4501 1102.09 524.187
1327 0 68.3089 12.9998 888 70.5811 1103.02 524.262
1328 0 68.2277 12.9566 884 70.8801 1102.85 523.734
1329 0 72.2707 13.5325 978 69.6636 1102.53 524.433
1330 0 76.2964 13.7883 1052 68.7443 1102.57 522.953
1331 0 75.0445 13.2455 994 70.5362 1102.38 520.482
1332 0 80.2089 14.3874 1154 68.1317 1102.47 522.393
1333 0 83.1669 14.5972 1214 68.4498 1103.09 518.514
1334 0 85.3877 13.5968 1161 70.2722 1103.45 516.229
1335 0 89.2084 14.808 1321 68.2839 1102.82 516.755
1336 0 88.107 13.7106 1208 70.2103 1102.63 516.374
1337 0 92.3958 13.7236 1268 69.9211 1101.83 512.018
1338 1 47.0532 13.2191 622 68.9695 1102.57 533.915
1339 0 48.0519 14.1306 679 67.9264 1102.56 534.221
1340 0 48.2071 11.907 574 71.5871 1102.5 531.854
1341 0 52.1379 13.119 684 69.4167 1102.67 532.766
1342 0 49.0616 11.8626 582 72.457 1102.6 531.979
1343 0 57.0921 14.0475 802 67.7444 1102.48 531.358
1344 0 55.2284 13.6886 756 69.2553 1102.52 528.835
1345 0 58.1005 13.4422 781 69.2407 1103.04 529.908
1346 0 58.2696 14.1927 827 69.4111 1102.89 526.977
1347 0 60.0645 15.3335 921 67.5418 1102.35 526.518
1348 0 61.295 14.781 906 68.2219 1102.97 527.448
1349 0 63.1657 13.3142 841 69.6516 1103.11 526.919
1350 0 66.2538 13.0257 863 70.5284 1103.14 524.371
1351 0 71.1197 14.6232 1040 67.7163 1102.37 524.401
1352 0 73.0686 16.1218 1178 65.6435 1102.51 523.461
1353 0 73.0966 13.4616 984 69.125 1102.39 523.687
1354 0 74.1752 13.6838 1015 69.3616 1102.52 521.685
1355 0 75.125 12.8586 966 70.8799 1102.52 518.795
1356 0 76.094 15.034 1144 68.8138 1102.83 518.046
1357 0 81.2058 14.5433 1181 69.0559 1102.56 517.01
1358 0 86.3398 14.385 1242 68.0209 1103.33 518.361
1359 0 84.0851 13.3436 1122 70.5152 1103.05 514.949
1360 0 89.0811 13.3249 1187 69.9309 1102.97 513.184
1361 0 89.0811 13.28 1183 150.757 1101.96 513.192
1362 1 49.277 12.034 593 70.8078 1102.71 532.927
1363 0 49.1749 12.7097 625 69.6272 1103.17 532.386
1364 0 54.6116 12.1037 661 70.8578 1102.68 529.587
1365 0 52.1599 11.8865 620 71.1903 1103.49 532.284
1366 0 55.1826 13.1201 724 69.5843 1102.55 528.599
1367 0 57.2209 14.2081 813 68.2485 1103.08 529.411
1368 0 59.164 14.0288 830 68.006 1103.23 530.276
1369 0 60.1944 14.287 860 68.2756 1103.1 528.387
1370 0 62.0852 12.7083 789 70.4778 1103.46 526.991
1371 0 63.1628 12.8398 811 69.9482 1103.52 527.438
1372 0 66.314 14.175 940 68.4585 1102.97 524.94
1373 0 69.229 12.7981 886 69.605 1102.84 525.128
1374 0 72.1805 15.2534 1101 66.7793 1103.01 523.59
1375 0 71.2153 12.062 859 70.7776 1102.72 523.247
1376 0 75.2051 12.6986 955 69.3958 1102.2 521.96
1377 0 76.4229 14.6422 1119 67.7819 1103.31 519.63
1378 0 79.2183 12.7875 1013 69.6772 1103.45 519.815
1379 0 83.3371 13.5954 1133 68.6169 1103.38 518.583
1380 0 84.2523 11.5724 975 71.6072 1103.08 515.678
1381 0 89.3611 13.6972 1224 68.4306 1103.26 517.445
1382 1 43.1999 10.9491 473 70.833 1102.89 537.216
1383 0 44.3552 14.6995 652 67.4202 1103.09 535.106
1384 0 47.3227 13.82 654 67.3502 1102.85 535.161
1385 0 45.1526 11.9594 540 71.5833 1103.01 532.113
1386 0 46.0374 12.9894 598 69.6421 1103.02 533.237
1387 0 48.0911 13.516 650 68.8646 1103.22 532.672
1388 0 51.4051 12.275 631 69.4469 1103.08 532.564
1389 0 51.1866 11.3702 582 71.6959 1103.19 530.771
1390 0 51.2946 10.3325 530 72.3717 1103.01 531.872
1391 0 58.147 15.5124 902 65.1962 1102.56 531.456
1392 0 58.4307 12.0998 707 70.3564 1102.4 528.502
1393 0 60.4888 12.7462 771 69.2036 1103.42 528.768
1394 0 60.2861 11.9431 720 71.3986 1102.36 525.275
1395 0 63.4301 9.86914 626 72.2157 1103.18 528.57
1396 0 63.3659 12.1359 769 70.7594 1102.68 525.41
1397 0 67.4718 12.4497 840 69.881 1102.96 525.812
1398 0 70.3472 13.4192 944 68.8612 1103.17 523.753
1399 0 70.3846 11.0678 779 72.2478 1102.32 521.882
1400 0 70.199 14.9005 1046 69.0564 1102.67 520.768
1401 0 78.0924 12.4596 973 70.5324 1103.19 520.887
1402 0 77.1582 12.3512 953 71.4323 1102.73 517.612
1403 0 80.3754 12.5163 1006 70.9831 1102.28 520.077
1404 0 80.1842 12.7581 1023 70.7683 1102.57 519.355
1405 0 88.2724 12.654 1117 69 1102.72 521.204
1406 0 93.3111 13.9748 1304 68.148 1102.5 515.545
1407 0 98.1826 10.5008 1031 69.9651 1102.4 522.308
1408 1 48.2754 11.7037 565 69.1168 1102.99 537.94
1409 0 48.3229 12.9752 627 68.4498 1102.6 536.722
1410 0 53.1325 13.9463 741 66.1296 1103.06 537.084
1411 0 49.1346 12.537 616 70.6623 1102.88 533.677
1412 0 53.1329 12.6475 672 69.942 1102.49 533.756
1413 0 52.2966 11.9893 627 72.3684 1102.4 532.131
1414 0 57.4693 12.9634 745 68.3289 1101.7 534.616
1415 0 59.3639 13.3077 790 69.2025 1102.6 532.647
1416 0 56.29 12.8087 721 70.7836 1103.55 533.441
1417 0 59.3499 13.7658 817 70.1285 1103.38 531.028
1418 0 64.3196 14.0859 906 69.1236 1102.44 530.36
1419 0 65.3575 13.9081 909 69.8284 1102.16 529.744
1420 0 64.1777 12.8861 827 72.7969 1102.81 526.163
1421 0 69.403 15.1146 1049 69.6835 1102.7 526.473
1422 0 70.3657 12.9893 914 72.5667 1102.62 526.71
1423 0 72.2494 14.0486 1015 71.4867 1103.36 523.396
1424 0 75.3206 13.7413 1035 71.97 1103.09 521.949
1425 0 77.175 14.5773 1125 70.7449 1103.05 523.337
1426 0 81.2604 14.0782 1144 71.0297 1102.53 522.155
1427 0 82.2494 14.7478 1213 71.4295 1103.05 520.246
1428 0 84.3315 12.7355 1074 73.5279 1102.52 520.516
1429 0 89.4576 14.8003 1324 70.8331 1102.53 517.89
1430 1 42.4782 12.5476 533 73.454 1103.06 536.403
1431 0 46.3468 11.9749 555 73.3658 1102.91 536.863
1432 0 47.3665 12.2238 579 73.5941 1103.07 535.786
1433 0 48.3555 13.4835 652 71.431 1102.69 536.696
1434 0 50.2622 11.8976 598 73.3712 1103.04 536.052
1435 0 51.2711 12.7362 653 72.7443 1102.59 533.51
1436 0 55.1849 14.696 811 68.8705 1102.93 534.517
1437 0 56.353 14.285 805 69.6385 1102.34 533.822
1438 0 58.077 13.9814 812 70.1613 1102.52 533.628
1439 0 58.3384 14.6387 854 70.1967 1102.47 530.687
1440 0 60.2135 14.432 869 70.3579 1102 530.534
1441 0 62.2725 13.457 838 71.4606 1102.25 530.992
1442 0 64.4025 13.1517 847 72.7804 1102.36 526.463
1443 0 64.3572 13.0211 838 73.6217 1102.1 527.067
1444 0 67.0875 14.6823 985 70.4761 1102.12 527.051
1445 0 69.225 14.1278 978 71.3487 1102.12 524.998
1446 0 71.0963 13.6153 968 72.3533 1101.92 523.732
1447 0 72.0779 13.3605 963 72.5057 1101.98 524.025
1448 0 75.2726 13.6703 1029 71.9203 1102.41 522.551
1449 0 77.4483 13.48 1044 72.2979 1102.22 520.291
1450 0 79.2712 15.3019 1213 70.54 1102.65 518.749
1451 0 81.173 14.6847 1192 70.9287 1102.91 519.994
1452 0 83.1478 14.8651 1236 71.2888 1102.41 516.662
1453 1 43.2352 13.415 580 72.1328 1102.61 536.091
1454 0 44.1276 14.1181 623 71.496 1102.67 534.838
1455 0 46.123 12.6618 584 71.8048 1103.1 536.921
1456 0 47.172 12.5498 592 71.9122 1102.85 536.372
1457 0 49.2237 14.6271 720 69.5375 1103.01 534.115
1458 0 52.1123 14.1425 737 69.4953 1102.52 532.932
1459 0 51.037 11.5211 588 73.6122 1102.7 533.026
1460 0 55.2805 14.4355 798 68.9248 1103.43 533.539
1461 0 55.211 13.6748 755 70.2887 1103.1 532.906
1462 0 57.4185 13.6019 781 71.1472 1103.3 531.259
1463 0 58.4989 14.855 869 70.3234 1103.09 529.12
1464 0 60.1742 15.854 954 68.7621 1102.6 528.956
1465 0 59.1845 14.1591 838 72.4224 1102.76 527.296
1466 0 63.4215 16.4613 1044 67.7174 1102.45 527.761
1467 0 65.0961 15.1776 988 69.9585 1102.82 525.476
1468 0 66.2191 12.9268 856 72.8353 1102.42 525.144
1469 0 69.0351 15.1807 1048 69.1107 1102.21 524.595
1470 0 69.0934 12.4903 863 73.4705 1102.57 521.433
1471 0 74.2186 13.6085 1010 71.2792 1102.92 520.962
1472 0 76.2366 13.6417 1040 70.7606 1103.01 522.688
1473 0 79.1213 13.7637 1089 70.6547 1102.42 519.405
1474 0 82.1794 14.0424 1154 69.9099 1102.76 517.803
1475 0 84.2333 14.163 1193 69.7125 1103.13 516.105
1476 0 85.1636 12.8928 1098 71.52 1102.69 512.448
1477 0 87.1947 14.3243 1249 69.5997 1102.84 513.133
1478 0 93.1763 14.1882 1322 68.8245 1102.57 510.592
1479 0 96.1335 13.1276 1262 69.8693 1102.92 511.131
1480 1 45.0894 13.6617 616 70.1575 1102.69 534.651
1481 0 47.1705 14.3734 678 67.5782 1102.56 536.447
1482 0 48.4 13.0372 631 70.7845 1102.84 530.688
1483 0 50.0474 12.2284 612 71.4559 1102.24 531.057
1484 0 53.171 13.0522 694 70.5317 1102.34 529.065
1485 0 52.533 12.9442 680 71.0382 1102.5 529.035
1486 0 56.1518 13.321 748 69.5628 1101.81 529.743
1487 0 60.1713 14.3424 863 67.8134 1102.8 527.574
1488 0 59.2337 14.1305 837 68.9403 1102.42 526.603
1489 0 60.2434 15.2548 919 68.037 1102.63 526.134
1490 0 62.1925 14.3426 892 69.2433 1102.12 524.762
1491 0 69.103 14.5001 1002 68.017 1102.37 522.171
1492 0 70.1761 13.0529 916 69.7402 1101.46 521.531
1493 0 71.1045 15.0905 1073 67.3411 1102.28 520.646
1494 0 73.474 15.5974 1146 66.6466 1101.78 519.302
1495 0 73.0904 14.1332 1033 69.2546 1102.59 518.515
1496 0 80.3873 14.9277 1200 66.9317 1102.25 519.807
1497 0 82.1831 13.8106 1135 68.6978 1102.2 517.086
1498 0 86.1167 14.4455 1244 67.2781 1102.42 517.223
1499 0 89.2475 14.5999 1303 66.9685 1102.22 515.767
1500 1 40.2989 11.3651 458 71.3537 1102.1 534.683
1501 0 41.4274 12.0934 501 70.0399 1101.97 536.884
1502 0 41.0796 11.4899 472 72.3686 1102.69 533.324
1503 0 46.1282 14.0261 647 68.0216 1102.17 534.459
1504 0 47.1612 13.6553 644 68.4612 1102.47 533.464
1505 0 52.2876 14.994 784 65.7117 1102.09 531.853
1506 0 52.2707 14.8649 777 66.5907 1102.47 531.584
1507 0 53.3469 13.7965 736 67.4484 1102.78 533.22
1508 0 56.1289 14.7161 826 66.7506 1102.22 530.561
1509 0 57.1112 14.0078 800 67.7538 1102.24 529.182
1510 0 58.1867 14.9519 870 67.1839 1102.37 527.767
1511 0 62.2466 14.3783 895 66.1799 1102.39 529.437
1512 0 65.4724 15.0598 986 65.5588 1102.14 526.623
1513 0 65.2198 14.3515 936 66.3942 1102.47 527.355
1514 0 66.2498 15.3963 1020 66.0686 1102.29 525.215
1515 0 70.3385 15.724 1106 65.2984 1101.68 523.968
1516 0 73.4518 15.112 1110 66.0279 1102.86 522.832
1517 0 73.2838 14.3824 1054 67.5522 1102.34 520.43
1518 0 75.2094 14.0807 1059 67.7941 1101.8 521.314
1519 0 76.2912 14.1563 1080 67.8407 1102.01 521.407
1520 0 81.2952 15.3146 1245 66.3647 1102.1 516.308
1521 0 81.3657 14.6991 1196 67.2467 1102.07 518.135
1522 0 86.2131 14.2322 1227 67.2624 1102.52 517.089
1523 0 89.1245 16.404 1462 64.5698 1102.33 514.849
1524 0 93.3917 16.1256 1506 65.0505 1102.3 513.159
1525 0 94.1866 14.3863 1355 67.062 1102.2 513.508
1526 0 98.3511 14.8753 1463 65.9556 1102.01 510.905
1527 0 102.7 13.5248 1389 67.3038 1102 512.528
1528 1 51.2154 16.0694 823 64.0365 1102.11 533.243
1529 0 53.2259 15.5751 829 63.9602 1101.91 534.31
1530 0 52.2529 14.3724 751 67.3888 1102.16 529.941
1531 0 52.267 14.1772 741 67.6734 1102.36 528.687
1532 0 57.2197 14.1035 807 65.9083 1102.29 533.462
1533 0 59.5129 16.0133 953 64.1438 1102.47 531.452
1534 0 60.187 14.3054 861 65.7364 1102.19 531.663
1535 0 61.4016 13.0453 801 67.9213 1101.72 528.943
1536 0 63.2699 15.9317 1008 65.0962 1102.36 527.086
1537 0 67.3425 13.8249 931 66.6799 1102.19 526.571
1538 0 69.2478 14.6431 1014 65.4921 1101.83 527.245
1539 0 67.263 14.8819 1001 67.1399 1101.98 524.22
1540 0 71.0997 13.2912 945 68.3894 1101.31 525.037
1541 0 75.3453 14.772 1113 65.7484 1101.37 524.817
1542 0 76.3004 14.5478 1110 66.9838 1101.24 522.01
1543 0 79.2178 14.7063 1165 66.824 1101.86 521.321
1544 0 82.3743 14.4948 1194 67.2714 1102.1 519.582
1545 0 84.2686 11.9499 1007 69.5541 1101.61 517.245
1546 0 87.1896 14.8986 1299 66.7537 1101.99 515.42
1547 0 89.1202 16.0233 1428 65.9062 1101.84 513.568
1548 0 93.4508 15.6018 1458 65.6687 1101.56 511.541
1549 0 96.3478 14.676 1414 66.5955 1102.14 513.048
1550 0 99.3693 14.3203 1423 67.1918 1102.11 510.784
1551 1 46.2258 14.6455 677 65.2644 1102 535.547
1552 0 46.3256 14.1175 654 67.1437 1102.33 534.554
1553 0 47.1369 12.8137 604 69.0281 1101.71 535.679
1554 0 51.0741 14.2538 728 66.6662 1101.69 533.389
1555 0 50.2271 14.2154 714 68.3824 1101.79 532.259
1556 0 53.2245 13.6779 728 68.2569 1101.93 533.449
1557 0 53.3305 13.3507 712 68.7963 1101.88 532.956
1558 0 57.1874 14.0066 801 67.6242 1101.97 533.792
1559 0 59.2003 14.7466 873 66.9049 1101.59 533.341
1560 0 61.1541 14.9949 917 67.6052 1101.87 531.359
1561 0 61.2271 13.8664 849 69.4723 1102.35 530.537
1562 0 62.0743 15.6103 969 67.7926 1101.54 529.262
1563 0 65.4768 16.2195 1062 67.2552 1101.67 527.908
1564 0 67.7005 14.3278 970 70.2103 1101.54 526.672
1565 0 70.5042 14.7934 1043 69.2474 1102.14 526.157
1566 0 71.2464 14.3867 1025 69.9337 1102.15 525.727
1567 0 74.3361 13.7484 1022 69.9403 1101.85 525.727
1568 0 76.3793 15.1219 1155 68.8519 1101.68 523.058
1569 0 76.0913 13.8649 1055 71.1829 1102.4 519.274
1570 0 81.2192 15.4643 1256 67.949 1101.8 519.157
1571 0 82.245 14.9796 1232 68.6875 1101.76 520.102
1572 0 87.3978 15.0233 1313 67.7068 1102.15 518.858
1573 0 85.4252 13.9186 1189 69.5391 1102.07 519.617
1574 0 91.1836 15.0246 1370 67.7518 1101.95 515.617
1575 0 93.1477 13.7309 1279 70.3253 1102.21 511.383
1576 0 99.4828 13.8918 1382 68.9378 1101.78 513.981
1577 1 50.1966 11.3952 572 71.2325 1101.96 534.93
1578 0 52.1494 13.3271 695 70.9468 1101.9 531.905
1579 0 52.1874 12.8 668 71.762 1102.01 533.741
1580 0 56.1305 13.3617 750 70.5787 1101.94 532.627
1581 0 57.1219 13.4274 767 71.116 1102.09 531.741
1582 0 59.393 16.4161 975 67.8226 1101.95 531.168
1583 0 61.1558 14.3241 876 70.5639 1101.64 530.236
1584 0 62.2032 15.0314 935 70.2834 1102.23 527.671
1585 0 62.2104 13.2132 822 73.0511 1102.71 528.754
1586 0 68.1697 15.1534 1033 69.7832 1101.98 526.117
1587 0 71.4506 14.9194 1066 69.4437 1101.73 526.412
1588 0 72.2852 17.6385 1275 66.6133 1101.54 524.233
1589 0 78.1561 18.9365 1480 52.8892 1100.96 525.684
1590 0 72.2482 14.6716 1060 72.0613 1101.76 521.951
1591 0 78.4078 14.1057 1106 71.7975 1101.9 520.148
1592 0 80.1027 15.0557 1206 70.3134 1101.73 521.007
1593 0 81.148 13.4692 1093 72.7649 1101.7 519.053
1594 0 87.1732 14.8899 1298 70.49 1101.08 517.203
1595 0 86.0928 12.8234 1104 73.1558 1100.28 517.228
1596 0 92.2272 14.0197 1293 71.2111 1100.84 514.015
1597 0 95.5063 15.1508 1447 69.302 1100.93 512.584
1598 0 96.4084 14.895 1436 69.9255 1100.71 512.325
1599 1 46.4037 12.6283 586 72.2474 1100.77 533.831
1600 0 47.4467 11.7184 556 73.0827 1101.47 534.286
1601 0 50.3248 13.9693 703 70.441 1101.72 535.108
1602 0 51.128 13.828 707 70.4441 1101.15 533.95
1603 0 53.2394 13.9934 745 69.8107 1101.36 533.768
1604 0 53.3189 14.6477 781 69.6799 1101.9 532.015
1605 0 56.2407 15.3981 866 68.5162 1101.84 532.288
1606 0 57.1611 14.1005 806 70.4107 1101.38 531.146
1607 0 61.2869 14.734 903 68.6777 1101.24 531.544
1608 0 60.3352 14.4692 873 70.315 1101.42 529.372
1609 0 63.1446 14.9656 945 69.4413 1101.53 527.937
1610 0 63.1055 15.3236 967 69.2079 1101.47 527.391
1611 0 69.5665 17.0341 1185 65.8135 1101.97 526.032
1612 0 69.455 15.0169 1043 69.2483 1101.59 525.098
1613 0 72.4223 15.7272 1139 68.6514 1101.13 523.237
1614 0 74.2547 13.117 974 71.5431 1102.25 524.744
1615 0 77.3027 15.3293 1185 68.1738 1101.48 524.157
1616 0 81.2028 16.9452 1376 66.5443 1101.29 520.513
1617 0 80.5467 14.9851 1207 69.8177 1101.87 518.656
1618 0 85.5916 15.1884 1300 68.9546 1102.06 517.812
1619 0 87.416 14.8829 1301 69.6226 1101.77 515.907
1620 0 87.2005 13.8761 1210 71.2835 1101.89 514.188
1621 0 93.5182 14.3822 1345 69.5532 1102.02 513.829
1622 0 96.3807 15.9368 1536 67.1758 1101.76 516.533
1623 0 95.3326 14.3707 1370 70.6131 1101.89 511.307
1624 0 102.41 15.311 1568 68.4152 1102.03 511.348
1625 1 50.3416 12.8522 647 70.7682 1102.41 535.111
1626 0 52.1659 13.7446 717 70.2943 1102.01 532.58
1627 0 54.3435 14.2795 776 69.7062 1102 531.774
1628 0 54.1337 15.3694 832 68.5974 1101.9 532.776
1629 0 55.2437 13.7391 759 71.361 1101.5 530.116
1630 0 60.1386 14.2172 855 69.055 1101.72 530.792
1631 0 63.2215 13.6979 866 70.179 1101.21 528.4
1632 0 63.3756 14.5008 919 69.3079 1101.71 528.467
1633 0 64.0958 13.9011 891 70.4097 1102.33 527.788
1634 0 64.1628 13.606 873 71.6552 1101.84 524.647
1635 0 71.358 16.144 1152 66.638 1102.26 525.966
1636 0 71.3933 13.7828 984 70.3415 1102.01 525.646
1637 0 69.2519 12.8949 893 73.3012 1102.39 521.605
1638 0 74.3837 13.6051 1012 71.834 1102.58 520.479
1639 0 77.1523 13.5446 1045 71.622 1102.14 520.972
1640 0 79.2508 12.8579 1019 72.6506 1102.35 519.601
1641 0 82.1563 14.728 1210 69.1248 1102.28 519.333
1642 0 85.3237 13.9352 1189 71.0589 1102.07 517.776
1643 0 87.1137 16.8401 1467 67.4451 1101.68 514.069
1644 0 90.2243 14.4196 1301 69.9316 1102.07 515.374
1645 0 93.2417 15.669 1461 68.6194 1101.8 510.211
1646 0 95.2382 14.406 1372 69.9257 1101.39 510.441
1647 0 97.208 15.5028 1507 68.6218 1102.26 511.135
1648 0 100.39 13.8361 1389 70.2498 1102.07 510.654
1649 0 105.31 16.6936 1758 66.7349 1101.99 507.912
1650 0 107.321 15.3092 1643 68.7158 1102.13 506.11
1651 0 110.141 16.2156 1786 67.6657 1102.02 504.198
1652 0 116.199 13.9932 1626 70.0123 1101.35 501.974
1653 0 119.284 13.9918 1669 70.1067 1101.1 504.134
1654 0 119.284 13.8829 1656 70.7723 1101.89 496.188
1655 1 58.3045 14.8702 867 68.5202 1102.12 528.829
1656 0 63.2228 14.5517 920 69.0728 1101.89 526.377
1657 0 65.2999 14.242 930 69.6935 1102.29 524.545
1658 0 67.2819 13.4211 903 70.4208 1101.74 526.049
1659 0 70.3773 14.1239 994 68.833 1101.81 525.446
1660 0 72.213 14.0418 1014 68.8807 1101.7 526.34
1661 0 72.5791 15.0319 1091 67.7534 1101.87 525.613
1662 0 75.4199 13.9884 1055 69.7991 1101.75 520.97
1663 0 77.2521 13.9284 1076 70.2732 1102.08 520.24
1664 0 79.237 14.1222 1119 70.6613 1101.77 519.239
1665 0 82.322 14.2246 1171 70.1221 1101.33 517.966
1666 0 83.3351 14.0877 1174 71.2675 1101.62 514.376
1667 0 88.2547 14.3902 1270 69.3472 1101.51 516.255
1668 0 88.1954 14.638 1291 70.1363 1101.5 513.317
1669 0 93.2071 14.0654 1311 69.9825 1101.41 510.66
1670 0 96.5619 14.571 1407 68.6446 1101.74 512.306
1671 0 100.517 14.1867 1426 69.0449 1101.39 508.173
1672 0 101.183 14.2811 1445 68.9052 1101.87 505.173
1673 0 106.36 14.6672 1560 67.8538 1101.98 505.317
1674 0 110.558 13.3595 1477 69.2343 1102.33 505.626
1675 0 110.197 13.612 1500 69.4673 1102.22 501.591
1676 1 50.1607 12.1809 611 70.0262 1101.92 533.074
1677 0 50.245 12.2997 618 71.3236 1101.99 529.377
1678 0 56.3108 14.5443 819 66.6386 1101.48 529.628
1679 0 57.3051 13.4019 768 68.9661 1101.28 528.392
1680 0 60.4669 14.6196 884 66.3088 1101.49 528.725
1681 0 62.5011 12.9598 810 68.5901 1102.09 526.583
1682 0 61.4609 14.2367 875 67.4011 1101.75 528.723
1683 0 64.2682 12.6812 815 68.7239 1102.53 528.106
1684 0 66.2491 13.6153 902 68.4756 1101.93 527.2
1685 0 72.3845 14.9341 1081 66.0953 1102.02 525.339
1686 0 71.4033 14.4531 1032 67.5698 1101.8 524.039
1687 0 74.2952 15.7076 1167 65.9572 1101.95 520.818
1688 0 75.2135 14.5187 1092 67.7692 1101.57 520.286
1689 0 76.3838 13.6416 1042 68.8724 1101.2 520.925
1690 0 80.3407 14.3016 1149 67.8355 1102.22 520.738
1691 0 81.302 13.7512 1118 68.8345 1101.64 516.077
1692 0 86.4821 14.2688 1234 67.6694 1101.82 516.25
1693 0 88.4887 15.4031 1363 66.3324 1102.3 514.003
1694 0 89.3511 14.5382 1299 67.3988 1101.78 516.611
1695 0 94.4366 15.6189 1475 65.1241 1101.09 517.111
1696 0 97.492 15.2525 1487 65.6664 1101.71 513.958
1697 0 100.447 16.9343 1701 63.7725 1101.4 511.73
1698 0 106.472 16.3048 1736 64.3393 1102.16 511.176
1699 0 107.276 13.7589 1476 68.2493 1102.05 506.285
1700 0 111.638 15.0218 1677 66.4627 1101.89 507.08
1701 0 114.741 14.7201 1689 67.1818 1102 504.615
1702 1 56.1628 15.0456 845 67.2639 1101.73 529.547
1703 0 58.6189 12.8628 754 69.2958 1101.65 528.907
1704 0 57.3387 13.4464 771 69.7588 1101.41 528.737
1705 0 63.344 13.2294 838 68.5191 1101.67 529.264
1706 0 65.5467 14.8444 973 66.6824 1101.82 529.301
1707 0 66.3902 15.4692 1027 66.3749 1101.49 528.493
1708 0 69.7665 14.9069 1040 67.2606 1101.8 524.783
1709 0 69.2416 13.3735 926 69.6836 1101.5 524.819
1710 0 71.1597 14.4464 1028 68.3823 1101.28 521.565
1711 0 74.216 15.0911 1120 67.0045 1101.96 522.938
1712 0 77.2194 14.6595 1132 67.8516 1101.32 521.134
1713 0 80.1753 15.2291 1221 66.9828 1101.54 519.676
1714 0 77.371 13.7002 1060 70.2745 1101.74 516.958
1715 0 86.2306 14.7395 1271 67.1581 1102.11 518.415
1716 0 88.5971 15.7906 1399 66.1615 1102.4 515.684
1717 0 90.2678 14.9333 1348 67.3242 1101.53 516.758
1718 0 89.4303 12.9598 1159 69.5013 1101.51 517.198
1719 0 95.3335 13.972 1332 67.9992 1101.78 513.147
1720 0 98.5104 14.5162 1430 67.1944 1101.52 509.621
1721 0 100.201 13.952 1398 67.9142 1101.82 508.192
1722 0 104.304 16.1259 1682 64.9946 1101.91 507.768
1723 0 104.374 14.8984 1555 66.6277 1101.51 503.389
1724 1 55.2798 13.296 735 67.2463 1101.21 531.32
1725 0 56.3711 12.808 722 67.7216 1101.5 531.927
1726 0 58.4542 15.2256 890 64.6966 1101.57 531.402
1727 0 54.2991 15.341 833 67.4778 1101.44 528.516
1728 0 60.1481 13.4834 811 68.1887 1100.95 528.111
1729 0 63.2145 15.1548 958 65.5115 1101.72 530.816
1730 0 67.2298 13.1192 882 68.3946 1101.23 524.246
1731 0 69.191 14.9441 1034 65.9159 1101.6 524.716
1732 0 69.5086 15.0629 1047 66.1901 1101.67 522.888
1733 0 72.0844 13.6645 985 67.2193 1101.15 525.827
1734 0 73.1836 15.9735 1169 65.3422 1101.7 523.82
1735 0 77.092 14.4373 1113 67.0629 1101.72 522.13
1736 0 76.1171 15.555 1184 66.7247 1101.22 519.382
1737 0 80.1745 13.9321 1117 68.1074 1101.59 518.112
1738 0 84.3348 13.731 1158 67.8437 1101.37 517.343
1739 0 88.2229 13.6359 1203 67.7805 1101.76 517.838
1740 0 90.1808 13.5062 1218 68.2586 1101.82 512.429
1741 0 92.1955 12.9833 1197 68.9908 1101.76 514.566
1742 0 95.2844 14.8083 1411 66.7498 1101.83 511.608
1743 0 97.1191 13.5916 1320 68.2659 1101.85 509.405
1744 0 97.2038 13.1888 1282 68.9064 1102.11 506.389
1745 0 105.537 13.5403 1429 67.6382 1101.59 509.302
1746 0 108.234 13.2213 1431 68.2781 1101.69 502.997
1747 0 113.27 16.3503 1852 63.9665 1101.4 501.668
1748 1 43.0534 15.0511 648 69.1142 1101.48 532.877
1749 0 50.1978 14.0046 703 67.3784 1101.65 535.492
1750 0 49.0661 14.3684 705 68.9177 1101.51 531.082
1751 0 51.0773 15.9366 814 67.1867 1101.83 531.362
1752 0 55.5795 14.1599 787 68.7319 1101.79 531.288
1753 0 57.1171 14.0413 802 69.005 1101.86 529.617
1754 0 58.164 13.3588 777 70.1429 1101.62 528.254
1755 0 57.1533 15.3622 878 68.3132 1101.36 528.03
1756 0 63.2666 14.2729 903 68.2525 1101.87 527.461
1757 0 63.1866 14.5284 918 68.2593 1101.83 528.127
1758 0 66.3652 15.1284 1004 67.245 1101.59 526.698
1759 0 68.2328 13.8203 943 69.1007 1101.88 522.946
1760 0 71.1367 15.5475 1106 65.9448 1100.9 526.46
1761 0 73.384 13.8859 1019 68.5672 1100.9 522.211
1762 0 77.2246 15.3837 1188 65.702 1101.42 523.633
1763 0 79.4532 15.808 1256 65.168 1101.84 519.991
1764 0 78.5272 12.8873 1012 70.1285 1101.54 518.516
1765 0 82.1275 13.0164 1069 69.1618 1101.93 518.821
1766 0 87.1971 14.6106 1274 66.8265 1101.75 519.161
1767 0 91.2225 16.6297 1517 64.0099 1101.82 519.847
1768 0 92.2097 16.5926 1530 64.7333 1101.18 513.258
1769 0 95.3868 15.348 1464 66.7097 1101.8 511.477
1770 0 96.0832 13.7277 1319 68.7475 1102.13 513.651
1771 0 102.276 14.324 1465 67.6648 1101.67 511.195
1772 0 105.231 15.5657 1638 66.7411 1101.41 511.811
1773 0 107.34 13.9837 1501 69.449 1101.72 505.173
1774 0 112.202 14.9819 1681 67.8049 1101.5 507.116
1775 0 114.497 15.3716 1760 68.1403 1101.54 501.838
1776 0 120.123 15.8838 1908 67.1971 1100.72 500.34
1777 0 125.365 17.5807 2204 64.6361 1100.93 500.978
1778 0 128.391 15.3437 1970 67.6766 1101.21 501.588
1779 0 132.226 14.9744 1980 68.5904 1101.15 499.437
1780 1 65.3372 15.0756 985 68.7492 1100.95 529.104
1781 0 66.192 15.6666 1037 68.4706 1101.53 528.894
1782 0 69.1738 16.1333 1116 67.4552 1101.89 529.316
1783 0 68.1039 12.9949 885 72.3017 1102.01 525.51
1784 0 72.1579 15.4522 1115 69.47 1101.84 525.274
1785 0 72.2879 13.9581 1009 72.4906 1101.75 522.242
1786 0 76.514 14.6248 1119 70.9151 1101.85 523.523
1787 0 78.2707 15.5358 1216 70.2286 1101.86 524.238
1788 0 81.1494 14.4178 1170 70.9017 1101.52 521.174
1789 0 84.2885 16.2418 1369 69.3397 1101.46 518.392
1790 0 86.2432 15.6534 1350 69.8889 1101.61 518.016
1791 0 88.4176 15.2345 1347 70.3831 1101.99 520.039
1792 0 91.3837 15.9656 1459 69.9534 1102.17 518.223
1793 0 95.3734 18.1812 1734 66.4873 1102.17 516.049
1794 0 97.2174 15.1516 1473 71.072 1102.49 514.238
1795 0 100.2 14.551 1458 71.6049 1101.52 513.398
1796 0 102.268 15.5376 1589 70.241 1101.28 510.797
1797 0 106.229 15.1371 1608 70.7929 1102.14 509.68
1798 1 51.2279 13.1959 676 70.1879 1102.13 535.543
1799 0 54.0939 15.6025 844 68.3045 1101.68 533.947
1800 0 55.1312 13.6402 752 72.1769 1101.59 530.243
1801 0 58.1841 14.9354 869 69.9045 1102.08 533.086
1802 0 57.3486 13.601 780 73.3718 1101.81 530.181
1803 0 61.1501 16.3696 1001 69.4655 1102.1 530.186
1804 0 62.3974 14.9526 933 71.3333 1101.65 530.073
1805 0 64.1938 14.4718 929 71.7858 1101.68 530.391
1806 0 66.1804 14.4605 957 72.9519 1101.66 527.961
1807 0 69.1383 15.4184 1066 70.985 1101.69 527.948
1808 0 69.3646 15.296 1061 71.5193 1102 527.477
1809 0 68.2507 14.9009 1017 73.0285 1102.29 525.636
1810 0 71.2737 16.3875 1168 71.7586 1101.86 524.039
1811 0 74.1429 15.8073 1172 71.8208 1101.67 524.772
1812 0 75.4373 12.9246 975 76.0462 1101.54 524.247
1813 0 77.584 15.0804 1170 73.4479 1101.41 522.246
1814 0 81.3139 15.5324 1263 72.5083 1101.85 519.614
1815 0 81.2055 16.2797 1322 72.3654 1100.93 516.626
1816 0 84.0917 13.9253 1171 75.5064 1100.87 515.435
1817 0 87.2378 15.154 1322 73.5287 1101.02 516.11
1818 0 90.3427 15.3194 1384 73.1525 1100.98 514.081
1819 0 94.2846 14.8168 1397 72.7853 1101.85 515.394
1820 0 96.2062 15.103 1453 73.4384 1101.08 512.764
1821 0 99.3015 15.0652 1496 73.4439 1101.36 509.467
1822 0 102.114 12.4664 1273 76.6866 1101.56 508.851
1823 0 104.276 13.8862 1448 75.2742 1101.04 504.653
1824 0 111.337 13.9038 1548 74.3508 1101.24 506.569
1825 0 112.38 15.2874 1718 73.3236 1101.21 503.146
1826 0 115.125 15.4268 1776 72.5113 1101.29 504.197
1827 0 117.233 12.8804 1510 76.2225 1101.43 500.725
1828 0 123.143 15.754 1940 71.734 1101.15 502.997
1829 0 126.485 14.2942 1808 74.781 1100.94 495.331
1830 1 66.0803 13.1053 866 73.8533 1100.62 527.142
1831 0 65.2923 12.5436 819 74.8071 1100.79 525.437
1832 0 69.276 13.7854 955 72.5937 1101.07 526.176
1833 0 73.2976 14.3661 1053 70.9772 1101.07 525.824
1834 0 74.2985 15.007 1115 71.2404 1100.87 524.409
1835 0 74.2184 13.9319 1034 72.7814 1100.32 524.794
1836 0 77.5771 13.9087 1079 72.6154 1100.44 523.059
1837 0 80.3691 14.4459 1161 72.0138 1101.01 522.035
1838 0 82.2873 13.4407 1106 75.1582 1100.84 519.663
1839 0 83.33 14.0886 1174 74.9523 1100.6 516.499
1840 0 85.2991 14.6778 1252 73.8435 1100.68 516.356
1841 0 89.2495 14.8796 1328 73.3554 1100.54 515.581
1842 0 92.3976 15.9203 1471 71.5105 1100.28 515.549
1843 0 91.3791 13.2525 1211 75.9761 1101.12 514.666
1844 0 92.5364 13.3569 1236 76.7581 1101.25 510.126
1845 0 100.331 16.4755 1653 70.4634 1101.02 514.317
1846 0 103.429 14.5993 1510 73.3815 1101.02 510.874
1847 0 105.272 14.7618 1554 73.8134 1101.12 507.471
1848 0 107.221 12.4603 1336 77.515 1100.45 504.314
1849 0 112.411 14.7672 1660 73.0506 1101.04 506.057
1850 0 117.271 14.5731 1709 73.3259 1100.14 503.311
1851 1 61.2857 14.6364 897 73.4928 1100.83 527.254
1852 0 62.4452 14.1564 884 74.0102 1101.12 527.98
1853 0 64.3573 14.6992 946 71.723 1100.46 529.966
1854 0 63.3649 12.8778 816 76.337 1101.03 523.125
1855 0 69.1987 13.7286 950 74.4589 1101.4 521.861
1856 0 69.2777 13.7851 955 74.3812 1101.28 521.168
1857 0 72.2997 15.3804 1112 71.3939 1100.84 522.835
1858 0 69.2569 13.9914 969 74.7461 1100.6 520.642
1859 0 72.4679 13.2059 957 75.395 1101.62 519.818
1860 0 78.4673 14.095 1106 73.566 1101.1 519.442
1861 0 79.4539 15.0905 1199 72.769 1101.37 518.887
1862 0 81.3061 14.0703 1144 74.1573 1100.79 515.21
1863 0 84.3845 13.7703 1162 73.9329 1100.99 516.704
1864 0 84.4911 13.2558 1120 75.8688 1101.34 511.445
1865 0 86.1423 11.8293 1019 77.1737 1100.9 512.254
1866 0 92.3775 14.1918 1311 73.704 1101.31 510.757
1867 0 93.2645 14.6787 1369 72.6209 1101.04 512.015
1868 0 98.3274 13.6279 1340 73.644 1100.2 511.183
1869 0 99.1987 13.6897 1358 73.9102 1100.59 505.803
1870 0 103.241 16.0886 1661 71.0259 1100.57 505.954
1871 0 109.384 16.0901 1760 69.3631 1100.85 505.594
1872 0 113.195 15.9195 1802 69.3196 1101 504.102
1873 0 116.282 14.9637 1740 70.9236 1101.07 501.319
1874 0 119.39 14.4233 1722 71.4466 1100.95 501.306
1875 0 122.284 14.6708 1794 71.0541 1100.39 497.154
1876 0 129.527 13.5339 1753 71.3759 1100.53 498.485
1877 0 133.403 14.1451 1887 71.0673 1100.58 490.307
1878 0 139.242 15.3474 2137 69.664 1100.5 486.826
1879 0 142.324 14.9378 2126 69.8857 1100.21 489.881
1880 1 66.3554 14.4374 958 69.6754 1100.89 524.62
1881 0 70.3874 12.3175 867 71.481 1100.87 525.513
1882 0 72.2502 14.173 1024 70.6807 1101.04 521.72
1883 0 76.2796 14.9057 1137 68.7704 1101.09 523.192
1884 0 76.347 13.5565 1035 70.885 1101.13 521.33
1885 0 80.3632 15.9028 1278 67.9194 1100.73 520.015
1886 0 82.2216 14.9839 1232 69.0317 1100.88 518.268
1887 0 85.2212 15.7942 1346 68.4874 1101.6 516.911
1888 0 85.3285 15.329 1308 68.6583 1100.8 519.339
1889 0 89.3961 15.0007 1341 69.0708 1100.82 516.23
1890 0 89.4131 13.5551 1212 70.5388 1100 513.398
1891 0 95.4478 14.1439 1350 69.1526 1099.92 513.364
1892 0 97.4081 14.044 1368 69.8531 1099.7 510.759
1893 0 100.414 15.4858 1555 68.1839 1100.47 508.328
1894 0 103.309 14.5002 1498 70.3885 1099.99 507.913
1895 0 107.199 15.0747 1616 69.3954 1100.16 505.312
1896 0 110.428 15.1501 1673 69.0508 1099.81 504.129
1897 0 111.248 13.3216 1482 71.9973 1100.76 498.666
1898 0 118.362 16.0102 1895 68.009 1100.78 498.819
1899 0 122.454 15.9652 1955 67.3494 1101.57 499.704
1900 0 122.476 12.9903 1591 71.7392 1101.27 496.406
1901 0 129.603 15.9255 2064 67.4918 1101.04 495.643
1902 0 130.34 13.6182 1775 70.9611 1100.99 492.048
1903 0 137.459 14.4189 1982 69.1751 1100.98 492.416
1904 0 139.518 14.4067 2010 69.593 1101.28 488.446
1905 0 147.624 13.8527 2045 69.3017 1101.12 489.781
1906 1 65.3121 14.4231 942 66.9045 1101.09 526.93
1907 0 65.5991 13.9484 915 67.8087 1101.48 526.074
1908 0 66.2856 11.7673 780 70.241 1101.9 522.308
1909 0 69.2959 12.6414 876 69.363 1101.59 521.287
1910 0 68.4921 12.6584 867 69.489 1102.09 519.571
1911 0 72.2479 12.5955 910 68.8429 1101.71 520.229
1912 0 72.5954 12.797 929 69.0097 1101.59 518.596
1913 0 75.3674 12.9366 975 69.0544 1100.78 516.758
1914 0 77.3638 13.6498 1056 67.3987 1101.68 520.096
1915 0 78.3035 13.6648 1070 68.3953 1101.83 516.387
1916 0 78.1327 13.4515 1051 69.196 1101.7 511.425
1917 0 81.5696 13.3996 1093 68.8774 1101.6 516.026
1918 0 84.6959 12.9758 1099 69.5587 1101.02 512.999
1919 0 89.6349 15.7751 1414 65.5736 1101.39 515.673
1920 0 91.3333 14.2993 1306 67.8568 1101.72 514.739
1921 0 93.6477 14.4157 1350 67.9111 1101.69 512.8
1922 0 95.3866 13.6602 1303 68.9762 1101.53 511.791
1923 0 100.482 15.3262 1540 66.9987 1101.7 509.271
1924 0 102.422 15.5045 1588 66.8388 1101.76 508.329
1925 0 101.623 14.3177 1455 69.1718 1101.12 502.563
1926 0 109.381 13.9787 1529 68.7842 1100.63 504.294
1927 0 112.332 14.2969 1606 68.6233 1101.21 500.593
1928 0 114.375 14.2077 1625 69.0277 1101.22 499.809
1929 0 121.453 13.7749 1673 68.9378 1100.85 499.668
1930 1 55.468 11.9709 664 69.8148 1101.3 529.217
1931 0 56.9273 12.2261 696 69.6968 1101.28 529.313
1932 0 58.2649 12.2887 716 69.1983 1101.16 530.345
1933 0 62.6884 13.2879 833 67.6026 1101.19 529.182
1934 0 59.2272 12.5787 745 69.2846 1100.63 529.882
1935 0 64.7068 12.1007 783 69.1724 1100.59 529.649
1936 0 67.5611 13.5433 915 66.7421 1100.62 529.031
1937 0 66.2587 11.8928 788 69.6206 1100.45 525.865
1938 0 66.2905 13.5163 896 67.8705 1100 526.992
1939 0 69.5261 13.2324 920 68.1848 1099.75 525.175
1940 0 70.3373 13.7054 964 67.8683 1099.9 526.396
1941 0 72.346 14.0022 1013 67.9033 1100.11 524.203
1942 0 74.3862 14.1693 1054 67.8776 1099.88 521.544
1943 0 75.2749 13.6699 1029 68.8319 1099.82 518.987
1944 0 77.438 13.9725 1082 68.3743 1099.26 519.93
1945 0 78.2679 13.2621 1038 69.5934 1099.37 517.803
1946 0 85.2439 13.303 1134 68.5494 1099.01 516.529
1947 0 86.7229 13.5028 1171 68.4774 1099.03 514.56
1948 0 92.4881 15.5155 1435 65.0216 1098.53 517.226
1949 0 92.3049 13.2387 1222 68.5475 1098.45 510.921
1950 0 96.5802 12.3835 1196 69.0059 1098.14 510.964
1951 0 101.269 15.4145 1561 65.1589 1098.36 511.598
1952 0 103.39 14.8467 1535 65.755 1098.02 506.175
1953 0 104.443 15.0608 1573 66.5442 1098.51 503.8
1954 0 109.562 12.833 1406 68.3748 1098.4 508.438
1955 0 113.268 14.8145 1678 66.1877 1098.09 500.284
1956 0 117.624 13.3221 1567 67.7932 1098.63 502.173
1957 0 115.379 12.5413 1447 69.8017 1098.25 497.216
1958 0 125.492 13.8336 1736 66.9735 1098.03 501.996
1959 0 127.365 15.6165 1989 65.55 1098.87 493.909
1960 0 132.384 13.3173 1763 68.076 1099.16 494.454
1961 0 136.474 14.8307 2024 66.376 1099.38 492.48
1962 0 142.67 17.0464 2432 63.4679 1099.67 491.939
1963 0 146.702 15.2623 2239 65.7043 1099.51 489.273
1964 0 149.742 14.6185 2189 66.9063 1100.08 488.227
1965 0 154.478 13.9049 2148 67.7216 1099.77 487.514
1966 1 82.4155 10.714 883 73.1076 1100.19 515.758
1967 0 89.4956 13.5537 1213 69.1055 1100.01 514.529
1968 0 91.5139 13.5826 1243 68.7498 1099.93 512.087
1969 0 94.4391 13.3102 1257 69.0549 1100.09 508.357
1970 0 99.8258 13.3933 1337 68.3156 1100.07 509.482
1971 0 101.316 15.0124 1521 67.0085 1100.47 506.041
1972 0 105.278 14.077 1482 68.1478 1100.25 505.69
1973 0 108.938 13.9987 1525 67.718 1100.3 506.827
1974 0 114.8 15.453 1774 65.4459 1100.39 503.738
1975 1 53.3496 11.6964 624 70.4792 1100.29 530.024
1976 0 58.6929 14.0392 824 67.5206 1100.24 529.505
1977 0 59.6479 14.9712 893 66.7928 1100.42 526.448
1978 0 60.22 13.9821 842 68.4477 1100.55 525.696
1979 0 62.5936 13.7234 859 68.7229 1101.6 524.934
1980 0 63.1815 13.0735 826 70.2712 1101.33 522.306
1981 0 63.2547 11.6829 739 72.0785 1101.29 520.955
1982 0 65.1894 12.8395 837 70.4504 1100.43 519.086
1983 0 69.8384 13.6028 950 68.6884 1100.74 520.754
1984 0 73.7916 14.4461 1066 67.2842 1101.16 521.103
1985 0 75.7453 12.3836 938 69.4883 1100.45 519.969
1986 0 78.5699 14.2166 1117 67.1996 1101.29 519.287
1987 0 82.2952 16.6231 1368 64.2339 1101.48 516.481
1988 0 85.9129 15.0152 1290 65.707 1101.3 516.081
1989 0 87.8321 14.596 1282 65.9587 1101.4 516.887
1990 0 91.4388 14.7858 1352 65.946 1101.47 514.458
1991 0 92.6899 14.9207 1383 65.9212 1101.1 510.724
1992 0 93.4443 13.1522 1229 69.3849 1101.4 506.364
1993 0 98.5974 14.7976 1459 66.2481 1101.49 507.573
1994 0 101.62 14.5542 1479 66.8972 1101.35 503.312
1995 0 106.859 13.7565 1470 67.5388 1101.45 503.61
1996 0 107.402 12.8955 1385 68.348 1101.42 507.817
1997 0 114.221 14.5683 1664 66.5998 1101.33 504.233
1998 1 62.5489 14.6605 917 66.5627 1101.26 527.482
1999 0 65.6225 14.4158 946 67.611 1101.42 524.726
2000 0 67.4437 15.1979 1025 66.1776 1101.84 524.592
2001 0 68.7394 14.5332 999 67.7658 1101.32 521.533
2002 0 70.5403 14.4031 1016 67.3927 1102.11 522.999
2003 0 72.6898 14.5825 1060 66.7038 1101.71 522.61
2004 0 72.4983 13.3658 969 69.7637 1101.92 519.027
2005 0 77.4655 14.8711 1152 67.1389 1101.78 519.835
2006 0 78.6676 14.6058 1149 67.1201 1101.88 517.783
2007 0 81.7483 15.3275 1253 66.2283 1102.09 518.655
2008 0 84.5683 14.4617 1223 67.3222 1101.61 517.185
2009 0 87.0118 14.3199 1246 67.2143 1101.78 516.724
2010 0 90.4008 15.387 1391 65.9727 1101.46 514.268
2011 0 91.3553 13.8689 1267 68.105 1101.57 511.901
2012 0 94.4152 14.5422 1373 66.8704 1101.22 510.747
2013 0 96.2868 15.4954 1492 65.9899 1101.47 508.503
2014 0 100.673 14.6713 1477 66.1097 1101.25 509.573
2015 0 103.718 13.9899 1451 66.6106 1102.02 505.617
2016 0 107.482 15.6119 1678 64.7914 1101.28 501.774
2017 0 111.882 15.0426 1683 64.9691 1101.13 504.153
2018 1 57.5685 12.6806 730 65.4918 1100.9 528.742
2019 0 58.4488 14.5084 848 64.4198 1101.35 527.664
2020 0 63.5347 13.0165 827 65.3313 1101.41 529.192
2021 0 63.7125 13.247 844 65.8744 1101.44 527.405
2022 0 66.6523 13.4429 896 65.2266 1101.17 525.265
2023 0 64.5122 12.1992 787 68.0178 1101.62 521.452
2024 0 67.5194 12.4261 839 67 1101.58 522.751
2025 0 69.5834 13.6239 948 65.4536 1101.65 524.012
2026 0 72.4049 13.3554 967 65.7715 1101.74 521.087
2027 0 75.006 15.9721 1198 63.1661 1100.98 519.538
2028 0 77.5263 14.3822 1115 64.2287 1101 517.83
2029 0 79.555 13.4247 1068 65.9616 1100.97 515.787
2030 0 84.0433 14.2664 1199 63.9791 1100.9 514.514
2031 0 84.843 12.8355 1089 65.8944 1100.74 515.832
2032 0 86.4161 13.84 1196 65.2901 1100.54 514.408
2033 0 90.6137 15.3619 1392 63.4375 1101.35 513.95
2034 0 91.4316 11.659 1066 67.9644 1100.65 507.143
2035 0 91.4881 11.2146 1026 68.9103 1099.74 506.977
2036 0 100.161 14.7662 1479 63.4943 1099.95 510.63
2037 0 102.125 14.1884 1449 64.5079 1100.57 510.048
2038 0 106.05 14.4366 1531 63.9562 1100.89 509.3
2039 0 106.813 13.5471 1447 65.2522 1100.85 505.87
2040 0 109.661 13.8061 1514 65.7259 1101.18 499.581
2041 0 114.801 14.5644 1672 64.4061 1100.79 498.089
2042 0 117.686 14.6237 1721 64.2028 1100.34 503.533
2043 0 120.981 15.2752 1848 64.0417 1100.42 498.389
2044 0 124.677 14.4132 1797 64.98 1099.82 495.699
2045 0 128.96 14.5937 1882 64.8937 1100.53 491.026
2046 0 133.965 14.4516 1936 64.8709 1100.62 497.065
2047 0 136.728 13.6402 1865 66.1936 1100.59 492.19
2048 0 140.952 14.8916 2099 64.8232 1100.44 485.295
2049 0 144.857 13.6548 1978 66.2877 1100.12 487.93
2050 0 151.661 15.2313 2310 64.2935 1100.44 483.495
2051 0 156.818 14.6667 2300 64.8978 1099.6 485.467
2052 0 158.87 13.4072 2130 66.9113 1099.34 480.392
2053 0 164.895 13.8512 2284 66.6042 1099.59 478.365
2054 0 171.732 13.5793 2332 66.7273 1100.06 478.014
2055 0 177.672 14.009 2489 66.6878 1099.82 473.297
2056 0 179.637 14.6573 2633 66.2237 1099.35 469.748
2057 0 186.075 15.2788 2843 65.6117 1099.93 467.21
2058 0 191.654 13.6548 2617 67.1639 1099.43 469.476
2059 1 95.6518 12.556 1201 70.2956 1099.7 506.851
2060 0 99.683 12.5498 1251 72.4964 1099.91 506.006
2061 0 103.459 16.6732 1725 66.8012 1099.78 509.079
2062 0 105.755 16.0654 1699 67.3373 1099.82 508.858
2063 0 107.582 14.5935 1570 69.6662 1099.54 506.456
2064 0 112.954 14.6077 1650 69.443 1100.16 505.019
2065 0 117.649 15.8012 1859 67.4266 1100.05 506.249
2066 0 116.977 14.2251 1664 70.4838 1099.64 499.981
2067 0 123.836 14.2123 1760 69.7898 1099.79 500.22
2068 0 126.29 13.469 1701 71.5015 1099.05 494.926
2069 0 133.025 16.2977 2168 67.5438 1099.35 494.723
2070 0 136.72 15.2208 2081 69.135 1099.14 494.292
2071 0 137.765 13.2472 1825 72.217 1099.56 492.555
2072 0 142.615 14.767 2106 70.5323 1099.39 490.492
2073 1 77.5837 15.6863 1217 69.6311 1098.93 523.361
2074 0 78.5194 13.156 1033 73.7386 1099.82 520.471
2075 0 83.5607 16.8141 1405 68.3637 1099.17 522.484
2076 0 84.7761 14.7919 1254 71.6045 1099.25 518.476
2077 0 85.5106 14.8987 1274 72.1797 1099.11 517.013
2078 0 89.805 14.9992 1347 71.902 1099.24 516.39
2079 0 92.3933 16.5705 1531 70.4925 1099.21 513.959
2080 0 95.8882 15.6224 1498 71.7657 1099.78 513.859
2081 0 99.4354 14.8036 1472 72.517 1099.32 511.823
2082 0 101.063 15.4162 1558 72.2169 1099.54 507.623
2083 0 105.533 15.3222 1617 71.8299 1099.63 508.103
2084 0 105.533 15.4075 1626 154.492 1098.62 508.127
2085 0 113.762 14.9346 1699 72.2343 1099.06 503.284
2086 0 118 16.3221 1926 70.1142 1099.52 502.732
2087 0 121.104 17.3156 2097 68.969 1099.99 501.667
2088 0 124.693 17.2182 2147 68.9884 1099.88 500.731
2089 0 126.037 15.0114 1892 72.7389 1099.41 493.105
2090 0 131.948 16.1048 2125 71.0551 1099.39 495.42
2091 0 134.883 14.2865 1927 73.4774 1099.62 493.076
2092 1 68.7923 12.3415 849 74.424 1099.96 521.085
2093 0 71.7252 14.681 1053 71.8566 1099.59 521.104
2094 0 72.4708 14.737 1068 72.823 1099.97 520.806
2095 0 76.7566 15.0867 1158 71.1166 1100.28 524.043
2096 0 75.683 13.9529 1056 74.1089 1100.02 521.73
2097 0 79.9665 15.3439 1227 72.0522 1100.11 521.909
2098 0 79.3789 15.7599 1251 72.8673 1099.6 521.546
2099 0 79.9229 13.5631 1084 77.1042 1099.92 518.432
2100 0 84.9312 14.1173 1199 75.4262 1099.53 520.16
2101 0 85.8295 14.2958 1227 76.26 1099.96 517.83
2102 0 87.4807 14.5975 1277 76.2999 1100.48 515.771
2103 0 88.9549 14.3893 1280 75.9391 1100.36 517.832
2104 0 92.7006 15.0485 1395 74.724 1100.14 517.335
2105 0 95.8181 16.1034 1543 74.0732 1100.2 513.555
2106 0 95.8181 16.0617 1539 144.051 1100.19 513.569
2107 0 102.179 14.9738 1530 75.6353 1099.28 510.261
2108 0 106.535 15.5348 1655 74.9468 1099.83 509.677
2109 0 108.937 15.9358 1736 74.4401 1099.85 507.567
2110 0 110.661 13.4104 1484 77.8693 1099.86 507.706
2111 0 115.837 14.3391 1661 76.8013 1100.15 501.272
2112 0 118.08 15.4049 1819 75.9923 1100.06 499.946
2113 0 121.811 15.3434 1869 76.3713 1100.44 498.887
2114 1 65.8919 14.5845 961 75.9802 1100.63 523.824
2115 0 68.8858 13.9651 962 75.6798 1100.4 525.721
2116 0 70.8656 14.4358 1023 76.2659 1100.16 523.875
2117 0 73.0968 14.214 1039 77.9711 1100.07 520.342
2118 0 73.7067 14.3678 1059 77.6261 1100.14 521.086
2119 0 75.5165 14.5266 1097 77.8095 1100.1 522.567
2120 0 79.0637 14.3302 1133 77.8076 1099.92 520.312
2121 0 79.5171 12.1861 969 82.3096 1100.17 518.168
2122 0 80.9484 15.1207 1224 78.3962 1099.83 519.441
2123 0 84.0148 14.0213 1178 80.1902 1099.99 517.314
2124 0 86.7269 14.9089 1293 79.7046 1099.27 513.942
2125 0 91.0953 16.7956 1530 76.4647 1100.31 515.399
2126 0 91.4735 13.8838 1270 81.4063 1100.34 513.15
2127 0 94.7526 15.588 1477 78.4848 1099.86 513.391
2128 0 96.8882 14.8418 1438 79.6293 1100.17 513.803
2129 0 99.7209 15.3328 1529 79.55 1099.55 510.034
2130 0 103.05 14.6045 1505 80.8272 1099.39 508.596
2131 0 103.467 14.1688 1466 82.3411 1099.99 507.746
2132 0 107.633 16.2125 1745 78.8034 1100.64 506.495
2133 0 113.893 15.2073 1732 79.4244 1100.2 506.169
2134 0 112.374 15.0925 1696 81.0489 1099.99 499.555
2135 0 117.724 16.012 1885 78.8149 1100.48 499.044
2136 0 122.878 14.5836 1792 80.4107 1099.98 501.023
2137 0 128.696 16.6283 2140 77.2453 1099.73 496.075
2138 0 133.878 15.5366 2080 78.8048 1099.93 495.909
2139 0 138.715 14.6127 2027 79.7292 1100.47 494.861
2140 0 141.707 14.7416 2089 80.3911 1100.32 489.679
2141 0 145.625 15.437 2248 79.5934 1099.94 485.766
2142 0 155.06 16.1163 2499 77.6134 1100.37 486.495
2143 1 74.8062 13.2208 989 80.5996 1100.23 521.157
2144 0 74.3444 13.1415 977 81.0901 1099.74 517.933
2145 0 74.3601 13.4615 1001 154.071 1099.71 517.774
2146 0 82.2897 14.3639 1182 77.9281 1099.5 516.701
2147 0 83.1535 13.0842 1088 79.6213 1098.9 515.759
2148 0 84.2723 14.1209 1190 78.4042 1098.8 513.914
2149 0 87.7167 11.6055 1018 81.8281 1098.82 510.947
2150 0 90.4866 14.7204 1332 76.485 1098.56 513.637
2151 0 91.5871 14.3033 1310 77.2832 1099.08 510.497
2152 0 95.4621 15.1893 1450 75.7779 1098.79 509.729
2153 0 100.511 14.4363 1451 75.6961 1099.19 512.079
2154 0 101.792 12.9284 1316 79.2166 1098.91 506.124
2155 0 103.486 14.4561 1496 77.0735 1099.45 501.945
2156 0 108.628 13.9466 1515 77.6858 1099.51 501.465
2157 0 113.693 13.9938 1591 76.7876 1099.23 501.175
2158 0 112.514 12.9762 1460 79.2808 1099.75 491.959
2159 1 54.244 12.0566 654 76.5107 1099.47 528.716
2160 0 55.4081 14.5466 806 74.8747 1099.51 526.494
2161 0 54.6352 14.1667 774 76 1099.9 524.351
2162 0 56.3725 12.2578 691 78.4732 1099.61 523.55
2163 0 58.5489 12.7244 745 77.949 1099.54 522.934
2164 0 60.4016 12.6818 766 77.47 1099.51 521.283
2165 0 59.4704 12.6449 752 78.2154 1099.76 519.407
2166 1 71.9291 13.6662 983 73.6846 1099.71 523.475
2167 0 67.5955 13.7435 929 74.859 1100.2 522.409
2168 0 73.8208 13.3702 987 74.5096 1099.45 521.021
2169 0 75.7343 13.8643 1050 72.9867 1099.35 522.106
2170 0 77.8778 13.1745 1026 74.269 1099.82 518.426
2171 0 80.0793 14.1485 1133 72.7158 1100.43 516.542
2172 0 83.9032 12.5144 1050 74.1638 1100.15 516.571
2173 0 84.752 13.4156 1137 73.1223 1099.96 513.178
2174 0 83.5047 14.0112 1170 72.9453 1100.19 508.162
2175 0 86.3805 15.015 1297 70.6985 1099.93 510.216
2176 1 94.6084 13.5717 1284 71.4143 1100.24 506.867
2177 0 94.6522 13.2908 1258 72.1812 1099.57 506.855
2178 0 101.677 13.7691 1400 70.7493 1099.82 506.641
2179 0 102.562 16.0001 1641 67.8934 1100.06 503.971
2180 0 103.26 14.1971 1466 70.869 1100.11 498.733
2181 0 106.506 13.0416 1389 71.7358 1100.17 498.595
2182 0 110.398 14.1669 1564 69.6343 1100.23 497.403
2183 0 115.723 15.1915 1758 68.4852 1100.18 493.241
2184 0 120.759 13.9783 1688 69.2518 1100.03 491.531
2185 1 127.698 13.3597 1706 69.2743 1100.28 495.412
2186 0 131.392 13.9278 1830 68.4284 1099.9 491.244
2187 0 138.624 14.4131 1998 66.6056 1100.25 494.809
2188 0 142.448 13.275 1891 67.9952 1099.84 491.118
2189 1 79.7011 13.6635 1089 66.9284 1099.8 516.931
2190 0 81.3317 14.5577 1184 65.8285 1099.64 517.128
2191 0 82.2859 12.6996 1045 68.2612 1100.18 515.084
2192 0 83.5964 13.7446 1149 66.6815 1099.38 515.744
2193 0 84.3949 14.1359 1193 66.5474 1099.85 515.909
2194 0 88.4558 12.7408 1127 68.4277 1100.06 508.98
2195 0 90.068 13.4565 1212 67.5734 1099.9 509.55
2196 0 96.3138 13.8921 1338 66.3939 1099.54 508.226
2197 0 97.4579 12.7337 1241 67.5786 1099.58 506.662
2198 0 103.473 14.1486 1464 65.2664 1099.89 508.811
2199 0 103.383 14.0836 1456 65.8908 1099.89 503.6
2200 0 105.853 15.2759 1617 64.9468 1099.84 498.135
2201 0 110.578 16.1606 1787 63.6424 1099.8 499.849
2202 0 113.695 14.9347 1698 64.9193 1099.62 497.814
2203 0 118.584 14.69 1742 64.9053 1100.21 495.699
2204 0 121.534 15.0081 1824 64.6919 1100.06 491.137
2205 0 127.872 15.1323 1935 63.9819 1099.91 493.024
2206 0 128.554 13.8386 1779 66.086 1099.92 489.228
2207 0 136.643 15.0246 2053 64.3 1100.01 486.19
2208 1 67.4423 13.3744 902 66.2894 1100.06 518.334
2209 0 71.7761 13.5839 975 66.0944 1100.63 519.115
2210 0 72.5082 14.4535 1048 66.2595 1099.97 515.499
2211 0 75.4199 14.996 1131 65.2025 1100.11 515.977
2212 0 78.5533 11.1389 875 70.1074 1100.51 512.491
2213 0 80.569 13.1068 1056 67.5104 1099.78 515.777
2214 0 83.195 13.6667 1137 67.8276 1100.24 510.338
2215 0 90.4765 14.0147 1268 66.2192 1100.04 512.235
2216 0 89.7867 12.3626 1110 69.3009 1099.47 509.059
2217 0 95.5094 14.5535 1390 65.8129 1099.48 513.314
2218 0 100.452 13.9669 1403 66.4619 1099.73 510.618
2219 0 95.648 11.375 1088 71.614 1100.08 503.801
2220 0 99.5401 13.6026 1354 68.6957 1099.9 500.631
2221 0 109.64 15.3137 1679 65.059 1100.29 506.129
2222 0 108.55 13.1921 1432 68.6501 1100.26 501.174
2223 0 110.726 14.9468 1655 66.9335 1100.15 498.717
2224 0 120.684 14.0035 1690 66.7071 1099.39 502.291
2225 0 118.922 14.5978 1736 66.9919 1100.39 500.154
2226 0 122.624 15.1439 1857 66.1637 1100.28 495.417
2227 0 126.925 15.0877 1915 66.0799 1100.29 497.148
2228 0 130.379 14.036 1830 67.7366 1100.35 493.002
2229 0 138.361 14.4043 1993 66.7466 1100.99 491.405
2230 0 141.703 14.5021 2055 67.1956 1101.18 485.879
2231 0 150.687 14.8454 2237 65.8534 1100.99 488.976
2232 0 153.831 13.5474 2084 68.3119 1100.47 478.86
2233 0 155.422 13.8205 2148 68.2547 1100.5 477.579
2234 1 165.442 14.283 2363 67.1629 1100.89 482.078
2235 1 92.5106 13.9768 1293 66.9946 1101.3 513.22
2236 0 92.5534 12.8899 1193 69.679 1101.25 508.815
2237 0 95.4 12.2117 1165 70.2541 1101.24 509.128
2238 0 100.526 13.5487 1362 68.1101 1101.21 509.057
2239 0 103.828 15.699 1630 66.0552 1101.18 504.539
2240 0 106.747 13.902 1484 68.3127 1100.91 502.7
2241 0 108.821 14.2252 1548 68.3501 1101.47 501.615
2242 0 114.662 13.5441 1553 68.8397 1101.31 500.429
2243 0 116.699 14.4388 1685 67.7964 1101.18 499.519
2244 0 118.656 14.5125 1722 68.1702 1101.01 493.815
2245 0 122.683 13.865 1701 68.7942 1101.43 491.668
2246 0 130.92 15.1467 1983 66.9153 1101.28 489.242
2247 0 134.613 15.1546 2040 66.8554 1100.46 490.925
2248 0 137.786 13.9637 1924 68.3851 1100.99 485.347
2249 0 143.716 13.6032 1955 68.8281 1100.82 484.3
2250 0 148.829 13.4785 2006 69.0513 1100.36 482.107
2251 0 152.703 12.8091 1956 70.1074 1100.59 479.7
2252 0 156.644 12.7997 2005 70.3082 1100.71 477.598
2253 0 164.602 12.8492 2115 69.766 1100.22 473.899
2254 0 170.566 13.2793 2265 68.9797 1100.74 476.755
2255 1 92.6632 13.4034 1242 68.5105 1100.92 507.694
2256 0 92.8699 14.1704 1316 67.554 1100.67 510.093
2257 1 104.058 14.8186 1542 65.5376 1100.76 510.676
2258 0 104.541 14.3102 1496 67.111 1100.96 506.08
2259 0 106.786 13.7097 1464 67.64 1100.73 506.469
2260 0 112.832 14.012 1581 67.2049 1101.04 504.778
2261 0 113.881 13.9619 1590 67.8956 1100.93 501.806
2262 0 118.636 13.3517 1584 68.3207 1101.24 501.815
2263 0 120.804 13.6916 1654 67.7013 1101.32 502.49
2264 0 120.804 13.6502 1649 150.01 1100.32 502.366
2265 0 129.514 16.3225 2114 64.6064 1100.45 496.96
2266 0 128.145 12.1581 1558 70.4076 1101.57 494.687
2267 0 137.964 15.7143 2168 66.0641 1100.86 490.574
2268 0 140.592 13.8131 1942 68.4361 1101.14 485.974
2269 1 78.7829 13.3785 1054 66.6812 1100.85 518.976
2270 0 82.8932 12.6669 1050 67.2714 1101.07 519.341
2271 0 85.5248 13.6919 1171 67.0188 1101.27 514.12
2272 0 89.0371 13.2754 1182 66.1819 1100.77 517.942
2273 0 91.6825 13.7867 1264 67.144 1100.7 513.673
2274 0 93.7008 13.9166 1304 67.7523 1101.14 508.787
2275 0 96.7185 14.2992 1383 66.6464 1100.75 511.676
2276 0 99.9859 14.172 1417 66.3867 1101.14 512.025
2277 0 98.6408 13.6353 1345 68.3063 1100.76 508.807
2278 0 103.949 12.3041 1279 69.6755 1101.01 505.685
2279 0 106.789 12.7448 1361 69.8589 1100.14 503.03
2280 0 106.857 13.1203 1402 69.903 1101.41 500.238
2281 0 109.008 12.7881 1394 69.9168 1101.23 502.633
2282 0 116.317 14.1252 1643 68.1668 1100.42 499.881
2283 0 118.983 13.8339 1646 68.6373 1100.84 495.761
2284 0 124.436 13.8867 1728 67.8021 1100.95 497.867
2285 0 125.696 14.1214 1775 68.4597 1100.64 488.362
2286 0 126.868 12.3829 1571 71.2171 1101.26 486.267
2287 0 131.909 14.2067 1874 67.7102 1100.74 492.713
2288 0 137.132 14.1251 1937 68.0372 1101.25 488.874
2289 0 143.73 13.5532 1948 68.3429 1101.64 488.092
2290 0 147.816 13.3206 1969 69.4068 1101.27 480.132
2291 0 152.893 14.7685 2258 67.3246 1101.01 480.996
2292 0 156.123 14.3668 2243 68.0317 1101.26 476.459
2293 0 165.068 15.4663 2553 66.2758 1101.25 479.104
2294 0 172.393 14.2639 2459 67.4754 1100.8 478.607
2295 0 175.989 13.2849 2338 69.4855 1101.26 471.846
2296 0 175.358 13.2643 2326 70.4471 1101.01 465.057
2297 1 94.739 12.9936 1231 67.4582 1100.45 514.63
2298 0 91.4971 12.6234 1155 70.542 1101.28 507.794
2299 0 97.9218 14.2971 1400 66.5129 1101.84 512.616
2300 0 97.6941 13.6958 1338 67.5336 1101.36 507.773
2301 0 98.0096 14.1007 1382 68.0318 1101.72 504.888
2302 0 99.5773 13.0652 1301 69.289 1101.31 503.52
2303 0 101.71 12.6142 1283 70.3242 1101.13 500.768
2304 0 109.823 15.534 1706 65.6776 1101.66 505.577
2305 0 116.192 15.569 1809 65.1857 1101.06 504.336
2306 0 116.75 17.4818 2041 63.7844 1100.96 500.874
2307 0 121.168 15.3341 1858 66.6776 1101.53 494.045
2308 0 123.902 14.2371 1764 68.0312 1101.54 496.577
2309 0 128.2 14.0093 1796 68.6737 1100.74 488.455
2310 0 132.769 16.186 2149 65.6356 1100.97 492.01
2311 0 139.197 15.3883 2142 66.2834 1101.18 490.023
2312 0 139.822 13.5458 1894 69.1294 1101.21 485.076
2313 0 146.306 13.9639 2043 68.2535 1100.59 485.427
2314 0 152.408 15.4913 2361 66.4549 1101.25 482.758
2315 0 156.322 15.1738 2372 66.9532 1100.93 479.552
2316 0 161.145 13.5841 2189 69.1836 1100.93 475.235
2317 0 166.263 15.6139 2596 66.6549 1100.59 476.485
2318 0 172.853 14.3937 2488 68.3436 1100.78 472.728
2319 0 175.88 14.4075 2534 68.2056 1100.76 472.215
2320 0 184.452 15.115 2788 67.2672 1101.17 468.713
2321 1 91.0451 11.2142 1021 70.7953 1100.83 508.892
2322 0 96.234 11.0979 1068 69.5936 1101.56 513.078
2323 0 98.7964 12.6219 1247 69.2735 1101.58 506.535
2324 0 100.9 13.9842 1411 67.022 1101.96 505.948
2325 0 101.836 12.6282 1286 69.4728 1101.68 503.669
2326 0 105.962 12.6932 1345 68.971 1101.66 500.459
2327 0 106.803 11.5446 1233 70.6788 1100.91 500.669
2328 0 111.91 12.9747 1452 69.1577 1101.38 497.668
2329 0 116.12 12.5302 1455 69.1945 1101.34 496.649
2330 0 120.916 13.7699 1665 67.2955 1101.24 497.085
2331 0 122.099 14.4883 1769 66.7049 1101.29 496.756
2332 0 129.798 15.0696 1956 65.6406 1101.25 493.814
2333 0 130.129 13.4713 1753 67.6281 1101.01 490.472
2334 0 136.116 13.3342 1815 67.5769 1101.52 486.793
2335 0 142.242 12.2397 1741 68.7513 1101.59 485.76
2336 0 145.091 13.171 1911 67.6583 1101.63 481.043
2337 0 151.934 12.4132 1886 68.4793 1101.68 480.279
2338 0 154.001 13.8441 2132 66.8068 1101.57 478.014
2339 0 163.11 13.1752 2149 67.4155 1101.93 473.69
2340 0 170.407 16.3491 2786 62.8406 1102 472.319
2341 0 178.355 15.9345 2842 62.8944 1101.4 472.197
2342 0 183.974 13.6596 2513 65.6259 1101.36 469.005
2343 0 185.038 14.6727 2715 64.5112 1101.14 469.45
2344 0 191.589 13.7899 2642 65.9023 1101.55 460.344
2345 0 199.596 13.3219 2659 65.8793 1101.73 463.293
2346 1 115.215 13.2362 1525 65.777 1101.26 496.911
2347 0 118.075 10.9168 1289 68.9744 1101.46 495.941
2348 0 125.567 13.8014 1733 65.0698 1101.56 492.692
2349 0 129.337 14.3887 1861 64.2719 1101.26 494.028
2350 0 129.331 12.8275 1659 60.094 1101.12 485.411
2351 0 137.898 12.6325 1742 59.3886 1101.08 482.588
2352 0 138.656 13.5732 1882 58.509 1100.98 477.908
2353 0 150.313 13.1592 1978 57.8903 1100.59 484.03
2354 0 153.413 13.0823 2007 58.0394 1101.1 480.171
2355 0 157.602 14.9173 2351 56.3815 1101.44 477.054
2356 0 161.305 15.3622 2478 56.3301 1101.29 475.83
2357 0 162.229 10.6824 1733 61.6295 1100.99 469.639
2358 0 173.451 15.2608 2647 56.708 1101.11 470.904
2359 1 89.0103 13.1108 1167 58.9066 1100.92 507.498
2360 0 95.301 13.0744 1246 58.8981 1101.27 506.955
2361 0 99.6192 13.6721 1362 57.7386 1101.23 507.522
2362 0 100.212 11.6253 1165 59.818 1101.12 507.658
2363 0 105.225 14.8349 1561 56.6284 1101.19 507.763
2364 0 107.563 13.778 1482 57.4109 1101.03 506.18
2365 0 107.268 13.4895 1447 58.651 1100.66 501.229
2366 0 109.847 15.0391 1652 57.095 1101.08 501.2
2367 0 113.206 14.6371 1657 57.2788 1101.01 501.844
2368 0 114.455 13.2454 1516 59.4011 1100.92 496.441
2369 0 120.144 15.2817 1836 57.1737 1101 494.157
2370 0 122.763 11.8358 1453 60.7199 1100.9 487.625
2371 0 128.077 13.9994 1793 58.1394 1100.86 489.169
2372 0 132.413 14.0167 1856 58.3195 1100.84 486.315
2373 0 140.137 14.5571 2040 57.0152 1100.63 487.683
2374 0 142.78 15.2193 2173 56.6249 1100.38 485.02
2375 1 57.0727 13.2813 758 55.5158 1101.18 526.748
2376 0 63.0986 11.0462 697 57.9455 1100.44 523.634
2377 0 66.2214 13.0773 866 55.9203 1101.19 524.375
2378 0 73.573 14.8424 1092 53.4002 1101.23 526.46
2379 0 74.867 14.1851 1062 53.8851 1101.43 526.479
2380 0 71.1337 12.4835 888 56.6926 1101.55 522.619
2381 0 76.0544 14.8315 1128 54.3413 1101.38 521.813
2382 0 73.941 12.6858 938 57.6173 1100.78 516.599
2383 0 73.9477 13.3878 990 57.2808 1101.05 518.136
2384 0 83.7016 16.7619 1403 52.6964 1101.23 520.364
2385 0 82.8768 13.1521 1090 56.5358 1101.24 515.968
2386 0 87.2373 14.2485 1243 54.9115 1100.53 519.703
2387 0 86.6525 11.7019 1014 58.6765 1101.8 512.92
2388 0 92.9086 13.8523 1287 56.049 1102.08 510.921
2389 0 95.3155 15.2546 1454 53.8473 1102.22 516.336
2390 0 97.1224 12.7571 1239 57.3212 1101.67 511.071
2391 0 98.2078 13.166 1293 56.7572 1102.75 509.104
2392 0 102.092 16.015 1635 54.5554 1101.76 506.74
2393 0 103.701 13.6546 1416 57.3333 1102.98 505.157
2394 0 104.612 14.9027 1559 56.533 1103.32 503.009
2395 0 112.555 13.9842 1574 56.5839 1101.93 503.31
2396 0 116.315 16.9625 1973 53.8753 1102.3 499.606
2397 0 115.859 14.5091 1681 56.9209 1101.79 499.175
2398 0 120.247 17.3892 2091 54.1406 1101.99 496.914
2399 0 120.269 12.8795 1549 59.5662 1103.28 488.245
2400 0 123.363 11.6485 1437 60.6701 1102.53 488.106
2401 0 128.863 14.5116 1870 57.5128 1102.78 489.785
2402 0 131.729 15.3041 2016 56.6334 1103 490.464
2403 0 140.38 14.2115 1995 57.2246 1103 488.331
2404 0 141.525 14.2448 2016 57.7679 1102.8 482.934
2405 0 139.672 13.1809 1841 58.8702 1102.66 479.876
2406 1 70.1229 11.9219 836 60.1639 1102.75 510.385
2407 0 75.3609 10.2175 770 60.3338 1103.19 515.94
2408 0 74.8788 14.0894 1055 58.2948 1103.17 509.758
2409 0 78.069 13.5649 1059 58.0878 1102.54 510.205
2410 0 81.2379 13.3312 1083 58.3158 1102.65 509.947
2411 0 84.487 13.8838 1173 58.3112 1103.01 507.246
2412 0 87.3211 13.9371 1217 58.4363 1103.26 503.632
2413 0 92.1174 12.2669 1130 59.6796 1102.97 507.562
2414 0 90.4046 12.8091 1158 59.975 1102.96 505.95
2415 0 95.0248 12.1442 1154 61.2236 1102.89 500.268
2416 0 101.817 14.2314 1449 57.9186 1103.58 506.207
2417 0 106.533 14.7184 1568 57.2162 1103.32 502.066
2418 0 105.991 14.2559 1511 58.3091 1103.02 497.765
2419 0 108.767 15.216 1655 57.4804 1102.65 498.282
2420 0 109.357 12.857 1406 60.0541 1102.96 493.871
2421 0 118.999 15.1514 1803 56.7909 1102.96 495.771
2422 0 118.75 14.4422 1715 58.0251 1103.07 493.893
2423 0 123.325 13.7442 1695 58.813 1103.02 492.35
2424 0 132.595 16.6673 2210 55.3828 1102.51 489.522
2425 0 132.74 15.7676 2093 56.8218 1103.11 486.916
2426 0 136.399 13.3285 1818 59.2387 1103.16 480.63
2427 0 140.768 13.9662 1966 58.8662 1103.47 479.861
2428 0 143.084 13.6423 1952 59.4667 1103.42 474.956
2429 1 156.126 15.0071 2343 57.0559 1103.13 482.953
2430 0 162.925 17.5479 2859 54.4092 1103.04 481.909
2431 0 164.139 15.0726 2474 57.9378 1102.88 474.511
2432 1 85.5497 16.2713 1392 56.2838 1103.21 512.055
2433 0 88.3067 13.6456 1205 59.2249 1103.2 509.651
2434 0 89.9892 13.1127 1180 60.0551 1103.16 508.653
2435 0 90.4159 14.8315 1341 58.7547 1102.91 510.519
2436 0 93.7203 14.65 1373 58.7815 1103.06 511.291
2437 0 94.0023 14.255 1340 60.0231 1103.37 501.927
2438 0 99.4325 14.6029 1452 59.5365 1103.17 505.379
2439 0 99.5361 14.9694 1490 59.5101 1103.14 507.819
2440 0 103.724 17.4983 1815 57.2143 1103.4 504.82
2441 0 108.787 14.6066 1589 59.781 1103.3 502.751
2442 0 111.099 15.6076 1734 59.2215 1103.07 502.22
2443 0 115.618 16.6238 1922 57.8569 1102.96 500.029
2444 0 120.676 15.5955 1882 58.8565 1102.91 499.39
2445 0 121.571 14.8309 1803 59.8142 1102.74 498.564
2446 0 125.683 14.807 1861 60.2332 1103.04 495.074
2447 0 127.173 16.2535 2067 59.3169 1101.98 492.559
2448 0 135.494 16.7387 2268 58.4749 1101.58 494.28
2449 0 137.758 14.9174 2055 61.0535 1102.28 490.62
2450 0 141.573 14.6215 2070 61.5546 1102.79 485.677
2451 0 144.678 15.7523 2279 60.8113 1102.61 481.889
2452 1 74.2001 13.6792 1015 61.8739 1102.8 513.5
2453 0 79.6221 12.6472 1007 62.0457 1102.32 517.246
2454 0 81.928 14.3052 1172 60.7713 1103.09 515.737
2455 0 77.9039 12.2844 957 64.7419 1102.78 511.129
2456 0 85.3815 13.059 1115 62.6018 1102.37 515.307
2457 0 85.7271 11.9915 1028 64.6449 1101.19 511.957
2458 0 88.047 14.1629 1247 61.9735 1102.56 513.122
2459 0 92.3529 16.5344 1527 59.6189 1102.27 513.052
2460 0 93.0882 12.9984 1210 63.9215 1102.14 508.775
2461 0 94.1933 14.1093 1329 63.0286 1102.25 510.404
2462 0 95.4881 14.651 1399 62.2309 1102.25 510.904
2463 0 97.6773 14.0053 1368 63.3553 1102.38 508.296
2464 0 101.702 15.6635 1593 62.0521 1102.35 508.075
2465 0 100.502 14.2086 1428 63.5959 1102 507.715
2466 0 106.729 16.0218 1710 61.9655 1102.16 504.009
2467 0 111.373 14.9677 1667 61.5609 1102.75 504.987
2468 0 112.331 13.9855 1571 63.9644 1102.16 499.895
2469 0 113.984 13.2826 1514 65.3388 1102.52 496.783
2470 0 116.581 13.8273 1612 64.2705 1102.18 499.483
2471 0 119.73 14.8334 1776 64.2613 1102.39 493.832
2472 0 124.366 12.4873 1553 65.604 1102.4 494.482
2473 0 130.427 14.0308 1830 64.5 1102.32 493.713
2474 0 137.767 16.4263 2263 61.6191 1102.01 493.407
2475 0 136.675 13.448 1838 65.7046 1102.66 484.655
2476 0 143.881 15.3808 2213 62.7488 1102.65 490.799
2477 0 147.177 15.4371 2272 63.8129 1102.28 481.577
2478 0 149.99 15.9078 2386 63.6287 1102.36 484.478
2479 0 150.598 15.5115 2336 64.9842 1103.11 477.985
2480 1 162.712 14.0924 2293 66.3751 1102.72 476.019
2481 0 165.859 13.3969 2222 66.7727 1103.39 476.515
2482 0 171.872 15.3777 2643 64.3511 1102.84 474.549
2483 0 176.596 14.8474 2622 64.8539 1102.94 472.571
2484 0 181.644 14.7597 2681 65.5379 1102.72 466.67
2485 0 182.547 13.7499 2510 67.7287 1102.83 457.849
2486 1 193.789 13.8708 2688 66.9996 1102.49 459.198
2487 0 195.76 13.1538 2575 68.4412 1102.17 452.66
2488 0 201.829 13.8483 2795 67.7631 1103.05 450.648
2489 0 205.59 15.0542 3095 66.1173 1101.98 454.801
2490 0 214.836 14.9882 3220 66.1783 1102.51 450.249
2491 0 217.813 13.5804 2958 67.926 1102.61 450.286
2492 1 372.91 12.2711 4576 68.5389 1102.36 406.338
2493 0 376.652 10.1367 3818 69.73 1101.91 421.913
2494 0 374.878 11.5718 4338 70.5652 1103.02 397.781
2495 1 250.945 15.0989 3789 67.2074 1102.63 434.295
2496 0 257.681 15.1544 3905 67.2548 1103.05 430.914
2497 0 263.925 14.9399 3943 67.8902 1102.09 427.188
2498 0 272.032 14.7667 4017 68.3064 1102.76 427.522
2499 0 279.016 15.6228 4359 67.5637 1102.75 424.377
2500 0 285.901 16.079 4597 67.3293 1102.31 419.36
2501 1 295.45 14.1005 4166 69.8466 1102.52 408.672
2502 0 304.133 15.8582 4823 68.4902 1102.4 411.825
2503 0 312.894 14.9252 4670 69.1415 1102.18 416.051
2504 0 321.937 15.8509 5103 68.6888 1102.45 403.953
2505 0 332.022 16.9296 5621 67.1247 1102.2 395.148
2506 0 340.969 16.2654 5546 68.8658 1102.64 393.767
2507 0 351.321 14.9977 5269 70.5223 1102.57 391.208
2508 1 280.851 14.1071 3962 70.5969 1101.66 430.131
2509 0 289.942 14.8823 4315 70.7365 1101.93 419.041
2510 0 298.036 13.8339 4123 71.7213 1102.37 416.115
2511 0 308.29 15.6054 4811 69.4432 1102.31 416.775
2512 1 80.7767 10.7209 866 67.7367 1102.38 513.177
2513 0 83.6659 14.2471 1192 63.4169 1102.32 512.9
2514 0 84.6561 11.3518 961 67.5682 1102.86 508.358
2515 0 90.5424 13.2645 1201 63.7993 1101.66 509.858
2516 0 89.8915 12.9489 1164 65.6452 1102.09 504.225
2517 0 95.23 13.2311 1260 64.0214 1103.04 506.746
2518 0 96.8057 12.179 1179 65.8388 1102.42 504.183
2519 0 96.9167 13.3104 1290 65.231 1102.4 502.129
2520 0 100.753 11.8011 1189 67.5391 1102.67 497.081
2521 0 105.14 13.8387 1455 64.4667 1103.18 500.856
2522 0 109.822 14.8422 1630 62.9448 1103.6 498.127
2523 0 109.012 12.3656 1348 66.3346 1102.84 492.773
2524 0 108.648 14.4044 1565 64.8396 1102.71 494.916
2525 0 115.805 11.8129 1368 66.9327 1102.79 491.149
2526 0 116.167 14.548 1690 64.2462 1103.1 492.48
2527 0 121.896 13.9053 1695 65.2271 1102.89 490.055
2528 0 128.741 12.7232 1638 64.906 1103.3 494.644
2529 0 127.812 13.293 1699 66.3296 1103.39 479.662
2530 0 134.768 14.076 1897 64.4317 1103.56 487.851
2531 0 140.887 13.9829 1970 63.8538 1103.23 487.001
2532 0 143.07 12.5603 1797 66.2282 1103.55 475.71
2533 1 82.7595 11.4428 947 66.2334 1103.67 507.643
2534 0 82.6807 13.3526 1104 64.0009 1103.49 509.641
2535 0 88.5384 12.2885 1088 64.6912 1104.2 508.619
2536 0 89.7769 11.7068 1051 65.9914 1104.51 507.089
2537 0 90.807 11.7502 1067 66.687 1103.58 504.37
2538 0 94.088 12.3501 1162 66.2814 1103.54 504.536
2539 0 91.7964 12.4842 1146 66.5349 1103.5 500.8
2540 0 101.55 13.5401 1375 63.8655 1103.55 504.724
2541 0 105.843 14.1247 1495 63.7264 1103.61 503.399
2542 0 109.744 15.0896 1656 62.8424 1103.26 501.486
2543 0 115.187 15.8611 1827 61.4406 1103 502
2544 0 117.079 13.7855 1614 63.741 1103.3 501.671
2545 0 118.815 14.9981 1782 63.2419 1103.11 496.406
2546 0 123.996 16.1215 1999 61.7269 1103.82 497.485
2547 0 127.056 15.505 1970 62.5071 1103.52 495.264
2548 1 193.043 12.9816 2506 65.0056 1102.39 475.006
2549 0 199.89 14.4929 2897 64.2119 1103.61 464.752
2550 1 141.783 16.5676 2349 61.2133 1102.36 487.375
2551 0 145.895 14.339 2092 63.3069 1103.1 484.933
2552 0 152.807 16.0791 2457 60.9141 1102.7 485.875
2553 0 155.277 15.102 2345 62.438 1102.65 479.963
2554 0 161.126 15.5468 2505 61.9158 1103.34 475.459
2555 0 166.113 16.0433 2665 61.3546 1102.75 473.69
2556 1 96.9414 13.9569 1353 61.5684 1103.26 504.034
2557 0 96.929 12.731 1234 63.1062 1103.23 504.39
2558 0 102.86 14.5926 1501 61.3338 1103.1 503.926
2559 0 105.105 12.968 1363 63.0132 1103.38 501.311
2560 0 106.762 12.1111 1293 65.6582 1103.06 493.678
2561 0 109.615 15.153 1661 61.776 1102.5 496.928
2562 0 114.027 13.8739 1582 62.9836 1102.14 491.129
2563 0 116.96 13.7739 1611 62.2148 1102.8 494.878
2564 0 122.088 15.5953 1904 60.3025 1102.81 494.418
2565 0 125.253 15.4008 1929 60.2131 1102.39 494.472
2566 0 124.82 14.1724 1769 62.5625 1102.03 484.895
2567 0 134.404 16.1603 2172 59.6165 1102.3 489.098
2568 0 136.951 15.385 2107 60.3887 1103.01 486.164
2569 0 139.31 14.5646 2029 61.3711 1102.5 482.529
2570 0 142.003 13.6265 1935 62.5659 1102.66 475.745
2571 0 151.374 15.1413 2292 60.2583 1102.83 478.833
2572 0 156.064 14.5837 2276 60.6467 1102.49 476.692
2573 0 151.63 15.0234 2278 60.7827 1101.72 474.364
2574 1 277.093 9.73319 2697 63.145 1102.27 452.954
2575 1 183.33 11.7384 2152 61.5897 1102.18 474.742
2576 0 180.94 15.2703 2763 58.9479 1102.23 473.498
2577 0 185.214 15.8682 2939 58.6291 1102.25 467.278
2578 0 186.943 16.9089 3161 58.2854 1101.83 466.887
2579 0 186.044 13.1098 2439 61.918 1101.61 458.282
2580 0 196.798 14.4717 2848 60.7216 1102.51 455.472
2581 0 203.323 14.0072 2848 61.8395 1102.65 449.645
2582 0 201.665 16.7258 3373 59.4186 1101.98 449.16
2583 1 143.996 12.8337 1848 62.934 1102.37 476.938
2584 0 148.801 13.2324 1969 61.8801 1102.36 478.769
2585 0 153.705 12.6281 1941 63.1412 1102.2 469.475
2586 0 157.193 12.5896 1979 61.9298 1102.45 476.839
2587 0 153.622 12.2964 1889 64.2038 1102.1 466.616
2588 1 241.553 12.5397 3029 63.8329 1102.64 435.619
2589 0 237.94 10.6413 2532 63.9479 1101.87 450.923
2590 1 184.388 16.1453 2977 58.9002 1102.04 466.393
2591 0 188.447 15.8506 2987 59.6334 1101.8 459.998
2592 0 192.739 13.552 2612 62.3277 1101.76 455.979
2593 0 197.706 14.036 2775 62.2847 1102.32 449.973
2594 0 201.342 13.7676 2772 63.2446 1102.06 447.156
2595 1 211.789 14.3303 3035 62.7862 1100.93 441.902
2596 0 215.926 13.1156 2832 64.2101 1102.13 442.664
2597 0 222.883 14.0881 3140 62.8092 1103.57 441.931
2598 0 232.333 14.5954 3391 62.2159 1103.52 442.152
2599 0 236.085 14.05 3317 62.9837 1102.39 442.249
2600 0 236.149 14.6052 3449 63.9055 1103.46 436.623
2601 1 247.381 13.1781 3260 65.9804 1102.38 424.792
2602 0 255.424 13.5735 3467 65.0637 1102.43 425.551
2603 0 262.941 14.4785 3807 63.9089 1102.7 426.903
2604 0 269.866 13.1732 3555 66.02 1102.41 417.619
2605 0 275.215 11.809 3250 66.6862 1102.63 424.095
2606 1 207.981 12.3137 2561 65.3159 1101.93 449.014
2607 0 214.731 12.1454 2608 65.1342 1102.4 450.804
2608 0 220.01 13.713 3017 64.6321 1102.19 438.749
2609 0 231.082 13.268 3066 64.5352 1102.48 443.82
2610 0 239.596 14.2573 3416 63.4546 1102.17 439.916
2611 0 247.182 12.8731 3182 64.9271 1102.42 434.927
2612 1 162.667 11.293 1837 65.1622 1102.4 470.956
2613 0 175.29 14.8953 2611 61.0636 1101.6 474.38
2614 0 179.941 13.7323 2471 62.6512 1101.63 466.531
2615 0 183.241 13.4141 2458 63.9748 1101.67 458.228
2616 0 190.974 12.2582 2341 65.1653 1101.57 454.114
2617 0 199.479 13.1593 2625 63.6994 1101.94 455.219
2618 0 198.16 12.6312 2503 65.688 1102.23 445.045
2619 1 214.252 14.4456 3095 62.5102 1102.67 449.255
2620 0 219.659 13.3798 2939 64.3562 1102.64 443.61
2621 0 225.6 13.7899 3111 64.6647 1102.53 433.26
2622 0 233.613 14.8707 3474 62.8339 1102.56 429.955
2623 1 165.117 12.0642 1992 64.1461 1103.31 470.37
2624 0 170.06 13.1013 2228 63.2801 1103.37 466.83
2625 0 175.426 13.2934 2332 63.5364 1103 459.928
2626 0 181.539 12.0415 2186 65.0906 1102.46 458.838
2627 0 184.878 12.7814 2363 64.5383 1101.83 452.364
2628 0 193.529 13.7034 2652 62.6429 1101.07 458.307
2629 0 200.271 13.3469 2673 63.4235 1101.23 453.599
2630 0 207.455 14.6345 3036 62.2286 1100.66 452.417
2631 0 211.284 12.8878 2723 64.4517 1101.5 443.903
2632 0 217.499 13.1357 2857 63.7245 1102.71 450.894
2633 0 223.843 13.4603 3013 63.7922 1102.57 441.203
2634 0 234.492 13.9749 3277 63.3174 1102.46 436.754
2635 0 238.199 13.749 3275 63.6992 1102.38 439.369
2636 1 250.403 16.134 4040 60.2817 1102.86 443.658
2637 0 255.822 14.1974 3632 63.405 1102.09 433.449
2638 0 264.942 17.4793 4631 59.9624 1102.73 428.744
2639 1 195.195 13.32 2600 63.7627 1102.33 457.768
2640 0 199.31 13.3561 2662 63.2795 1102.35 456.682
2641 1 284.622 9.65492 2748 67.0801 1103.09 432.617
2642 1 237.071 10.2459 2429 64.3306 1103.11 460.015
2643 0 235.265 12.8876 3032 63.253 1102.75 445.612
2644 0 236.418 14.4067 3406 61.7995 1102.63 440.367
2645 0 242.049 13.5179 3272 62.8484 1102.93 435.252
2646 0 250.907 12.0164 3015 64.7705 1103.25 425.464
2647 0 258.446 14.0377 3628 62.8043 1103.16 420.893
2648 0 268.76 13.8227 3715 62.8011 1102.86 425.022
2649 0 274.615 13.3933 3678 62.9375 1102.85 418.488
2650 0 288.035 14.5711 4197 61.7439 1103.27 416.272
2651 1 257.418 10.1974 2625 63.1093 1103.09 451.333
2652 0 255.674 10.0949 2581 63.463 1102.96 447.923
2653 1 72.45 13.4714 976 56.4662 1103.32 517.241
2654 0 76.0502 12.8336 976 57.5123 1104.16 517.856
2655 0 74.7221 14.3331 1071 56.0486 1103.4 519.461
2656 0 79.5139 14.5761 1159 55.8663 1103.5 518.564
2657 0 79.341 14.8095 1175 55.76 1103.52 517.151
2658 0 81.9229 13.4273 1100 57.1509 1103.83 515.837
2659 0 84.3211 12.8556 1084 57.7721 1103.69 514.463
2660 0 82.5991 13.1478 1086 58.2284 1103.61 511.262
2661 0 86.7301 12.9828 1126 58.0666 1103.27 513.777
2662 0 87.7573 15.9303 1398 55.8469 1103.15 513.011
2663 0 88.924 14.8554 1321 57.676 1103.28 511.282
2664 0 92.6659 13.662 1266 58.8902 1102.76 509.921
2665 0 94.4633 15.5298 1467 57.1288 1102.8 510.461
2666 0 95.5047 13.8946 1327 59.2758 1103.18 510.239
2667 0 98.1802 13.5669 1332 59.211 1102.92 510.991
2668 0 96.9556 12.9234 1253 60.7071 1102.33 501.232
2669 0 104.308 14.6681 1530 57.1961 1102.33 506.875
2670 0 107.018 15.745 1685 56.4552 1102.48 506.51
2671 1 200.495 12.5988 2526 61.4177 1101.95 465.947
2672 1 113.852 13.9128 1584 58.6818 1102.03 501.941
2673 0 117.167 13.6216 1596 58.9731 1101.74 501.773
2674 0 119.529 13.2018 1578 59.4975 1102.5 496.007
2675 0 123.604 11.8524 1465 60.9317 1102.48 490.856
2676 0 128.34 14.7733 1896 57.8523 1101.9 492.33
2677 0 127.166 15.0591 1915 57.6888 1101.8 490.113
2678 0 136.298 14.1161 1924 57.9917 1102.03 492.455
2679 0 138.483 14.435 1999 57.9225 1101.59 488.735
2680 0 145.408 15.343 2231 56.9431 1101.85 487.272
2681 0 150.089 13.6985 2056 58.552 1101.86 481.247
2682 0 157.391 13.6412 2147 58.4499 1102.17 479.632
2683 0 161.536 13.5636 2191 58.0936 1102.54 477.112
2684 0 168.819 14.6488 2473 57.2398 1102.06 477.983
2685 0 172.255 14.1824 2443 58.5518 1102.34 474.83
2686 0 180.94 14.176 2565 58.1801 1101.83 473.72
2687 0 185.661 12.2535 2275 60.1767 1102.11 468.243
2688 0 192.192 13.2523 2547 59.2843 1102.33 465.617
2689 0 192.613 15.8348 3050 57.5823 1101.94 454.04
2690 0 202.298 13.8261 2797 59.178 1102.33 450.883
2691 0 209.142 13.8518 2897 59.222 1102.14 449.509
2692 0 215.687 13.8163 2980 59.3768 1102.13 451.77
2693 1 223.384 13.3492 2982 60.0426 1101.98 437.636
2694 1 163.504 13.6266 2228 59.7181 1102.68 469.719
2695 0 166.407 14.3744 2392 58.7099 1102.1 470.549
2696 0 173.382 12.5792 2181 60.8794 1102.84 462.665
2697 0 180.314 13.7149 2473 59.2277 1102.75 465.12
2698 0 187.322 13.6396 2555 59.207 1103.01 459.529
2699 0 186.418 14.3978 2684 58.6263 1103.07 460.516
2700 1 200.449 12.3772 2481 59.9452 1102.64 461.687
2701 0 203.944 12.3514 2519 60.8043 1102.54 450.734
2702 0 208.671 13.725 2864 59.8237 1102.64 450.148
2703 1 220.463 16.801 3704 56.2422 1103.19 451.338
2704 1 146.346 13.5228 1979 58.4699 1103.71 480.894
2705 0 147.611 13.4475 1985 58.5552 1102.91 481.492
2706 0 150.144 11.4557 1720 61.8267 1103.22 475.884
2707 0 151.586 12.4813 1892 60.8922 1102.94 472.52
2708 0 160.443 11.7612 1887 60.8813 1103.75 478.883
2709 0 166.683 15.1545 2526 57.6421 1103.07 477.867
2710 0 170.064 12.066 2052 61.5741 1102.95 465.287
2711 0 176.478 14.7894 2610 57.9648 1103.25 471.867
2712 0 180.083 12.8163 2308 59.7028 1103.6 467.141
2713 0 184.793 12.836 2372 60.2846 1103.17 461.94
2714 0 189.483 13.0354 2470 60.2215 1103.87 456.527
2715 0 193.563 12.957 2508 60.187 1103.44 455.816
2716 0 199.597 13.1114 2617 60.0264 1103.09 454.954
2717 0 209.189 14.5323 3040 58.6533 1103.33 451.418
2718 0 203.717 14.5545 2965 59.5012 1103.09 439.997
2719 0 213.533 11.2208 2396 60.1619 1102.65 463.181
2720 1 299.173 11.5385 3452 61.8117 1103.47 421.59
2721 1 176.829 14.0135 2478 58.0932 1103.09 473.132
2722 0 177.082 11.4636 2030 60.7167 1102.76 471.114
2723 0 181.436 13.6908 2484 59.4448 1103.18 461.519
2724 0 190.59 14.135 2694 57.9369 1103.57 468.163
2725 0 186.862 14.9255 2789 58.4116 1103.02 462.558
2726 0 195.715 14.4598 2830 59.1989 1102.7 449.034
2727 1 204.071 10.6482 2173 62.9015 1103.19 445.738
2728 0 214.986 14.2754 3069 59.1202 1103.29 448.872
2729 0 221.563 13.4409 2978 59.7448 1103.57 449.622
2730 0 227.1 13.2276 3004 59.9727 1103.37 444.538
2731 0 230.521 13.7732 3175 59.851 1102.97 442.454
2732 1 181.112 13.2459 2399 60.8608 1103.16 455.657
2733 0 182.153 13.6094 2479 60.5171 1103.03 456.801
2734 1 198.578 14.2363 2827 58.9706 1103.95 459.908
2735 0 201.993 12.7876 2583 60.9466 1103.71 451.077
2736 0 205.947 15.3292 3157 58.2449 1103.57 456.012
2737 0 213.754 15.3447 3280 58.6482 1103.55 447.322
2738 0 219.677 15.4272 3389 58.5595 1103.32 449.184
2739 0 226.396 14.6337 3313 59.1769 1103.7 446.582
2740 0 231.887 14.037 3255 60.6304 1102.92 435.427
2741 0 239.009 14.0078 3348 60.9809 1104.16 435.319
2742 0 252.42 13.9094 3511 61.1606 1104.22 425.47
2743 0 259.667 15.2541 3961 59.9821 1103.97 423.367
2744 1 193.078 13.176 2544 61.1517 1104.01 459.785
2745 0 195.241 11.8469 2313 63.1107 1104.27 456.374
2746 0 205.155 15.1593 3110 59.3167 1104.07 462.705
2747 0 206.352 14.1457 2919 61.456 1104.41 456.481
2748 1 215.023 15.1193 3251 60.9357 1104.28 449.691
2749 0 215.385 12.3035 2650 64.4909 1104.3 441.048
2750 0 226.521 14.7713 3346 61.364 1104.32 446.416
2751 0 149.137 17.3129 2582 60.8311 1104.59 259.969
2752 1 101.171 14.0455 1421 64.4053 1104.43 284.316
2753 0 106.114 15.21 1614 62.8916 1104.3 283.441
2754 0 109.102 15.2884 1668 62.3124 1103.93 287.558
2755 1 61.1499 13.2298 809 63.6972 1104.38 309.001
2756 0 59.077 13.8294 817 64.8947 1104.42 307.481
