time division length width area intensity CMx CMy
0 0 52.0248 11.5137 599 61.409 656.165 518.157
1 0 54.0262 11.4204 617 60.8298 655.499 516.491
2 0 54.076 12.6674 685 59.7869 655.326 515.901
3 0 56.0837 11.6255 652 60.7561 655.193 515.91
4 0 57.0581 12.1806 695 59.5597 654.118 517.535
5 0 59.0142 12.336 728 60.3201 654.716 514.966
6 0 61.0502 11.8591 724 60.7569 654.272 513.765
7 0 62.0997 11.24 698 61.2493 653.337 516.602
8 0 66.1638 13.5421 896 58.0324 653.232 514.248
9 0 65.0601 12.1272 789 60.8796 654.123 514.3
10 0 67.0326 13.3965 898 59.0991 653.341 513.784
11 0 69.0572 13.1196 906 59.734 653.67 512.779
12 0 71.1556 12.55 893 60.9026 653.772 511.049
13 0 72.1843 12.3988 895 61.667 654.15 509.706
14 0 75.0676 12.9883 975 60.8708 653.027 508.789
15 0 74.0322 11.9543 885 62.791 654.062 506.924
16 0 77.0719 12.5986 971 62.5911 654.238 507.592
17 0 80.2467 12.3494 991 62.2876 653.559 507.907
18 0 82.1122 11.7157 962 63.2942 654.463 507.947
19 1 44.0187 11.8586 522 62.1303 653.979 524.812
20 0 43.0419 11.1519 480 64.1417 653.446 524.825
21 0 47.0953 12.4641 587 62.2198 654.186 524.315
22 0 48.0422 11.9895 576 63.9149 653.901 523.418
23 0 49.0974 12.5872 618 63.233 653.144 523.256
24 0 51.0935 12.6239 645 63.0899 653.664 523.991
25 0 52.0753 12.6356 658 62.9088 654.094 524.301
26 0 52.0623 12.293 640 65.0766 653.236 520.809
27 0 55.0492 11.9893 660 65.4061 653.741 519.089
28 0 55.0537 12.6422 696 65.2385 653.652 519.552
29 0 58.1143 13.0605 759 64.6693 654.959 518.851
30 0 59.1134 11.7402 694 66.6484 653.55 516.896
31 0 60.1697 10.969 660 67.403 654.858 518.502
32 0 64.0652 11.9722 767 65.8409 654.609 516.39
33 0 64.1956 11.7142 752 66.8723 654.465 516.134
34 0 69.1534 11.8577 820 66.7573 655.033 513.027
35 0 69.1308 12.1509 840 66.781 655.399 512.501
36 0 72.1439 11.2137 809 67.2954 655.518 514.047
37 0 74.1516 13.5533 1005 65.0358 655.691 512.517
38 0 76.2577 11.8939 907 68.1764 655.471 509.32
39 0 77.1627 11.6637 900 68.1956 655.741 511.62
40 0 81.2126 11.4268 928 68.9418 656.135 509.526
41 0 84.177 12.6638 1066 66.9719 655.683 508.208
42 1 44.1201 10.9701 484 67.0785 655.159 525.548
43 0 44.0283 10.4705 461 67.7093 654.957 525.369
44 0 47.0529 11.519 542 67.2417 655.723 522.476
45 0 49.0916 12.1202 595 65.5966 655.4 523.595
46 0 49.1076 10.9148 536 67.1119 655.601 524.078
47 0 50.012 10.4975 525 68.3143 656.175 523.53
48 0 51.1708 10.9047 558 67.353 656.025 523.498
49 0 53.0559 12.3832 657 65.9893 655.577 520.486
50 0 55.1475 11.9135 657 66.0883 655.709 521.163
51 0 54.1773 10.2257 554 68.222 655.359 521.222
52 0 56.0962 10.7494 603 67.8226 655.718 520.627
53 0 59.0369 11.0948 655 67.4137 655.372 518.354
54 0 60.0824 12.4496 748 65.9692 655.813 518.047
55 0 62.0556 11.7798 731 67.1737 655.88 515.962
56 0 64.0963 11.7167 751 67.4381 655.601 514.923
57 0 68.0865 10.5454 718 68.5446 656.589 514.166
58 0 69.1303 11.5868 801 67.3196 655.865 513.674
59 0 72.1055 10.8591 783 68.1596 655.743 512.557
60 0 74.0648 11.0984 822 68.972 655.855 510.111
61 0 74.0902 10.8651 805 69.2248 655.729 510.173
62 0 76.0628 11.4116 868 69.4113 655.296 507.149
63 1 39.1531 10.7016 419 65.5394 655.611 524.716
64 0 41.0924 8.88242 365 67.6219 656.164 525.362
65 0 42.0525 10.9387 460 65.8326 656.402 524.617
66 0 42.0335 9.68274 407 67.8305 656.526 524.74
67 0 45.0174 10.3515 466 66.0258 655.815 524.794
68 0 47.0365 11.7568 553 65.2893 655.852 522.434
69 0 47.0314 11.2478 529 65.9868 655.87 523.775
70 0 47.1188 11.5453 544 66.9779 655.665 522.241
71 0 48.0652 9.79919 471 69.1529 655.062 520.667
72 0 51.0594 11.1635 570 67.3544 655.293 521.279
73 0 52.0494 11.7773 613 66.5661 655.284 521.4
74 0 53.1747 10.6065 564 68.1082 655.791 522.012
75 0 54.2622 10.7994 586 68.3771 655.391 519.188
76 0 54.0423 9.86265 533 69.5328 655.34 520.67
77 0 57.031 11.6954 667 67.6507 655.567 517.235
78 0 58.1973 12.87 749 66.7997 655.947 514.653
79 0 60.0703 13.0847 786 66.2735 655.854 513.691
80 0 62.0409 13.0881 812 66.3867 656.217 514.108
81 0 65.0777 12.001 781 67.3688 656.119 515.127
82 0 67.1218 12.2613 823 67.3852 656.988 513.514
83 0 69.1394 12.5977 871 67.0253 656.31 511.712
84 0 69.1504 11.3376 784 68.9324 656.399 514.315
85 0 72.1487 13.0564 942 66.6412 656.473 512.54
86 0 72.0856 12.2355 882 68.5306 656.246 510.552
87 0 77.0536 11.9397 920 68.5815 656.376 507.104
88 0 78.0592 12.2087 953 68.6621 656.821 506.712
89 0 82.1362 11.9801 984 68.6992 656.619 504.694
90 1 40.0354 10.2909 412 68.6116 656.757 524.616
91 0 43.0558 11.0554 476 67.1555 656.899 523.76
92 0 42.0214 9.1144 383 70.4961 657.363 522.548
93 0 47.0988 10.4461 492 67.874 657.612 522.398
94 0 45.0344 11.1248 501 68.493 656.95 521.072
95 0 50.0321 11.3527 568 66.743 656.623 521.379
96 0 51.0852 10.2378 523 68.499 656.719 520.465
97 0 52.0867 10.0602 524 69.0038 656.641 519.17
98 0 54.0461 11.0461 597 67.7588 656.236 519.313
99 0 55.0503 11.6802 643 67.3857 656.011 516.333
100 0 55.0849 10.856 598 68.8044 656.385 516.635
101 0 56.0616 10.9166 612 69.6127 656.592 515.951
102 0 55.0211 10.7232 590 70.122 656.6 515.942
103 0 60.0653 11.654 700 68.1314 656.724 513.873
104 0 59.0603 12.1909 720 68.5306 656.985 512.467
105 0 64.0752 10.5501 676 69.4379 656.642 513.654
106 0 65.0898 12.7055 827 67.4414 656.637 510.302
107 0 67.036 11.7698 789 69.0558 655.774 511.091
108 0 68.0481 11.4037 776 69.8737 656.164 509.237
109 0 70.0703 11.7596 824 69.2597 655.16 508.698
110 0 72.0608 12.6837 914 69.0427 655.898 504.765
111 0 76.0525 12.5834 957 68.7367 655.614 506.805
112 0 78.142 13.8082 1079 67.5014 655.553 503.567
113 0 81.1049 12.8476 1042 69.6238 655.825 504.784
114 0 81.122 12.3764 1004 70.8855 656.115 502.704
115 1 40.0314 8.31848 333 70.4474 655.835 526.198
116 0 40.0693 10.4569 419 70.1671 656.017 523.749
117 0 43.0325 11.1544 480 68.7583 655.515 523.429
118 0 43.0328 11.4564 493 69.7241 656.44 521.3
119 0 44.1266 10.6285 469 71.7719 656.371 521.113
120 0 47.0665 10.4533 492 69.435 656.291 521.982
121 0 48.0167 11.9333 573 68.1291 656.529 518.674
122 0 49.0409 11.8677 582 69.0017 656.694 519.191
123 0 49.0328 11.3801 558 69.5753 656.308 519.269
124 0 54.0407 11.3248 612 68.2549 655.636 518.828
125 0 54.0909 13.4218 726 65.7397 655.853 516.796
126 0 56.0457 11.3479 636 68.9308 656.019 515.725
127 0 59.048 12.9217 763 65.2018 656.225 517.244
128 0 58.0934 11.7569 683 68.5227 656.732 514.189
129 0 60.0665 10.505 631 70.3804 656.242 513.193
130 0 64.0384 11.1808 716 68.2263 655.746 512.085
131 0 62.0496 10.411 646 70.2601 655.81 511.95
132 0 64.0927 11.733 752 68.3723 656.02 510.434
133 1 32.0235 8.52499 273 70.1648 655.905 526.879
134 0 36.0199 9.49475 342 67.7719 655.74 527.111
135 0 36.0205 10.5495 380 66.6079 656.642 525.44
136 0 38.0416 12.1446 462 64.0606 656.433 524.82
137 0 40.0235 11.1185 445 65.618 656.488 523.703
138 0 39.0159 9.81651 383 67.7258 656.057 524.488
139 0 40.0976 11.5219 462 65.9978 656.48 522.236
140 0 43.0433 10.7334 462 66.2446 656.303 523.597
141 0 42.0586 10.1049 425 68.3553 657.136 521.991
142 0 44.0286 10.6749 470 66.8383 656.883 521.657
143 0 46.0517 11.5957 534 66.4869 656.596 519.663
144 0 46.0867 11.1746 515 67.1961 656.299 519.247
145 0 50.2483 10.3884 522 67.0881 656.406 520.056
146 0 52.0724 12.2714 639 64.9045 656.069 517.77
147 0 53.0626 11.722 622 65.3055 655.304 518.06
148 0 53.0906 12.3562 656 65.4848 655.636 515.761
149 0 52.1028 12.0915 630 65.9206 655.538 514.456
150 0 55.0417 11.246 619 66.3457 656.013 516.638
151 0 57.1356 11.3064 646 66.3731 656.56 514.122
152 0 58.0811 9.31457 541 67.8022 656.242 516.479
153 0 61.0669 11.8395 723 64.9419 656.508 514.427
154 0 61.1118 11.4053 697 66.2252 657.082 511.809
155 0 65.0559 12.8351 835 62.812 656.901 513.289
156 0 64.0473 11.9599 766 65.4452 657.166 508.738
157 0 69.0971 11.9976 829 64.3498 656.379 510.366
158 0 71.0503 11.7945 838 64.3532 656.347 508.905
159 0 72.0635 10.8654 783 65.7126 655.525 508.519
160 1 40.067 9.9084 397 62.8665 656.227 524.97
161 0 39.0243 9.60939 375 64.0933 656.507 523.939
162 0 41.0453 9.91588 407 62.7985 656.408 524.467
163 0 42.073 11.3137 476 61.584 656.137 523.303
164 0 42.0773 12.1206 510 61.1333 656.371 520.826
165 0 43.0287 9.2264 397 65.0327 655.977 521.189
166 0 45.053 12.4742 562 61.2776 656.388 520.61
167 0 47.0633 11.7289 552 61.5652 655.708 521.457
168 0 48.0616 10.2785 494 63.6458 656.417 521.644
169 0 49.0572 10.5591 518 63.8958 656.253 519.32
170 0 51.0282 12.0718 616 62.5032 655.958 519.187
171 0 50.0267 10.0746 504 65.6607 656.415 518.774
172 0 53.0396 11.0106 584 63.8973 656.945 519.296
173 0 54.0187 10.6259 574 65.5383 656.742 517.026
174 0 56.07 10.8258 607 64.86 656.415 516.872
175 0 54.0764 10.4297 564 67.172 656.658 514.601
176 0 58.0248 11.9604 694 64.2709 657.158 516.791
177 0 61.0795 12.2136 746 64.0925 656.465 516.449
178 0 61.0556 11.1046 678 67.056 656.347 512.568
179 0 63.0772 11.4146 720 65.9778 657.05 512.504
180 0 65.0331 11.3634 739 66.7442 656.599 511.483
181 0 67.1102 12.7104 853 64.9344 656.276 511.911
182 0 70.0378 12.1506 851 65.7615 656.19 508.646
183 0 71.1336 13.6785 973 64.5796 655.549 508.272
184 0 75.0817 12.7994 961 64.9251 655.789 510.733
185 0 76.1187 11.8499 902 67.1264 654.787 507.887
186 0 78.061 12.5927 983 66.2645 655.661 508.058
187 1 40.036 10.3906 416 66.5841 655.269 524.474
188 0 43.0579 10.6136 457 66.0438 655 524.494
189 0 45.017 10.6848 481 64.6798 654.38 525.279
190 0 45.1118 11.1279 502 65.9223 654.195 522.791
191 0 46.0297 10.5149 484 67.2851 654.376 522.157
192 0 49.0601 10.4566 513 66.2437 653.984 523.027
193 0 50.0554 11.6471 583 65.1852 653.818 521.925
194 0 52.0721 12.5403 653 63.7473 653.43 520.893
195 0 53.155 12.8116 681 63.1175 653.742 522.057
196 0 54.0298 12.345 667 64.1814 653.636 520.555
197 0 57.0717 11.7396 670 64.3388 653.507 520.666
198 0 57.0434 11.5351 658 65.0517 653.795 519.86
199 0 60.0718 11.5029 691 65.2214 653.711 517.999
200 0 62.2007 12.6044 784 63.2054 653.614 518.119
201 0 64.0403 11.5864 742 64.8073 653.03 517.263
202 0 66.0675 13.6527 902 62.3825 653.168 516.188
203 0 68.1234 11.9489 814 64.1351 652.898 515.787
204 0 71.106 11.5883 824 64.9272 652.221 514.466
205 0 73.1768 11.889 870 64.6046 653.703 515.495
206 0 75.1466 11.4709 862 65.0406 653.082 513.428
207 0 77.2158 11.2671 870 65.3253 653.007 511.678
208 0 81.1873 12.7976 1039 62.6737 653.146 512.612
209 0 83.0731 12.4709 1036 63.8707 653.37 510.756
210 1 41.0364 8.67522 356 64.764 652.949 531.548
211 0 42.03 10.5163 442 62.0928 652.649 529.948
212 0 43.0689 9.47318 408 63.4559 652.081 528.846
213 0 44.0603 10.009 441 62.6258 651.308 528.501
214 0 45.0458 10.456 471 62.3779 652.017 530.635
215 0 46.1158 9.97489 460 62.6739 650.454 529.128
216 0 49.0464 10.9284 536 61.6362 651.31 526.812
217 0 50.0427 9.23211 462 64.1212 650.431 527.275
218 0 50.0575 12.3658 619 61.2391 651.478 525.934
219 0 53.1 11.6196 617 61.7877 650.938 524.324
220 0 54.1292 10.9553 593 62.5379 650.656 523.211
221 0 57.1151 10.4701 598 62.6187 650.604 523.124
222 0 58.1632 11.2786 656 61.9665 651.113 521.541
223 0 60.1727 12.032 724 61.1188 650.76 520.148
224 0 62.0783 12.452 773 61.0453 650.48 516.419
225 0 63.1014 11.0933 700 61.8214 650.289 519.991
226 0 65.061 10.544 686 63.0131 650.557 515.458
227 0 67.0491 10.6937 717 62.9805 650.637 515.166
228 0 70.1258 11.3938 799 61.7534 650.184 513.035
229 0 73.0788 12.3565 903 61.0089 651.212 509.392
230 0 74.1061 11.9019 882 61.1995 651.023 510.236
231 0 77.1028 10.4406 805 62.2832 651.083 511.194
232 0 80.0621 10.7541 861 62.8885 651.417 504.897
233 0 84.1485 12.1095 1019 60.7969 650.477 505.822
234 0 87.0634 12.7149 1107 60.3351 650.857 503.649
235 1 41.0811 9.0796 373 63.2788 650.949 524.828
236 0 44.0968 11.4748 506 59.9585 650.417 524.249
237 0 47.0854 10.9801 517 60.4487 651.263 522.928
238 0 47.083 10.9381 515 60.4913 651.485 522.802
239 0 49.028 12.0747 592 59.6554 651.684 521.512
240 0 51.042 12.4995 638 59.4028 652.006 520.52
241 0 52.0847 12.0957 630 59.7381 651.675 521.3
242 0 54.0609 11.894 643 60.5179 651.628 519.462
243 0 55.0276 10.9218 601 62.1431 651.774 517.855
244 0 58.1714 11.7755 685 60.8161 651.28 517.53
245 0 60.038 12.2756 737 61.4084 650.659 516.246
246 0 60.1345 11.8401 712 61.0885 651.594 515.136
247 0 60.0511 12.939 777 60.8842 650.94 512.912
248 0 64.0736 11.1903 717 62.2301 651.036 515.205
249 0 66.0878 11.2426 743 62.2894 652.27 513.629
250 0 66.2136 11.0551 732 62.5738 651.801 512.398
251 0 70.1361 11.8912 834 61.0935 651.632 512.482
252 0 71.1014 11.7438 835 61.5988 651.274 512.82
253 0 72.1874 10.9853 793 62.2673 652.204 513.894
254 0 74.135 10.7642 798 62.7343 652.338 510.348
255 0 78.1249 12.3904 968 60.687 651.499 508.317
256 0 82.1665 12.4747 1025 59.5307 652.295 510.596
257 1 41.0916 9.71001 399 61.1429 651.053 527.336
258 0 41.1351 10.2346 421 60.0641 651.779 529.634
259 0 42.0862 9.36175 394 61.9036 651.487 527.013
260 0 46.0466 11.206 516 58.7965 651.669 527.24
261 0 48.0991 11.31 544 58.0754 651.656 527.892
262 0 50.1223 10.1951 511 59.4521 651.376 526.178
263 0 51.0368 10.3063 526 58.1179 651.62 526.977
264 0 52.112 11.3601 592 57.1723 651.314 524.236
265 0 53.0346 10.8043 573 57.9372 650.613 522.825
266 0 56.104 10.8727 610 57.6328 650.657 521.834
267 0 59.052 11.2105 662 56.6118 650.435 522.373
268 0 59.0382 11.6365 687 56.1339 650.444 521.757
269 0 59.0806 9.34317 552 59.2862 650.603 520.239
270 0 62.1039 10.2087 634 57.7776 650.424 520.221
271 0 63.1413 10.1202 639 58.169 650.909 517.754
272 0 67.1209 10.8163 726 56.9339 650.393 517.873
273 0 69.1251 10.7776 745 57.0094 650.542 516.144
274 0 71.072 12.1848 866 55.3891 650.866 516.48
275 0 74.1895 11.3358 841 55.9465 649.68 514.128
276 0 75.0991 10.626 798 56.9637 649.887 514.578
277 0 76.1071 8.71141 663 59.8446 649.698 508.474
278 0 79.0548 10.8659 859 57.8172 649.842 509.134
279 0 81.1533 8.83513 717 59.7099 649.812 510.047
280 1 46.0261 11.5369 531 53.8173 650.073 530.166
281 0 45.0409 10.1241 456 55.614 649.083 529.439
282 0 45.0553 8.14555 367 58.0327 648.703 530.608
283 0 46.0853 9.43902 435 56.5448 648.48 529.182
284 0 49.0857 9.45285 464 56.7737 648.353 526.552
285 0 49.0342 11.3186 555 55.7117 649.458 524.649
286 0 52.0412 10.8952 567 55.9453 649.056 525.81
287 0 54.1905 9.07909 492 58.4695 648.906 524.126
288 0 55.0697 11.8032 650 55.7354 649.514 521.718
289 0 57.0403 12.3422 704 55.1023 649.646 520.256
290 0 59.1692 11.2897 668 56.3518 649.352 520.04
291 0 61.1309 11.1073 679 56.8984 649.49 521.49
292 0 62.1831 11.1767 695 57.4058 649.34 519.299
293 0 63.0918 9.2405 583 59.0343 649.352 518.726
294 0 66.0395 10.2817 679 58.6362 649.962 515.227
295 0 67.073 11.5546 775 57.4026 649.542 514.846
296 0 71.0734 11.7484 835 56.9066 649.496 514.719
297 0 72.0977 11.6786 842 56.519 649.273 515.739
298 0 74.1619 10.5175 780 58.7167 649.328 512.454
299 0 78.0749 10.7717 841 57.7336 649.274 511.784
300 0 79.1994 11.1365 882 57.7585 648.884 510.678
301 0 81.1335 11.7337 952 57.6555 649.149 504.152
302 0 84.096 12.3193 1036 57.3301 649.208 508.666
303 0 88.1467 10.925 963 58.8048 649.104 508.371
304 0 88.185 11.0676 976 58.9088 648.693 505.767
305 0 91.1267 11.5224 1050 59.5533 649.055 502.37
306 0 95.2237 10.5856 1008 60.5139 649.292 501.807
307 0 97.0773 12.1244 1177 59.0238 648.677 500.865
308 1 48.1132 9.91413 477 59.0964 648.704 526.43
309 0 51.074 9.84846 503 59.9145 648.521 524.827
310 0 50.0606 11.6459 583 57.8473 648.715 526.503
311 0 51.0945 11.7234 599 58.8498 649.583 524.461
312 0 52.0866 11.6537 607 58.8863 648.661 522.064
313 0 55.1205 13.0804 721 57.4702 649.184 521.133
314 0 55.12 10.7402 592 60.4274 648.277 521.652
315 0 56.0934 9.92986 557 61.5063 648.153 520.077
316 0 58.1857 11.2399 654 59.6177 648.339 518.748
317 0 62.128 11.927 741 57.6545 648.726 520.277
318 0 61.1702 9.93947 608 60.5115 648.235 519.556
319 0 64.0786 10.4247 668 60.0464 648.322 515.763
320 0 66.1945 11.3151 749 59.2443 648.892 516.251
321 0 68.1015 11.3507 773 59.1876 649.419 516.895
322 0 69.0547 10.47 723 60.5892 649.726 514.241
323 0 73.1387 11.9499 874 58.6373 648.919 512.522
324 0 74.1379 11.6809 866 58.6778 648.843 511.986
325 0 77.0727 10.5874 816 59.9424 649.198 509.641
326 0 80.1502 11.1166 891 59.4848 649.717 508.347
327 1 44.0485 9.62576 424 58.2642 648.314 527.014
328 0 47.0539 10.1373 477 56.5535 649.218 528.247
329 0 45.036 9.57013 431 58.0302 649.515 526.852
330 0 48.0442 10.9483 526 56.4468 649.768 524.452
331 0 47.1 10.0212 472 57.8835 649.746 525.691
332 0 49.089 9.73742 478 58.4602 650.021 524.561
333 0 53.0535 11.347 602 57.7342 649.457 521.872
334 0 53.1097 9.94168 528 59.1477 648.208 523.989
335 0 55.1372 11.1177 613 57.9739 648.98 521.643
336 0 57.1636 11.2484 643 57.9969 648.935 521.54
337 0 58.1249 11.0624 643 58.9129 649.132 517.202
338 0 60.064 9.82286 590 59.6983 649.624 518.175
339 0 62.0883 11.081 688 58.0828 649.618 517.391
340 0 64.047 10.586 678 58.2065 649.519 519.224
341 0 64.1079 9.42162 604 59.0414 648.944 519.204
342 0 67.1566 11.2573 756 57.9868 649.578 514.287
343 0 69.1408 10.1677 703 58.6842 649.459 513.879
344 0 70.0854 9.2744 650 59.2492 649.086 515.318
345 0 73.1477 11.1282 814 58.2027 649.715 511.865
346 0 77.1658 11.2874 871 57.8094 649.431 510.853
347 0 78.0575 9.94139 776 60.0245 650.506 508.125
348 0 81.1935 11.6881 949 58.0738 650.402 506.659
349 0 82.1718 10.405 855 59.2749 650.749 504.998
350 0 86.108 13.7037 1180 55.6025 650.51 505.581
351 0 90.1623 15.5386 1401 44.8844 649.966 505.991
352 1 44.0739 9.12104 402 58.3483 650.667 527.241
353 0 47.0676 10.453 492 57.4959 650.443 523.638
354 0 45.1402 11.4089 515 57.4951 649.85 522.208
355 0 46.0407 11.1423 513 57.9513 649.168 522.057
356 0 49.0815 11.0429 542 57.3542 649.956 522.961
357 0 52.1369 11.8726 619 56.8223 649.396 520.32
358 0 56.0828 13.1769 739 54.4614 650.425 521.434
359 0 56.0826 12.2141 685 55.9898 651.018 518.674
360 0 57.07 11.2669 643 56.6905 649.72 521.212
361 0 55.0802 9.44077 520 60.0385 649.577 518.133
362 0 60.1249 12.2744 738 56.8902 650.187 517.856
363 0 61.15 11.7416 718 58.3746 650.208 514.552
364 0 64.1405 14.172 909 56.0451 650.878 515.497
365 0 67.2605 12.236 823 57.6586 650.848 514.436
366 0 67.1636 11.9708 804 58.4652 650.597 514.674
367 0 71.1871 11.9544 851 58.2221 650.115 513.09
368 0 72.2652 12.0252 869 58.6456 650.417 512.921
369 0 75.0897 13.0244 978 57.9468 650.476 509.343
370 0 75.2505 10.3521 779 61.4018 649.662 507.361
371 0 79.1707 11.4942 910 59.5154 650.233 509.023
372 1 43.1704 9.89104 427 59.5831 650.555 528.506
373 0 42.1342 10.87 458 60.0306 650.207 526.443
374 0 46.0732 12.3716 570 57.8754 650.228 526.11
375 0 45.157 12.4676 563 58.5222 650.513 524.691
376 0 50.0729 12.1024 606 58.17 650.388 522.769
377 0 48.0984 11.0399 531 60.1111 649.912 522.512
378 0 52.1694 12.5169 653 57.9724 649.828 524.156
379 0 53.0498 13.082 694 57.9193 650.032 520.024
380 0 54.0916 12.6637 685 57.9664 649.712 520.86
381 0 55.1375 12.0608 665 59.2436 649.683 519.023
382 0 58.1129 10.7033 622 59.7926 649.633 520.074
383 0 58.0748 11.3647 660 59.8712 650.374 515.733
384 0 60.1796 11.5155 693 59.5873 650.499 513.67
385 0 63.0554 12.0846 762 58.6496 650.084 514.08
386 0 66.0925 12.3917 819 58.1709 649.995 512.891
387 0 68.1271 12.9611 883 57.2367 650.232 513.789
388 0 69.1 12.8799 890 57.5101 650.548 510.808
389 0 71.086 11.465 815 58.7485 650.674 511.995
390 0 75.0949 11.7718 884 58.5905 650.708 510.266
391 0 76.1324 12.3075 937 58.5326 650.658 504.477
392 0 79.1767 12.7689 1011 57.6706 650.25 507.446
393 0 81.1347 12.1157 983 58.412 650.139 504.393
394 0 85.1543 12.7885 1089 57.36 650.359 505.494
395 0 86.1202 12.6451 1089 57.8852 649.885 504.185
396 0 92.1747 12.8452 1184 57.2289 650.515 502.421
397 0 92.077 12.5004 1151 58.5056 650.516 501.434
398 0 96.1465 12.4602 1198 58.581 650.857 499.422
399 1 46.0662 8.76998 404 60.1584 650.772 525.223
400 0 49.0598 10.2732 504 59.0536 651.212 523.577
401 0 48.0537 10.1345 487 60.1191 650.647 521.536
402 0 52.0349 12.0496 627 57.7863 650.952 522.408
403 0 54.0258 10.569 571 59.9667 651.081 520.652
404 0 56.0383 11.6527 653 59.6784 651.005 519.476
405 0 59.1093 11.9101 704 59.0511 651.095 519.818
406 0 60.1712 12.4811 751 58.6152 650.618 519.656
407 0 62.0482 11.201 695 59.7295 650.783 520.275
408 0 63.0904 12.2364 772 59.4417 650.873 517.418
409 0 65.138 12.4505 811 59.3909 651.256 517.492
410 0 68.0923 11.3669 774 60.4044 650.862 517.531
411 0 69.0559 12.1351 838 59.6563 650.52 515.325
412 0 72.1777 11.9705 864 59.4919 650.898 515.779
413 0 71.0697 12.8747 915 59.847 650.47 510.421
414 0 76.0714 13.7765 1048 58.9351 650.574 509.639
415 0 76.1314 11.5458 879 61.8771 649.954 509.422
416 0 80.0682 13.5135 1082 59.5998 650.112 507.839
417 0 82.0699 12.5259 1028 60.9261 650.884 507.189
418 0 87.1631 13.2625 1156 59.9446 650.933 507.255
419 0 87.1056 12.0658 1051 61.5433 650.556 508.597
420 0 90.1904 12.274 1107 62.0452 650.512 505.588
421 0 91.1074 13.2371 1206 61.369 650.465 503.837
422 0 97.1647 13.1323 1276 61.2547 650.015 502.305
423 1 46.0464 9.7076 447 63.387 650.752 524.971
424 0 49.069 10.2916 505 62.0832 650.521 525.784
425 0 53.0359 10.9548 581 62.0189 650.129 521.966
426 0 53.0828 10.7191 569 62.7346 650.337 521.749
427 0 54.0317 11.1971 605 63.0612 650.324 520.362
428 0 57.0363 10.7826 615 62.5984 650.728 520.044
429 0 58.071 10.1772 591 63.3587 650.992 520.049
430 0 61.0583 12.6109 770 61.0208 650.139 518.326
431 0 62.0967 10.1616 631 63.832 650.239 519.859
432 0 64.0864 12.9669 831 61.219 650.679 514.952
433 0 67.0635 11.8843 797 61.9711 650.629 514.744
434 0 72.091 12.8587 927 60.4865 650.566 514.736
435 0 72.1419 11.2279 810 62.8395 650.667 513.962
436 0 75.0872 12.4256 933 62.1158 651.196 511.504
437 0 75.088 11.7329 881 63.4177 650.644 510.797
438 0 77.0894 10.2349 789 65.4487 650.584 510.223
439 0 80.1224 10.0471 805 65.3491 650.344 508.283
440 0 84.1124 11.9364 1004 63.4263 650.484 507.709
441 0 87.129 11.5461 1006 63.8012 650.586 507.638
442 0 89.2 12.4103 1107 62.7805 650.712 506.296
443 1 47.0357 9.16326 431 64.8979 650.35 526.74
444 0 46.123 9.30121 429 65.0909 651.016 525.755
445 0 48.0693 9.4031 452 65.1969 650.71 525.336
446 0 50.0581 11.6065 581 62.8262 650.988 522.948
447 0 52.034 10.4547 544 63.5625 650.844 524.961
448 0 54.0503 12.4699 674 60.3561 650.85 525.944
449 0 57.1099 11.1189 635 62.8378 651.22 521.157
450 0 57.0824 12.1929 696 61.8448 649.717 520.496
451 0 60.0731 11.5193 692 61.9003 650.552 518.957
452 0 58.053 10.1804 591 63.731 650.582 520.306
453 0 63.1462 12.7165 803 59.9352 650.785 518.182
454 0 65.0662 11.1118 723 61.74 651.3 518.56
455 0 66.0379 12.6745 837 60.2939 650.896 516.109
456 0 68.1186 11.48 782 61.1049 650.309 516.882
457 0 70.1012 11.0982 778 61.1272 650.922 515.634
458 0 71.0925 11.253 800 61.58 649.975 512.076
459 0 74.1657 11.1642 828 61.3587 650.444 513.78
460 0 76.1296 10.6004 807 62.0409 650.056 507.861
461 0 81.1041 12.934 1049 58.7283 650.45 507.834
462 0 79.1091 10.1 799 62.7672 650.544 506.153
463 0 84.1418 9.78111 823 62.1385 650.661 505.868
464 1 47.0842 10.152 478 57.8912 649.803 524.946
465 0 48.1116 9.68581 466 58.03 650.157 525.326
466 0 50.0564 10.5082 526 59.0665 649.914 524.243
467 0 50.1289 9.43568 473 60.8393 650.167 521.806
468 0 51.1777 10.6687 546 59.7363 650.227 521.167
469 0 54.2603 10.5418 572 59.4161 649.988 522.409
470 0 54.1435 10.546 571 59.5534 650.082 521.035
471 0 55.0278 10.3039 567 60.0035 649.365 520.256
472 0 59.1228 11.2816 667 56.1439 649.357 519.934
473 0 61.129 10.9441 669 55.8296 649.398 522.478
474 0 59.0764 9.71622 574 60.9268 649.458 516.213
475 0 63.1477 12.7637 806 57.005 649.342 517.181
476 0 64.1249 9.93373 637 60.1005 648.771 516.876
477 0 66.1479 11.4592 758 58.1082 648.802 516.752
478 0 69.2553 11.537 799 58.3091 648.905 515.509
479 0 70.1308 11.45 803 58.6202 648.781 513.808
480 0 70.2155 10.1829 715 59.8951 648.277 513.425
481 0 74.1922 12.0498 894 58.1555 649.145 511.398
482 0 77.0716 9.65336 744 59.9718 649.306 514.146
483 0 76.2521 9.78334 746 60.9222 648.988 508.067
484 0 81.3367 10.475 852 59.9178 648.957 506.98
485 0 84.1908 10.1436 854 59.7237 650.138 508.611
486 0 87.3271 10.7298 937 59.1409 649.628 504.201
487 0 91.21 10.5032 958 59.3925 649.651 502.79
488 0 92.2272 10.9621 1011 59.6152 649.548 502.813
489 0 97.0961 12.5855 1222 56.7815 650.271 505.168
490 1 46.0393 10.0566 463 57.6976 649.68 526.382
491 0 49.0778 11.1252 546 55.7234 649.672 527.524
492 0 50.0887 11.2201 562 57.0641 649.625 521.281
493 0 51.0754 10.7684 550 57.8691 649.582 522.622
494 0 54.0891 12.9416 700 54.6743 649.351 522.997
495 0 54.0506 9.97215 539 58.9555 648.516 520.922
496 0 55.1043 9.32777 514 59.7529 649.451 520.65
497 0 57.0691 10.4084 594 58.5202 649.471 519.914
498 0 60.1186 11.3276 681 57.5257 649.722 518.335
499 0 60.0637 10.3557 622 59.3585 649.296 518.677
500 0 62.1576 9.87811 614 59.4821 649.723 517.098
501 0 64.1226 11.2129 719 58.4492 649.335 515.656
502 0 68.1853 11.1461 760 58.3447 649.959 513.628
503 0 68.0643 10.7251 730 59.7137 649.785 513.379
504 0 71.0636 12.6929 902 56.9313 649.961 511.341
505 0 73.1385 11.8132 864 58.1319 649.854 512.589
506 0 75.1663 12.1331 912 57.9068 649.855 511.991
507 0 77.0852 9.08086 700 61.6629 649.377 509.151
508 0 80.0721 10.8902 872 59.8658 648.969 509.198
509 1 39.0256 8.35349 326 60.3712 649.077 527.316
510 0 42.0294 9.30301 391 58.7749 649.113 529.018
511 0 41.0946 11.7047 481 57.9584 649.312 526.819
512 0 42.03 9.49321 399 60.6692 649.804 526.013
513 0 45.057 10.0539 453 58.3466 649.605 526.642
514 0 45.0681 11.6934 527 57.0455 650.176 525.41
515 0 46.1442 9.44864 436 59.6399 650.296 526.266
516 0 49.061 10.7213 526 57.462 649.89 527.3
517 0 51.0945 11.0188 563 57.952 649.002 523.208
518 0 54.1165 12.2144 661 55.826 649.557 526.52
519 0 54.2389 9.79001 531 58.8701 649.352 524.772
520 0 54.0218 11.5139 622 57.0852 649.346 524.169
521 0 57.1068 12.6255 721 56.3925 649.652 521.09
522 0 59.0274 12.0791 713 56.9691 649.548 521.325
523 0 62.1372 11.6356 723 57.0028 649.851 519.965
524 0 62.1502 10.9895 683 57.9107 649.764 519.294
525 0 62.0778 11.695 726 57.387 649.74 520.726
526 0 66.1744 11.3186 749 57.5087 649.232 519.575
527 0 68.1053 11.8787 809 57.3412 649.758 516.491
528 0 68.1318 10.5531 719 58.5967 649.652 517.958
529 0 69.1708 11.0451 764 58.8325 649.441 513.412
530 0 71.1888 11.6872 832 57.9423 649.022 511.469
531 0 76.2218 12.3324 940 56.9319 648.219 513.102
532 0 77.2118 10.918 843 58.8838 649.144 511.454
533 0 80.3181 13.5586 1089 55.0845 648.432 512.351
534 0 83.3327 12.2881 1024 57.1426 648.779 510.246
535 0 84.1681 9.65925 813 60.8167 649.117 507.507
536 1 43.035 13.2218 569 54.3954 649.608 526.192
537 0 42.0162 11.9716 503 55.5785 649.101 528.559
538 0 46.0358 10.2529 472 57.2775 648.544 528.102
539 0 47.0717 9.6661 455 58.1143 649.338 528.486
540 0 49.0605 10.1507 498 58.1124 649.368 527.145
541 0 50.1239 12.509 627 56.0542 649.391 524.906
542 0 52.0494 11.8541 617 56.8201 649.703 524.804
543 0 52.0443 9.7225 506 59.7292 649.14 524.923
544 0 53.0566 10.7809 572 59.4021 649.371 522.822
545 0 57.1609 10.4092 595 59.4067 649.118 521.714
546 0 55.0661 10.1696 560 61.525 649.154 523.239
547 0 56.0664 10.3092 578 61.0744 648.981 522.997
548 0 60.0547 11.0566 664 59.9774 649.09 521.5
549 0 61.0318 11.5186 703 59.4111 648.851 521.879
550 0 64.0448 11.0079 705 59.5532 648.801 520.392
551 0 62.0954 10.3711 644 61.2438 649.033 517.407
552 0 67.0861 11.2244 753 59.7038 649.226 519.66
553 0 68.1039 12.4222 846 59.1442 649.767 516.98
554 0 70.076 12.6006 883 58.8675 649.822 517.247
555 0 72.1664 11.709 845 60.2959 649.68 514.766
556 0 75.1382 11.2593 846 60.4054 649.316 513.61
557 0 77.2221 10.6058 819 61.3944 649.243 514.707
558 0 78.2287 11.4025 892 61.2074 649.4 513.256
559 0 82.1888 11.8143 971 60.9032 649.175 511.309
560 0 83.1546 12.5549 1044 60.6303 649.663 507.582
561 1 41.0766 11.5881 476 61.1912 649.492 528.307
562 0 41.0759 11.4666 471 62.3185 649.622 527.166
563 0 41.0527 9.79229 402 64.8731 649.246 526.886
564 0 44.0997 11.1339 491 61.9532 649.297 527.715
565 0 44.1197 11.1968 494 61.7267 648.988 525.785
566 0 46.0192 12.0602 555 60.4559 649.032 524.297
567 0 48.083 12.9152 621 59.3672 648.89 524.462
568 0 48.2009 12.1575 586 61.0904 648.353 522.415
569 0 50.0566 13.3649 669 58.9282 648.566 524.967
570 0 52.0603 12.5624 654 60.6682 649.236 522.416
571 0 53.138 10.9714 583 62.6947 649.431 522.588
572 0 56.0402 12.491 700 60.6086 649.28 521.913
573 0 57.0495 12.7784 729 60.7243 648.893 521.587
574 0 58.0545 11.7993 685 62.3606 649.483 521.323
575 0 56.0959 10.2146 573 65.2565 649.164 517.164
576 0 60.0792 10.2531 616 64.7955 649.295 520.227
577 0 62.3262 11.7126 730 63.5438 649.27 518.022
578 0 66.1006 12.8592 850 62.0647 649.184 514.593
579 0 65.0622 12.0961 787 63.5794 650.273 516.986
580 0 70.1847 12.4244 872 63.1239 651.232 513.679
581 0 72.0802 11.1681 805 64.8298 650.676 510.985
582 0 71.1229 11.6137 826 65.0036 650.452 512.666
583 0 75.1931 12.9533 974 62.8696 651.026 512.483
584 1 38.0236 11.2299 427 63.7119 650.094 530.635
585 0 39.0506 12.7015 496 63.1149 649.706 530.292
586 0 39.0564 11.0865 433 65.6143 650.33 529.187
587 0 41.0285 12.0404 494 65.1417 649.783 527.172
588 0 42.0421 10.6798 449 66.1203 649.459 527.243
589 0 44.0312 11.2647 496 66.4093 649.56 524.952
590 0 43.0413 12.0582 519 66.0173 649.331 522.84
591 0 46.0248 12.276 565 65.3593 649.03 523.977
592 0 48.0596 11.8811 571 66.2189 649.534 521.035
593 0 49.0872 12.4676 612 64.9722 649.078 522.518
594 0 50.1199 11.6122 582 66.3643 649.728 521.347
595 0 54.0652 13.7797 745 63.4805 649.438 520.36
596 0 53.0453 11.1037 589 67.3005 649.732 520.956
597 0 56.0471 13.9704 783 63.986 649.576 517.598
598 0 58.0543 12.161 706 65.7337 649.915 519.54
599 0 59.0827 12.5248 740 66.1257 649.273 517.199
600 0 63.0403 13.0234 821 65.0378 649.503 516.697
601 0 64.0561 11.849 759 67.0066 649.672 513.101
602 0 67.0682 12.9421 868 65.5634 649.729 513.424
603 0 70.0903 12.9405 907 65.3418 649.48 514.27
604 0 74.0533 12.8016 948 64.4652 649.346 512.012
605 0 76.1173 12.7041 967 65.1851 650.722 511.523
606 0 78.138 12.8363 1003 64.8524 650.009 509.153
607 0 81.0674 12.3848 1004 65.6833 650.46 505.474
608 0 82.1533 11.1986 920 67.0641 650.16 507.693
609 1 41.061 11.2028 460 64.8674 649.813 526.659
610 0 45.0537 13.1399 592 62.2652 649.895 526.6
611 0 44.0924 10.5007 463 65.5356 650.179 527.562
612 0 44.0657 10.507 463 66.7343 650.27 523.929
613 0 46.0565 12.8972 594 63.2593 649.684 525.783
614 0 47.1133 12.0985 570 64.9737 650.072 523.402
615 0 50.0529 11.4479 573 64.5724 649.688 524.637
616 0 51.0475 11.597 592 64.6909 649.912 522.958
617 0 53.0279 10.7679 571 65.8722 650.247 522.023
618 0 54.1866 12.9921 704 63.1222 650.094 520.462
619 0 57.0291 12.1692 694 64.0908 649.968 520.244
620 0 57.0724 12.5455 716 63.7402 650.251 520.372
621 0 61.0652 13.1662 804 63.046 650.022 516.4
622 0 61.0918 11.6382 711 64.7482 649.987 517.367
623 0 65.0296 13.2094 859 62.2328 650.361 516.616
624 0 66.1048 11.6935 773 64.6507 650.737 514.649
625 0 68.0474 11.3009 769 65.7256 650.512 511.996
626 0 71.0818 11.5079 818 64.4658 649.622 514.647
627 0 73.1684 12.0954 885 64.1797 649.507 511.748
628 0 75.08 12.52 940 64.1032 650.254 509.969
629 0 78.121 11.7894 921 64.1379 650.216 510.945
630 1 38.0983 10.9979 419 64.8878 650.391 527.728
631 0 42.0921 12.3776 521 61.9981 650.399 527.898
632 0 44.102 12.3124 543 62.7937 649.91 526.774
633 0 46.0871 13.8433 638 61.0925 649.729 525.768
634 0 48.0807 13.8725 667 61.3808 650.48 524.625
635 0 46.1583 11.4172 527 64.6622 650.459 524.161
636 0 50.0834 12.3993 621 63.0097 650.583 523.398
637 0 51.1439 11.9076 609 63.197 650.852 522.936
638 0 52.0454 11.8358 616 63.7435 650.745 522.088
639 0 57.0549 12.2689 700 62.1557 649.969 521.064
640 0 54.048 11.1198 601 64.9102 650.414 518.657
641 0 59.1141 14.1929 839 61.112 649.729 519.316
642 0 61.1538 12.2969 752 63.0612 650.052 519.267
643 0 62.1359 13.5992 845 62.3101 649.553 516.548
644 0 64.0835 11.9532 766 64.7911 649.487 514.162
645 0 67.118 11.1595 749 65.3471 650.187 514.63
646 0 71.165 13.2509 943 62.9841 649.817 511.995
647 0 71.119 12.697 903 64.1096 649.88 511.854
648 0 76.2618 13.9782 1066 62.0009 650.216 512.053
649 0 77.096 11.129 858 66.5606 649.67 510.536
650 0 80.1122 11.8708 951 65.4196 650.177 511.13
651 1 43.0389 12.8256 552 61.5507 650.607 528.83
652 0 43.0537 12.7515 549 62.847 650.042 527.027
653 0 45.1256 10.7921 487 65.6591 649.963 527.226
654 0 44.0994 12.2224 539 65.3729 650.48 525.742
655 0 47.0362 12.3947 583 64.3688 650.317 525.244
656 0 47.0487 12.7102 598 65.2709 650.202 522.545
657 0 50.0759 11.9818 600 65.47 650.863 524.247
658 0 51.0933 12.8588 657 64.7291 650.225 522.406
659 0 52.065 11.7353 611 66.1129 650.231 521.434
660 0 53.0481 11.2539 597 67.665 650.529 522.43
661 0 56.0895 12.0165 674 65.8042 650.119 522.875
662 0 56.0878 12.0525 676 66.8846 650.234 518.322
663 0 60.0723 13.9332 837 63.7312 650.385 518.429
664 0 57.062 9.97161 569 69.9648 649.926 516.68
665 0 63.1103 12.2325 772 65.7694 650.324 518.363
666 0 65.2105 12.6973 828 65.2258 649.972 517.435
667 0 67.0774 13.149 882 64.4626 649.972 516.998
668 0 69.1576 12.927 894 65.0671 649.766 512.93
669 0 71.1735 13.2493 943 64.7434 649.428 513.107
670 0 76.1016 13.8105 1051 62.9572 649.504 514.249
671 0 76.2524 11.6587 889 66.667 650.38 511.096
672 0 79.1766 11.7838 933 65.8414 650.516 513.16
673 1 42.1591 11.6938 493 62.6146 649.978 530.623
674 0 41.0238 12.3343 506 63.67 649.79 528.656
675 0 42.0434 10.7984 454 67.2159 649.982 526.982
676 0 44.191 12.8533 568 63.9032 650.021 527.574
677 0 44.0207 11.4946 506 66.0514 650.545 528.374
678 0 44.379 10.8835 483 67.5093 650.031 527.162
679 0 45.0624 11.473 517 67.4255 650.265 525.085
680 0 49.0786 11.8789 583 65.4031 649.714 525.667
681 0 50.104 12.5938 631 65.1997 650.277 524.856
682 0 49.114 10.9541 538 68.5056 650.292 523.981
683 0 52.0827 12.7106 662 65.6405 650.579 522.982
684 0 54.211 13.0416 707 64.86 650.246 520.915
685 0 56.0578 13.272 744 65.1089 650.407 519.892
686 0 58.0718 12.0885 702 65.9259 650.122 521.778
687 0 60.0121 13.5139 811 64.5006 649.466 520.056
688 0 60.1208 12.242 736 66.697 649.906 517.546
689 0 64.1763 13.3383 856 64.5678 650.729 518.884
690 0 65.1452 13.0785 852 64.8873 650.473 517.009
691 0 67.0997 13.5023 906 64.2715 650.205 514.215
692 0 68.0765 11.3696 774 67.1744 650.107 514.154
693 0 73.1757 13.8571 1014 63.068 649.504 514.302
694 0 74.1513 11.8272 877 65.3774 650.213 514.312
695 1 39.0545 12.4185 485 63.1155 649.621 529.864
696 0 38.0247 10.5458 401 65.2219 649.875 531.349
697 0 39.085 10.3109 403 67.1489 650.149 529.28
698 0 40.0476 12.3353 494 65.5567 650.117 528.101
699 0 42.1334 12.1994 514 64.7393 650.593 528.765
700 0 43.0121 10.9969 473 67.2114 650.216 526.981
701 0 45.0618 12.5827 567 65.4638 650.12 524.716
702 0 48.0588 12.2558 589 65.129 650.681 525.299
703 0 47.0793 12.4683 587 66.0716 649.876 523.874
704 0 46.0466 10.9454 504 68.2639 649.976 523.52
705 0 52.0492 13.3528 695 64.495 649.922 524.452
706 0 51.0969 11.6054 593 67.6492 649.712 523.282
707 0 51.0576 11.4381 584 68.6113 649.967 521.029
708 0 54.0594 12.0608 652 67.5614 649.321 522.712
709 0 56.0746 12.0375 675 67.2163 649.745 522.123
710 0 57.0332 12.5541 716 67.8338 649.948 519.492
711 0 61.0762 11.7231 716 68.6578 649.719 519.742
712 0 61.141 12.2504 749 68.8478 649.312 518.821
713 0 66.1555 11.8962 787 68.5451 649.487 519.206
714 0 68.0743 13.97 951 66.1746 649.339 516.871
715 0 68.0782 13.3817 911 68.1229 649.978 514.026
716 0 72.1238 14.4751 1044 66.1906 649.777 513.672
717 0 74.0959 13.604 1008 67.5823 649.959 515.135
718 0 77.1252 13.8995 1072 66.8797 649.926 514.695
719 0 80.1424 14.312 1147 66.0026 650.394 515.447
720 0 83.1073 14.8362 1233 65.9408 649.573 512.467
721 1 41.0649 11.2261 461 69.4295 649.627 531.592
722 0 44.0373 13.3296 587 67.6593 650.124 528.971
723 0 45.167 14.5017 655 65.9099 649.727 528.962
724 0 46.0397 13.2929 612 68.3758 649.699 526.961
725 0 47.0384 13.2232 622 68.9132 649.894 526.635
726 0 48.0437 13.1547 632 68.8687 650.084 527.557
727 0 49.0347 13.1947 647 68.8315 650.117 528.199
728 0 50.0461 11.8291 592 70.8057 650.078 526.725
729 0 52.0462 13.2767 691 69.686 649.855 524.987
730 0 54.0491 14.0798 761 69.4573 649.986 523.493
731 0 57.0699 14.5961 833 67.09 650.158 523.364
732 0 58.1033 13.2695 771 70.1582 650.058 523.075
733 0 59.1092 14.0756 832 69.0144 649.928 524.138
734 0 61.058 14.9858 915 68.2634 649.722 521.422
735 0 63.0567 13.9716 881 69.2951 649.96 519.981
736 0 65.046 13.1753 857 70.1914 650.285 520.838
737 0 67.0952 13.9652 937 69.0256 650.61 518.92
738 0 71.0369 13.6689 971 68.2173 650.313 519.018
739 0 70.1012 12.4677 874 70.8032 650.322 518.316
740 0 72.062 13.988 1008 69.2252 650.202 515.368
741 0 76.1227 13.1761 1003 70.0528 650.288 514.359
742 0 78.1489 14.3956 1125 68.5182 649.936 511.605
743 1 39.0607 13.4406 525 68.5257 649.629 532.539
744 0 41.0269 12.7477 523 69.9809 649.459 530.434
745 0 42.0346 12.9655 545 70.044 648.892 530.901
746 0 43.0592 13.795 594 70.0168 649.365 528.375
747 0 44.2763 13.6642 605 70.6463 649.321 528.74
748 0 46.038 13.2065 608 70.8783 649.105 527.533
749 0 47.0631 12.7276 599 71.4674 649.714 526.815
750 0 48.1014 13.1389 632 71.1345 649.435 526.984
751 0 49.0823 14.1395 694 69.5605 649.189 526.059
752 0 52.0517 13.7555 716 69.9595 649.038 525.74
753 0 53.0541 13.6276 723 70.1369 649.842 524.993
754 0 54.0626 13.1514 711 71.1069 649.738 524.196
755 0 58.0388 15.214 883 67.3884 649.651 523.629
756 0 60.063 14.8178 890 67.8225 649.909 522.442
757 0 61.0963 13.7324 839 70.4744 649.383 521.623
758 0 63.1161 13.8792 876 70.2283 649.192 519.951
759 0 63.0733 13.6032 858 70.718 649.641 519.3
760 0 66.0993 14.4177 953 70.1469 649.363 516.506
761 0 69.0832 14.0555 971 70.4459 649.658 516.174
762 0 71.0764 13.9005 988 70.6943 649.371 517.028
763 0 73.0764 13.5201 988 71.9949 649.042 515.251
764 0 75.0425 12.0065 901 73.6182 649.684 516.973
765 0 79.0594 14.5334 1149 70.4839 648.957 512.871
766 1 41.0184 13.7987 566 70.5565 650.127 531.528
767 0 41.0511 12.4723 512 73.0723 648.926 532.693
768 0 43.0732 12.7689 550 73.8418 649.564 530.491
769 0 43.1167 13.6374 588 71.9541 649.794 532.379
770 0 43.1022 14.3148 617 72.9271 649.331 530.569
771 0 46.0231 12.8848 593 74.2496 649.543 529.668
772 0 48.05 13.6524 656 73.4085 649.607 528.252
773 0 51.064 14.3545 733 70.895 649.374 528.623
774 0 50.0873 14.315 717 72.4198 649.202 527.061
775 0 52.0683 13.4823 702 73.453 649 524.838
776 0 53.0338 13.2746 704 72.8366 649.574 526.625
777 0 56.0618 13.1105 735 72.9061 649.279 526.274
778 0 57.0249 14.2569 813 71.7958 649.562 522.989
779 0 59.1213 14.2757 844 71.282 649.129 524.209
780 0 61.1194 13.3509 816 72.364 649.343 523.438
781 0 63.1195 14.7023 928 70.9763 649.195 519.871
782 0 67.0311 13.2028 885 71.217 649.803 521.6
783 0 67.1112 12.8593 863 72.0811 649.791 519.552
784 0 70.2767 14.0872 990 70.1515 649.533 517.396
785 0 72.1979 13.2552 957 71.0073 650.068 514.713
786 0 78.0483 14.7473 1151 68.1277 649.719 514.056
787 0 80.1911 14.877 1193 67.7469 649.505 513.296
788 0 83.2036 14.3263 1192 68.3666 649.243 512.418
789 1 44.1275 12.1239 535 71.5439 648.935 531.293
790 0 42.1048 12.3026 518 73.0714 648.483 530.61
791 0 45.0763 13.8432 624 70.8189 648.853 530.888
792 0 47.0582 13.7489 647 70.4853 649.236 530.634
793 0 48.0751 13.6661 657 71.0426 649.475 529.151
794 0 51.251 15.2192 780 67.6449 649.797 528.02
795 0 50.1962 14.9812 752 69.5625 649.339 526.205
796 0 52.301 12.9634 678 71.3968 649.258 526.518
797 0 55.1132 14.3886 793 69.6747 649.388 525.776
798 0 56.2293 15.2945 860 68.8477 649.36 522.84
799 0 59.143 14.3212 847 69.2963 649.616 523.315
800 0 61.1634 14.2896 874 68.8055 649.292 524.581
801 0 63.2213 14.5521 920 69.0098 649.509 521.151
802 0 65.1339 13.9866 911 69.7684 649.569 521.345
803 0 68.1088 14.3594 978 68.9489 649.697 519.454
804 0 69.2505 14.5992 1011 68.9723 649.7 518.557
805 0 71.0914 14.4181 1025 69.2312 649.609 517.583
806 0 72.1566 13.6093 982 70.6925 649.371 514.68
807 0 77.1581 14.6582 1131 67.9876 649.706 517.418
808 0 78.295 14.4581 1132 69.3339 649.358 512.754
809 0 82.0988 15.5301 1275 67.651 649.773 511.966
810 0 84.2309 15.3269 1291 67.6429 649.505 513.084
811 0 85.2502 14.8739 1268 69.3423 649.486 510.409
812 0 89.1241 15.5401 1385 67.9942 649.12 510.369
813 1 44.0787 13.3625 589 69.6231 650.1 531.941
814 0 46.1108 17.3061 798 65.1554 649.796 530.307
815 0 48.1237 14.6082 703 68.8791 649.656 529.366
816 0 49.1298 13.7595 676 69.929 649.76 529.728
817 0 49.1585 14.0362 690 70.8594 650.413 527.975
818 0 51.1147 14.262 729 69.9849 649.697 528.387
819 0 54.104 15.3408 830 68.3976 649.759 525.906
820 0 52.2643 12.4368 650 72.8031 649.637 526.052
821 0 56.2483 14.4004 810 68.8938 649.412 527.894
822 0 59.169 15.2614 903 68.4164 649.718 523.435
823 0 59.2722 14.5768 864 69.5162 649.142 523.409
824 0 62.3465 16.9857 1059 65.9094 649.063 523.056
825 0 63.3178 13.5823 860 70.0093 649.593 522.641
826 0 66.174 15.6859 1038 67.5154 649.405 520.633
827 0 67.325 16.3832 1103 66.9547 649.567 519.052
828 0 71.0896 14.7138 1046 68.9532 649.445 517.927
829 0 73.172 16.3724 1198 66.7696 649.185 517.179
830 0 74.1716 15.6394 1160 68.2241 649.864 515.281
831 0 77.262 15.0915 1166 68.8225 648.791 516.108
832 0 79.1119 14.0055 1108 69.8989 649.384 516.412
833 0 82.1497 14.0475 1154 69.8908 649.308 513.99
834 0 85.1913 13.8981 1184 70.2213 650.056 513.563
835 0 88.1323 16.1462 1423 67.6999 649.793 509.758
836 0 90.2281 15.6049 1408 68.4169 649.71 508.235
837 1 47.0447 12.5838 592 70.8412 649.458 530.573
838 0 47.0859 11.6808 550 72.1545 649.115 531.04
839 0 51.2104 15.368 787 66.7916 648.94 529.527
840 0 52.0879 13.266 691 69.9884 649.391 529.182
841 0 51.0887 13.3885 684 70.6754 649.708 527.193
842 0 55.1645 12.5806 694 71.3314 649.597 526.718
843 0 57.0575 14.9498 853 68.2321 649.94 526.641
844 0 58.1849 13.1821 767 70.3559 649.802 526.207
845 0 59.1361 14.864 879 68.5882 649.896 522.965
846 0 60.1232 13.8549 833 69.8379 648.88 523.523
847 0 64.139 15.139 971 68.3079 649.485 521.896
848 0 66.1408 14.8169 980 68.6878 649.488 522.022
849 0 68.0556 14.1355 962 68.8316 649.072 521.95
850 0 70.2399 14.0945 990 69.6384 648.967 518.837
851 0 72.1986 12.5072 903 71.4673 649.741 519.636
852 0 75.2074 15.2113 1144 68.4178 649.214 516.424
853 0 77.2241 14.1536 1093 69.0229 649.293 518.231
854 0 78.236 13.1909 1032 71.7481 649.004 513.535
855 0 83.1646 14.2368 1184 69.5617 649.33 513.928
856 0 84.1616 13.4028 1128 70.8936 649.193 512.483
857 0 87.0746 14.8608 1294 68.7612 649.175 513.365
858 1 45.1606 13.7288 620 69.3064 648.553 532.19
859 0 46.209 14.521 671 68.4545 648.763 532.244
860 0 46.0704 13.5445 624 71.258 649.502 529.739
861 0 46.0563 12.8538 592 74.0862 649.003 530.502
862 0 47.1329 13.7271 647 72.7357 649.329 530.512
863 0 51.106 13.9318 712 71.0772 648.628 530.448
864 0 52.087 13.7654 717 71.9386 649.257 528.706
865 0 52.0903 12.4975 651 74.0492 649.111 526.762
866 0 56.2429 14.0818 792 70.5896 649.8 528.061
867 0 58.0686 14.569 846 70.4976 649.219 525.178
868 0 59.314 14.3811 853 70.755 649.682 525.41
869 0 62.1719 15.2802 950 69.8621 649.74 523.722
870 0 63.0784 13.4594 849 72.3486 649.355 522.814
871 0 65.1208 12.8223 835 72.9736 648.968 521.649
872 0 69.3798 14.9035 1034 69.8617 649.416 519.289
873 0 69.2129 13.2345 916 72.2991 648.406 520.681
874 0 74.2205 14.1336 1049 69.9876 648.924 520.221
875 0 75.2144 13.3884 1007 72.0695 649.182 518.664
876 0 77.1378 13.2879 1025 72.4849 649.266 515.952
877 0 80.1067 14.7179 1179 70.2714 649.096 514.384
878 0 81.3232 12.8377 1044 72.7826 648.573 512.325
879 0 84.1634 12.2025 1027 73.3155 648.868 514.057
880 0 88.0855 14.1908 1250 70.4048 649.011 513.143
881 1 46.2295 13.6926 633 68.9573 649.529 533.733
882 0 45.1157 12.2352 552 71.2192 649.362 534.172
883 0 45.1086 11.6829 527 73.4175 649.243 531.698
884 0 47.132 15.0428 709 69.1114 649.385 529.418
885 0 49.1283 13.2103 649 71.3929 649.401 529.743
886 0 49.1245 11.0128 541 73.8669 649.324 530.732
887 0 53.1923 13.6298 725 71.011 649.222 528.171
888 0 55.1365 14.9629 825 68.9467 649.434 528.099
889 0 55.1115 13.6814 754 70.7149 649.548 529.348
890 0 59.1305 12.6162 746 71.4692 649.72 527.981
891 0 59.1646 13.8765 821 71.4884 649.252 524.895
892 0 61.2456 14.7113 901 70.3274 649.573 524.15
893 0 63.0806 15.4247 973 69.3535 650.139 524.85
894 0 66.1709 14.6741 971 69.9104 649.4 523.945
895 0 68.2526 15.047 1027 69.7322 649.432 522.86
896 0 69.1794 14.3106 990 71.7202 649.286 519.831
897 0 70.0726 13.1721 923 73.4875 649.339 519.834
898 0 74.2173 13.3527 991 72.8951 649.348 517.728
899 0 75.1433 13.2946 999 73.4014 649.729 518.85
900 0 79.4663 14.2828 1135 71.7604 649.804 516.671
901 0 79.1287 14.4069 1140 72.9386 649.588 514.883
902 0 84.2188 14.9848 1262 71.4707 649.287 515.262
903 0 88.147 15.0998 1331 71.5485 649.07 512.881
904 0 91.1284 14.9679 1364 71.7111 649.115 510.849
905 0 93.187 16.2362 1513 69.7832 649.419 509.896
906 1 47.0285 13.1197 617 74.6823 649.169 531.167
907 0 51.1333 14.12 722 71.8186 649.356 530.911
908 0 50.2298 13.6771 687 73.6215 649.642 529.965
909 0 52.0502 14.0634 732 74.2104 650 529.321
910 0 54.1074 12.9003 698 75.2994 650.738 530.802
911 0 55.0741 13.5454 746 74.5858 650.426 529.508
912 0 56.1328 13.9669 784 75.3482 650.644 525.622
913 0 57.1929 13.673 782 75.3939 650.822 526.405
914 0 59.1334 14.6956 869 74.443 650.678 523.539
915 0 61.2602 13.4018 821 75.7734 649.921 524.223
916 0 62.2428 13.5437 843 76.1091 650.081 522.836
917 0 67.2736 14.716 990 73.1111 649.997 523.161
918 0 69.2498 12.9387 896 75.625 649.998 523.092
919 0 71.2289 14.7974 1054 73.2884 649.416 519.916
920 0 73.2415 13.0391 955 75.9717 649.595 520.062
921 0 75.1377 14.7463 1108 73.5397 649.412 518
922 0 78.2797 13.9883 1095 75.031 649.874 515.489
923 0 80.2393 14.7185 1181 73.63 649.202 516.104
924 0 84.2686 15.2251 1283 72.9906 649.747 512.943
925 0 86.0753 15.2192 1310 73.3382 649.886 511.693
926 0 91.118 17.1536 1563 70.0908 649.624 509.376
927 0 92.1513 16.1582 1489 72.3754 650.033 508.804
928 1 46.1111 13.1855 608 74.4112 649.622 532.059
929 0 46.1471 14.1071 651 74.2642 649.656 531.627
930 0 50.1778 13.6116 683 74.0366 649.567 531.111
931 0 51.14 15.0176 768 72.5898 649.84 531.237
932 0 49.1805 13.0946 644 76.545 649.638 530.329
933 0 53.1542 14.0158 745 74.0805 649.871 529.374
934 0 55.2994 13.3998 741 76.0216 650.194 527.417
935 0 56.1956 13.453 756 74.9947 650.048 528.728
936 0 58.1171 13.9718 812 74.6798 650.385 527.339
937 0 59.2212 13.2554 785 75.9707 650.431 527.262
938 0 61.1512 13.6874 837 76.6201 650.143 523.956
939 0 63.1732 14.199 897 76.1929 649.82 523.24
940 0 67.2142 15.4729 1040 73.8827 649.291 523.16
941 0 66.1232 13.49 892 78.2646 649.729 522.622
942 0 69.1549 15.3279 1060 76.3943 650.292 518.831
943 0 72.08 14.4562 1042 77.096 649.887 518.605
944 0 74.1503 14.5515 1079 78.0862 650.55 517.672
945 0 77.2402 13.7493 1062 78.2571 650.564 518.299
946 0 78.3337 13.9276 1091 78.8607 650.192 516.347
947 0 81.1708 14.722 1195 77.836 650.746 515.655
948 0 84.2828 14.4869 1221 77.7445 650.324 515.013
949 0 86.2839 14.2553 1230 78.5699 650.85 513.195
950 0 88.1883 14.2196 1254 77.4123 650.212 514.388
951 0 93.2704 14.3561 1339 77.1247 650.283 511.034
952 0 94.1514 14.4342 1359 77.5975 649.707 507.126
953 0 97.2602 15.5973 1517 75.704 650.132 505.675
954 0 100.303 14.825 1487 76.7814 650.202 503.665
955 0 104.183 14.4553 1506 75.8579 649.256 505.543
956 0 106.14 13.5764 1441 78.111 650.028 503.248
957 0 109.333 13.7195 1500 76.9747 649.483 502.708
958 0 112.386 13.8986 1562 77.4033 650.027 498.284
959 0 117.216 13.3174 1561 77.8232 649.456 498.701
960 0 123.227 15.4918 1909 73.6207 649.707 498.177
961 0 124.26 14.4616 1797 76.0334 650.3 494.193
962 0 130.218 14.3375 1867 75.5329 649.971 495.198
963 0 132.257 14.5474 1924 76.0702 650.502 490.942
964 0 135.25 12.8872 1743 78.7648 649.486 488.681
965 0 139.203 14.6333 2037 76.407 649.855 485.822
966 1 62.1344 14.2594 886 74.4278 650.308 525.363
967 0 62.0712 14.1128 876 75.3002 649.797 525.298
968 0 65.1756 13.8702 904 76.521 650.195 522.333
969 0 65.1635 14.6861 957 75.9404 649.813 523.992
970 0 67.1626 14.919 1002 74.5968 650.299 524.461
971 0 70.2221 15.3798 1080 75.1343 650.078 521.28
972 0 71.1698 13.531 963 77.5119 650.162 521.539
973 0 73.1444 15.3122 1120 76.4384 650.32 516.171
974 0 73.1322 14.1661 1036 78.7819 650.039 516.69
975 0 77.1162 14.6532 1130 77.4469 649.883 516.442
976 0 79.1487 14.0621 1113 78.6846 649.907 514.54
977 0 83.3636 15.3904 1283 76.1489 649.918 513.991
978 0 85.2126 15.3381 1307 75.9648 649.836 512.943
979 0 88.1833 14.9688 1320 76.5227 649.62 512.844
980 0 88.1789 14.2324 1255 77.9108 650.018 510.35
981 0 94.1403 18.1962 1713 71.3497 649.901 509.687
982 0 95.2007 13.0566 1243 78.9582 650.16 506.683
983 0 101.275 14.8111 1500 75.0067 650.154 507.924
984 0 104.183 14.6761 1529 75.898 650.336 504.653
985 0 107.304 13.4943 1448 77.7714 650.469 503.765
986 0 110.165 14.3875 1585 76.2145 650.196 501.365
987 0 113.248 13.1923 1494 78.5857 650.503 499.238
988 1 44.1279 13.7101 605 73.4727 650.19 533.802
989 0 47.1613 14.8427 700 72.3029 649.433 532.326
990 0 47.0482 13.9219 655 73.8855 650.11 532.641
991 0 48.2436 13.8878 670 73.6358 649.639 532.802
992 0 48.1733 11.5209 555 77.8811 650.045 531.546
993 0 49.164 13.6482 671 75.5529 650.104 529.41
994 0 52.167 13.6677 713 75.3226 650.292 527.828
995 0 52.0858 13.3818 697 76.2468 649.623 526.475
996 0 55.0799 13.6166 750 74.1747 650.483 528.104
997 0 57.0594 14.4586 825 73.6861 650.132 526.702
998 0 59.1307 12.1257 717 76.0363 649.488 525.548
999 0 60.3318 13.7904 832 73.9651 649.966 525.718
1000 0 63.1929 12.9287 817 73.7136 649.847 524.933
1001 0 65.0652 14.1858 923 71.9328 649.735 524.348
1002 0 68.103 14.2725 972 71.6759 649.818 522.323
1003 0 70.1545 13.4275 942 72.1836 649.484 522.677
1004 0 72.2422 13.8423 1000 72.075 649.484 520.026
1005 0 74.1796 14.1279 1048 71.7624 648.949 517.855
1006 0 76.3682 12.7671 975 72.3518 649.279 519.947
1007 0 79.1463 13.8225 1094 71.8474 649.496 516.423
1008 0 83.3195 13.5382 1128 71.7784 649.144 514.413
1009 0 86.2602 14.0389 1211 70.7647 649.041 515.153
1010 0 90.3879 13.9952 1265 71.1138 649.254 511.752
1011 1 45.0558 12.9839 585 71.9402 649.436 533.232
1012 0 46.144 12.9378 597 71.4338 648.792 533.392
1013 0 50.1411 12.6443 634 71.5868 649.011 533.263
1014 0 50.1491 13.6792 686 70.9417 649.057 531.878
1015 0 52.1594 13.6505 712 70.3876 649.008 530.86
1016 0 53.281 13.2317 705 71.0397 649.665 531.143
1017 0 54.3328 13.1412 714 72.0056 649.682 530.41
1018 0 59.0941 14.9084 881 68.4733 649.67 529.941
1019 0 56.0742 13.286 745 72.0376 649.24 528.757
1020 0 61.1256 14.0694 860 70.6046 649.308 527.45
1021 0 61.1604 13.5055 826 71.6622 649.165 524.743
1022 0 65.1591 13.6742 891 70.9742 649.167 523.104
1023 0 68.2096 14.2062 969 69.8039 648.902 524.7
1024 0 69.1713 14.2111 983 69.8545 649.3 521.386
1025 0 72.2005 13.2686 958 71.0804 649.044 521.528
1026 0 75.1375 14.3204 1076 69.3597 649.32 522.026
1027 0 78.4106 14.5261 1139 69.1212 648.564 518.477
1028 0 82.2662 15.1824 1249 68.197 648.687 519.004
1029 0 85.3433 14.2601 1217 69.5883 648.492 517.848
1030 0 87.2871 14.2976 1248 69.6771 648.26 515.881
1031 1 40.3037 11.6118 468 73.8953 648.036 537.509
1032 0 44.3441 12.5609 557 72.0162 648.682 536.131
1033 0 45.097 11.6194 524 72.9733 648.996 535.517
1034 0 45.1954 13.9616 631 70.4786 648.702 535.729
1035 0 48.1408 14.6238 704 70.4957 648.744 533.597
1036 0 49.3166 13.9101 686 70.9009 648.322 534.308
1037 0 53.1386 13.8317 735 69.8939 648.664 534.313
1038 0 51.0959 13.2496 677 72.5229 647.88 533.685
1039 0 55.1205 13.0986 722 71.3601 648.145 533.734
1040 0 55.1921 13.7157 757 71.7292 647.398 531.369
1041 0 59.1991 15.0847 893 69.0123 647.904 531.067
1042 0 60.1438 14.3822 865 69.8416 648.094 531.584
1043 0 60.1038 13.7595 827 71.3482 648.23 530.771
1044 0 64.1728 14.8505 953 69.1207 647.853 528.86
1045 0 64.3209 14.4899 932 70.1738 647.884 528.296
1046 0 67.155 13.7443 923 71.2492 647.682 525.777
1047 0 70.086 14.9388 1047 68.8348 647.538 524.509
1048 0 72.0758 14.3183 1032 69.8304 648.838 522.832
1049 0 76.1791 14.4003 1097 68.8505 648.676 522.206
1050 0 80.2429 16.0513 1288 66.3238 648.443 522.129
1051 0 81.2259 13.9611 1134 69.1772 648.12 522.98
1052 0 83.3244 14.9416 1245 68.539 647.964 519.546
1053 0 85.1479 15.7608 1342 67.7317 648.097 516.498
1054 0 89.2055 14.9879 1337 68.5729 647.682 516.019
1055 0 92.221 14.7472 1360 69.1706 648.238 514.81
1056 0 93.1424 14.2685 1329 69.9376 647.813 514.174
1057 0 97.1906 14.1989 1380 69.8109 647.784 512.606
1058 1 42.2453 12.0723 510 72.9804 647.724 536.522
1059 0 42.0815 12.0718 508 72.6122 648.218 536.85
1060 0 42.1819 12.0668 509 73.7348 647.931 536.456
1061 0 43.0735 12.7456 549 72.4117 648.414 538.093
1062 0 48.1495 13.7073 660 70.2333 648.468 537.235
1063 0 47.2003 14.2372 672 69.9464 648.557 537.847
1064 0 50.1043 15.7671 790 67.7481 648.47 535.665
1065 0 51.0894 14.0538 718 70.5348 648.627 535.919
1066 0 52.166 15.144 790 68.8608 648.011 535.127
1067 0 54.0851 14.1259 764 70.5065 648.08 532.191
1068 0 54.1082 14.6743 794 70.3829 648.552 531.99
1069 0 57.1009 15.8842 907 68.1147 648.149 533.566
1070 0 60.1932 15.5167 934 69.2634 649.252 531.287
1071 0 61.1172 16.002 978 68.7802 648.444 530.975
1072 0 62.0831 13.5464 841 72.5339 648.612 530.364
1073 0 66.2863 15.8102 1048 68.5057 647.99 527.894
1074 0 68.1507 14.1304 963 71.3292 649.056 528.181
1075 0 71.1422 15.6166 1111 68.8344 648.738 528.342
1076 0 73.2266 15.3769 1126 69.1687 648.726 526.571
1077 0 76.2079 16.2713 1240 68.2395 648.993 523.939
1078 0 77.1625 15.4998 1196 69.7667 649.129 524.742
1079 0 78.1354 15.0636 1177 71.288 649.192 523.631
1080 0 81.2142 14.5664 1183 72.4894 649.036 519.648
1081 0 84.2502 14.6587 1235 72.1563 649.563 519.33
1082 0 87.1694 13.8925 1211 73.5095 649.147 517.468
1083 0 88.3339 15.0112 1326 72.5558 649.447 515.496
1084 0 94.1335 15.733 1481 70.2377 648.793 516.192
1085 0 95.129 16.7141 1590 69.6038 649.533 510.65
1086 0 96.1385 14.8952 1432 72.2318 648.756 511.526
1087 0 102.343 16.2786 1666 69.4772 648.98 508.002
1088 1 51.245 12.6646 649 73.7596 648.752 534.22
1089 0 51.1023 14.7352 753 72.2258 648.607 533.137
1090 0 53.1407 13.0785 695 74.5324 649.6 532.709
1091 0 52.1543 13.9394 727 74.8336 648.806 532.051
1092 0 56.1418 14.3031 803 73.3512 650.196 531.814
1093 0 57.1719 13.853 792 74.8939 649.335 529.407
1094 0 59.139 14.4575 855 73.9895 649.306 529.368
1095 0 61.2307 15.6621 959 72.4807 650.129 528.285
1096 0 62.3804 17.5055 1092 70.2509 649.532 528.426
1097 0 64.1527 14.7772 948 73.9715 648.736 527.575
1098 0 64.1346 14.3292 919 75.5278 649.298 526.595
1099 0 69.1343 16.345 1130 71.2611 648.87 525.178
1100 0 70.2697 14.7859 1039 74.3696 649.212 522.889
1101 0 72.3035 14.7849 1069 74.2245 649.535 522.38
1102 0 76.2602 15.9979 1220 72.3926 648.926 519.941
1103 0 77.1973 15.985 1234 72.7204 649.487 518.593
1104 0 79.1285 14.3438 1135 75.2687 649.072 519.102
1105 0 81.3156 15.0033 1220 74.5746 649.262 517.361
1106 0 85.219 15.9354 1358 72.6583 649.178 515.15
1107 0 87.2651 15.4816 1351 72.8497 649.258 516.705
1108 0 89.2823 14.1237 1261 74.8826 649.159 513.006
1109 0 95.4294 15.5717 1486 72.3587 649.554 511.144
1110 1 48.1159 13.3636 643 73.3639 649.602 533.619
1111 0 49.1504 13.652 671 73.2325 649.568 533.668
1112 0 49.2356 14.1767 698 73.318 648.9 531.691
1113 0 52.3105 13.6301 713 73.4965 649.439 531.077
1114 0 54.1648 15.5082 840 71.1714 649.217 529.669
1115 0 54.2007 14.3725 779 73.4108 649.515 527.169
1116 0 58.1841 13.9901 814 73.2371 649.747 528.536
1117 0 56.092 13.0857 734 74.8883 649.178 528.634
1118 0 62.3424 15.1743 946 71.1934 649.363 527.503
1119 0 63.1927 15.0176 949 71.8904 648.894 525.534
1120 0 65.2349 13.8116 901 73.5117 648.474 525.434
1121 0 64.0394 14.3349 918 74.6274 649.29 523.718
1122 0 68.0972 13.98 952 73.6807 649.503 524.968
1123 0 68.0864 13.0423 888 77.018 649.311 521.035
1124 0 74.1188 14.1934 1052 74.3717 649.552 520.312
1125 0 76.1725 14.8873 1134 73.7205 649.823 518.535
1126 0 77.0774 14.8163 1142 74.5166 649.764 518.114
1127 0 81.2892 14.8482 1207 73.3703 649.698 519.695
1128 0 83.1031 15.8839 1320 72.8614 649.699 516.375
1129 0 85.2435 14.8164 1263 74.7324 649.943 514.811
1130 0 87.1407 14.2069 1238 75.1066 649.792 516.197
1131 0 88.1466 14.2036 1252 76.155 649.546 512.947
1132 1 46.1278 14.0262 647 72.5286 649.325 535.009
1133 0 46.0705 15.0422 693 71 649.534 535.459
1134 0 48.1154 14.0703 677 71.8331 649.111 534.567
1135 0 49.0468 14.1905 696 72.3233 649.723 532.372
1136 0 52.0946 14.4929 755 70.8649 649.315 532.538
1137 0 52.0779 14.7087 766 70.6436 649.02 533.658
1138 0 54.1474 14.5898 790 72.0089 649.658 529.371
1139 0 56.3037 13.9245 784 71.9452 649.83 529.452
1140 0 56.2296 12.9647 729 74.1948 650.023 530.915
1141 0 59.1369 14.6609 867 70.5998 650.247 531.031
1142 0 58.1276 13.4704 783 73.6207 650.419 527.934
1143 0 61.0832 14.6358 894 71.3546 650.092 527.927
1144 0 63.2354 14.4856 916 72.4454 650.028 524.608
1145 0 64.0843 15.6669 1004 71.6643 649.951 523.109
1146 0 68.194 13.7255 936 72.2671 649.651 526.028
1147 0 69.1034 13.733 949 72.8462 649.13 523.151
1148 0 72.2092 16.009 1156 69.9697 649.939 520.818
1149 0 74.2694 14.6898 1091 72.297 650.023 521.188
1150 0 76.1398 13.7642 1048 73.4676 650.08 520.34
1151 0 77.1343 13.9627 1077 73.6852 650.066 518.36
1152 0 80.2676 13.9658 1121 73.2034 649.602 517.284
1153 0 83.143 13.3745 1112 73.6403 649.759 517.582
1154 1 41.1906 11.4346 471 74.3949 650.346 535.236
1155 0 44.2008 13.1445 581 69.7435 650.33 537.358
1156 0 43.1712 13.0643 564 71.0301 650.078 535.136
1157 0 45.1188 13.0101 587 72.339 649.68 533.753
1158 0 47.1475 14.8046 698 69.245 650.062 533.486
1159 0 48.1678 14.6986 708 69.435 649.987 534.378
1160 0 49.1546 14.1187 694 70.4914 649.259 534.333
1161 0 50.1516 13.2399 664 72.6054 649.765 532.498
1162 0 52.1989 13.7551 718 71.454 650.001 532.22
1163 0 52.2076 13.5996 710 72.8549 650.201 529.941
1164 0 55.1061 13.8279 762 72.5591 649.537 530.44
1165 0 56.3917 14.8958 840 71.1524 649.926 528.619
1166 0 59.1237 14.3259 847 71.6505 649.842 529.445
1167 0 59.1055 14.0765 832 72.7668 650.029 528.625
1168 0 60.0908 13.7958 829 73.5452 650.119 528.361
1169 0 63.1529 14.0453 887 74.0361 649.793 525.399
1170 0 63.2181 12.2275 773 76.4567 649.474 526.15
1171 0 67.0805 14.3112 960 73.8344 649.371 524.745
1172 0 68.154 13.9684 952 74.4286 649.815 524.063
1173 0 70.2512 13.9642 981 75.1091 649.045 522.554
1174 0 71.3415 14.0311 1001 75.3676 649.314 520.828
1175 0 76.0914 13.9306 1060 74.3849 649.317 521.887
1176 0 76.1069 14.1774 1079 74.4958 649.722 520.387
1177 0 80.2132 14.3867 1154 73.8302 649.808 518.192
1178 0 81.1353 13.9397 1131 74.924 649.933 518.051
1179 0 85.13 14.7304 1254 73.0032 649.806 517.305
1180 0 86.1278 13.1433 1132 75.6095 649.054 515.664
1181 0 90.249 14.87 1342 73.1893 649.651 512.33
1182 1 42.0871 10.8347 456 77.1776 648.504 536.401
1183 0 45.1941 13.4973 610 73.8688 649.836 534.666
1184 0 45.099 12.7497 575 74.8835 649.626 534.831
1185 0 47.0461 12.6259 594 75.5539 649.072 532.892
1186 0 50.1168 12.2514 614 75.0326 649.425 532.625
1187 0 50.0944 12.7958 641 74.4306 649.608 532.011
1188 0 52.1826 14.1043 736 72.7486 649.317 531.269
1189 0 54.3112 13.3306 724 74.1257 648.952 530.941
1190 0 55.1641 12.4538 687 75.7438 649.325 527.766
1191 0 58.196 13.6607 795 73.3736 649.088 529.121
1192 0 61.2014 14.3624 879 71.843 649.73 528.446
1193 0 60.0667 12.7026 763 74.9502 649.6 526.582
1194 0 63.2195 14.5683 921 72.4115 649.352 522.925
1195 0 68.2136 14.1028 962 71.5655 649.337 525.376
1196 0 68.1221 14.8704 1013 72.1273 649.359 522.988
1197 0 72.068 15.1801 1094 71.0375 648.772 520.967
1198 0 74.1782 14.8696 1103 71.1904 649.288 520.805
1199 0 75.419 14.1609 1068 72.721 649.492 521.088
1200 0 78.1963 13.9776 1093 72.8728 649.068 519.89
1201 0 80.1183 13.7547 1102 73.176 648.798 518.682
1202 0 83.4242 14.4442 1205 72.2606 649.16 518.265
1203 1 43.1189 13.5208 583 73.3105 648.993 535.472
1204 0 46.1524 11.9171 550 74.2018 648.925 535.053
1205 0 47.1021 11.698 551 74.6334 648.655 536.172
1206 0 47.0686 13.5334 637 72.7645 648.377 534.44
1207 0 51.1758 12.5841 644 73.3866 648.885 531.533
1208 0 52.2168 13.7121 716 71.9218 648.993 532.408
1209 0 54.15 14.626 792 70.9407 649.205 530.244
1210 0 56.1948 14.1472 795 70.6767 648.996 529.962
1211 0 57.149 13.3336 762 71.6365 649.194 530.625
1212 0 56.1899 11.7993 663 74.6968 649.535 528.811
1213 0 59.1477 14.0496 831 72.3153 649.516 526.064
1214 0 62.4843 13.7315 858 71.479 648.972 529.11
1215 0 64.3691 14.9295 961 69.923 649.132 527.615
1216 0 65.2899 13.7847 900 72.04 649.647 526.252
1217 0 68.3845 12.8245 877 72.3763 649.07 527.381
1218 0 70.1979 13.7184 963 72.2658 649.403 524.764
1219 0 72.415 13.7126 993 72.6183 649.495 522.601
1220 0 74.2359 14.0902 1046 72.5612 649.513 521.465
1221 0 78.2418 14.5063 1135 71.741 648.76 519.222
1222 0 81.4118 14.3468 1168 71.9358 649.003 517.984
1223 0 84.204 15.1537 1276 70.6466 649.302 517.104
1224 0 84.415 13.8009 1165 73.5133 649.798 513.828
1225 0 87.2502 14.2808 1246 73.4896 649.555 512.13
1226 0 91.4067 14.8567 1358 72.1377 649.584 511.328
1227 0 92.229 14.1712 1307 73.3994 649.731 511.642
1228 0 96.4999 14.0104 1352 73.7678 650.033 510.029
1229 0 97.2815 13.7333 1336 74.3548 649.403 510.442
1230 0 102.307 14.5249 1486 73.0471 649.185 508.176
1231 1 48.2873 13.2126 638 74.7743 649.527 531.113
1232 0 52.2287 13.2303 691 73.3198 649.611 532.221
1233 0 53.31 15.513 827 70.5526 649.335 528.815
1234 0 56.2829 14.1961 799 71.393 649.198 530.014
1235 0 57.2844 14.8906 853 71.3576 649.748 527.869
1236 0 59.3096 15.1577 899 70.5395 650.21 527.685
1237 0 59.4493 12.9354 769 74.5696 650.218 526.771
1238 0 62.3238 14.6493 913 71.2048 650.38 525.608
1239 0 66.4318 15.1584 1007 69.5958 649.829 525.858
1240 0 66.2779 14.228 943 71.7381 649.948 523.895
1241 0 67.2324 14.7548 992 70.9163 650.028 524.007
1242 0 71.3395 13.8633 989 71.4469 649.927 523.44
1243 0 74.3078 14.7764 1098 70.2769 650.407 519.67
1244 0 74.257 13.157 977 72.7994 650.504 520.126
1245 0 78.2634 14.5279 1137 70.5259 649.93 517.318
1246 0 81.3336 14.6188 1189 70.2574 649.572 515.013
1247 0 84.1289 15.0246 1264 69.4074 650.506 513.814
1248 0 87.3023 14.7877 1291 69.5585 649.867 515.542
1249 0 86.3398 14.4545 1248 70.8934 650.035 512.196
1250 0 92.5649 15.0705 1395 69.6538 650.638 510.566
1251 0 94.3139 14.3881 1357 70.3906 650.035 508.937
1252 0 96.4472 14.3291 1382 70.9363 650.476 505.626
1253 0 100.392 14.0051 1406 70.197 650.319 507.421
1254 0 102.559 13.8847 1424 70.7605 650.246 505.729
1255 0 105.358 13.7531 1449 70.9068 650.371 503.903
1256 1 52.0239 9.9954 520 72.8519 650.431 532.008
1257 0 56.0973 13.334 748 70.254 650.85 526.938
1258 0 57.0354 13.5705 774 69.8372 650.692 527.076
1259 0 59.0483 12.2781 725 71.371 650.13 526.64
1260 0 61.0835 14.4392 882 69.2936 650.488 524.186
1261 0 64.1045 13.8056 885 69.4023 650.007 524.393
1262 0 66.0557 13.6097 899 69.6251 650.051 524.527
1263 0 68.0929 12.806 872 70.4931 650.48 524.518
1264 0 71.0837 14.1805 1008 69.4097 649.81 520.889
1265 0 71.022 13.5592 963 70.9367 650.342 519.396
1266 0 74.0773 14.1609 1049 70.5253 650.007 517.266
1267 0 76.1021 12.9037 982 72.0652 650.144 517.768
1268 0 80.0622 14.7635 1182 70.1125 650.21 516.914
1269 0 82.0476 13.5531 1112 71.893 650.013 515.784
1270 0 84.1399 12.8714 1083 72.8957 649.561 515.562
1271 0 87.2374 12.4259 1084 73.2832 649.835 514.042
1272 0 91.0914 14.3043 1303 70.7974 649.859 511.68
1273 0 93.0496 14.5621 1355 70.4627 649.917 510.477
1274 0 97.0909 13.7294 1333 71.3698 650.353 508.65
1275 0 99.1914 13.9528 1384 71.5376 650.645 507.936
1276 0 101.106 13.8865 1404 72.334 649.884 505.615
1277 0 105.119 15.1543 1593 69.4181 650.976 506.542
1278 1 53.0678 10.1191 537 73.0782 650.512 531.87
1279 0 57.0464 12.8317 732 71.2937 650.372 527.578
1280 0 60.063 12.6201 758 70.872 650.125 527.044
1281 0 60.0728 12.1186 728 71.3929 651.074 528.247
1282 0 62.0689 13.5333 840 70.769 649.116 523.618
1283 0 63.0653 12.0669 761 72.1025 650.344 524.239
1284 0 67.1186 12.9919 872 70.7454 650.258 523.234
1285 0 68.027 13.4652 916 69.8461 649.054 523.591
1286 0 71.0862 13.139 934 70.3555 649.472 521.943
1287 0 74.0802 14.1198 1046 68.9503 650.178 519.286
1288 0 76.1752 13.1539 1002 70.6148 650.209 518.844
1289 0 78.0725 13.2441 1034 70.5155 649.932 518.984
1290 0 81.1769 13.2057 1072 70.3041 649.262 516.534
1291 0 82.081 12.4146 1019 72.1531 649.814 513.745
1292 0 84.0972 12.6401 1063 71.7338 649.786 514.419
1293 0 87.2517 14.1086 1231 69.5751 649.353 513.434
1294 0 89.1091 13.3656 1191 70.9454 650.11 512.186
1295 0 93.1426 12.0031 1118 70.8068 649.176 514.769
1296 1 48.0295 11.6387 559 69.3327 650.048 533.556
1297 0 50.0894 12.9169 647 68.4111 649.366 532.131
1298 0 52.1071 11.841 617 69.6758 650.037 532.075
1299 0 52.0524 13.0446 679 68.9661 649.362 530.929
1300 0 53.008 12.2057 647 69.5209 650.215 532.232
1301 0 56.0449 11.5086 645 70.4388 649.552 531.524
1302 0 56.1014 12.7626 716 70.7444 649.872 529.296
1303 0 60.1437 12.0212 723 71.462 650.257 529.783
1304 0 59.1342 11.3978 674 73.0282 650.019 528.892
1305 0 62.0378 11.1867 694 73.6484 649.892 527.548
1306 0 63.0424 14.1334 891 70.3176 649.848 525.525
1307 0 64.0603 12.2385 784 73.1964 650.17 526.909
1308 0 65.0549 12.4818 812 73.7475 650.028 523.629
1309 0 67.0665 12.1372 814 74.4484 650.595 522.055
1310 0 69.0736 11.9872 828 74.6486 650.565 522.419
1311 1 36.0645 11.5626 417 68.5228 650.578 540.616
1312 0 36.0156 11.7727 424 70.5377 650.514 539.009
1313 0 36.0332 10.5736 381 73.1076 650.026 538.499
1314 0 37.0124 9.37523 347 73.8703 649.579 540.19
1315 0 39.0467 12.0881 472 70.9322 650.324 537.286
1316 0 41.0653 11.0069 452 72.6704 650.086 537.918
1317 0 43.0115 11.0435 475 71.8442 649.61 536.114
1318 0 44.0971 12.223 539 70.5863 650.167 536
1319 0 44.0646 11.0066 485 73.4247 649.959 534.21
1320 0 46.0963 11.4977 530 71.8962 649.491 533.721
1321 0 48.0744 12.023 578 71.6298 650.145 531.953
1322 0 49.0652 11.4745 563 72.2256 649.673 532.103
1323 0 51.0978 10.6071 542 74.5664 649.633 530.845
1324 0 52.0528 10.1436 528 74.767 649.261 531.96
1325 0 56.0314 11.1901 627 72.6427 649.695 531.171
1326 0 56.0986 11.9789 672 72.8899 648.811 528.493
1327 0 58.09 12.0503 700 73.09 649.766 526.57
1328 0 60.1164 11.6774 702 72.4345 649.493 528.037
1329 0 61.039 10.993 671 74.5723 649.341 526.934
1330 1 28.0116 8.56788 240 74.9667 649.442 541.454
1331 0 32.0263 10.2104 327 71.1132 649.416 540.303
1332 0 33.0175 8.66206 286 72.7238 649.493 540.801
1333 0 32.0057 10.0295 321 71.7726 650.072 541.586
1334 0 35.0425 10.6442 373 70.622 650.534 539.836
1335 0 34.0219 10.1405 345 72.5159 649.759 539.119
1336 0 38.0745 10.7421 409 69.6626 649.763 538.702
1337 0 39.1013 10.7925 422 69.3744 649.028 537.678
1338 0 39.0106 10.715 418 70.1818 649.4 537.622
1339 0 40.0481 10.1628 407 70.9435 649.479 536.754
1340 0 43.0761 11.6074 500 68.092 649.474 536.156
1341 0 43.0478 10.6858 460 70.0348 649.663 534.406
1342 0 45.0233 11.1276 501 68.6327 649.727 535.661
1343 0 47.0458 11.8183 556 67.3219 649.518 534.36
1344 0 45.0682 9.69642 437 70.0618 649.494 534.533
1345 0 47.0275 9.93036 467 70.531 649.944 533.435
1346 0 51.2209 11.6554 597 67.2529 649.804 533.079
1347 0 52.0556 10.7961 562 68.9591 649.391 529.685
1348 0 53.1791 10.0039 532 70.0207 649.964 530.949
1349 0 54.3246 11.7442 638 67.7853 650.083 529.362
1350 0 55.3286 10.5551 584 69.7568 650.187 529.872
1351 0 55.2381 10.5724 584 70.2175 649.517 526.908
1352 0 59.1469 10.736 635 68.885 649.715 528.935
1353 0 60.1046 10.5649 635 69.4331 649.509 525.775
1354 0 63.2399 11.9387 755 67.3616 649.634 525.124
1355 0 64.1146 12.2437 785 66.9707 649.465 525.618
1356 0 65.1933 11.8877 775 67.7045 649.964 525.386
1357 1 35.0528 8.38736 294 70.0306 650.027 539.755
1358 0 37.0805 10.1671 377 67.9867 650.828 539.138
1359 0 38.0232 9.46791 360 69.9278 650.697 536.883
1360 0 42.0743 11.1707 470 65.5404 650.481 536.992
1361 0 41.055 10.9122 448 67.0915 650.583 535.781
1362 0 41.0376 10.5513 433 67.2517 649.958 535.799
1363 0 42.1431 10.2271 431 67.4455 650.471 534.23
1364 0 43.0864 10.7923 465 66.4559 650.178 534.234
1365 0 46.0377 11.8164 544 64.4485 650.807 534.43
1366 0 48.0564 12.1316 583 63.7101 649.95 532.482
1367 0 48.1126 11.9303 574 64.4774 650.218 532.422
1368 0 49.05 9.74516 478 67.3243 650.425 532.262
1369 0 51.0346 11.0709 565 65.2566 650.29 532
1370 0 52.0922 11.806 615 64.9236 650.577 530.368
1371 0 52.0586 11.3334 590 65.9 650.588 530.922
1372 0 53.1796 12.298 654 65.1728 650.2 526.54
1373 0 56.0566 10.8819 610 66.0934 649.915 529.466
1374 0 58.1615 11.8119 687 65.278 650.258 526.777
1375 0 58.1423 10.8699 632 66.9652 649.805 526.059
1376 0 64.1703 11.7656 755 64.1364 649.265 526.481
1377 0 65.047 10.1311 659 66.9909 650.569 524.329
1378 1 33.0653 11.946 395 61.8329 650.613 539.684
1379 0 32.0132 8.18412 262 65.6145 650.599 541.584
1380 0 34.0958 8.18282 279 67.4409 650.437 539.996
1381 0 35.0758 10.6056 372 64.4355 650.387 537.384
1382 0 35.0174 9.1383 320 66.7625 650 537.638
1383 0 36.0263 10.5478 380 65.1974 650.129 536.3
1384 0 40.0783 11.4027 457 63.232 650.116 536.326
1385 0 40.1264 10.7909 433 63.7136 650.185 538.557
1386 0 42.0729 10.5293 443 64.9052 650.325 534.986
1387 0 42.186 10.3826 438 65.6872 650.457 534.532
1388 0 44.166 11.1851 494 63.9372 650.083 535.02
1389 0 46.1918 11.0193 509 64.4519 650.216 534.957
1390 0 48.02 11.4119 548 63.8358 650.064 534.502
1391 0 49.1203 11.7059 575 63.5844 649.876 533.263
1392 0 50.0752 11.8821 595 64.3176 649.523 532.945
1393 0 49.0645 10.476 514 66.8366 650.484 531.658
1394 0 49.1484 10.336 508 67.9449 649.591 531.26
1395 0 53.1334 11.7628 625 65.6496 650.318 530.843
1396 0 55.0759 12.3103 678 65.2109 649.755 529.111
1397 0 55.0373 11.5921 638 66.1912 650.072 530.893
1398 0 55.0764 10.549 581 68.8658 650.356 528.523
1399 0 60.0606 12.7538 766 64.9922 649.3 527.012
1400 0 60.0334 11.7768 707 66.5601 649.76 526.809
1401 0 62.0388 12.1053 751 66.1851 650.102 526.153
1402 0 65.0606 12.0349 783 66.0243 649.754 524.922
1403 0 66.0974 11.831 782 66.5972 649.214 525.356
1404 0 68.1115 11.6867 796 66.5264 649.668 525.141
1405 0 70.0537 12.3334 864 66.353 649.564 521.39
1406 0 73.1047 13.4738 985 64.2467 649.497 521.486
1407 0 75.129 12.1391 912 67.0428 649.341 519.245
1408 1 36.0149 10.0792 363 69.0551 649.237 537.201
1409 0 41.0331 10.3575 425 66.5106 648.962 537.355
1410 0 41.1097 10.4355 429 67.0862 649.571 536.613
1411 0 42.0334 10.3727 436 67.344 649.349 535.732
1412 0 44.0515 12.1903 537 64.7151 648.966 533.661
1413 0 47.1061 10.678 503 67.0298 649.109 533.692
1414 0 45.0262 9.03919 407 69.8673 648.587 532.808
1415 0 48.0759 10.9618 527 67.0247 649.491 532.896
1416 0 50.0366 11.9912 600 65.6417 650.44 531.89
1417 0 51.0342 11.9724 611 66.2422 650.306 529.314
1418 0 54.0657 11.6155 628 65.7182 649.174 531.135
1419 0 55.0579 12.3506 680 65.1515 649.096 529.824
1420 0 57.0237 12.0652 688 65.2907 649.596 530.093
1421 0 58.1303 12.5064 727 65.4732 649.415 528.296
1422 0 61.1359 12.9057 789 64.7174 649.515 526.946
1423 0 61.0343 10.83 661 68.3812 650.166 526.284
1424 0 64.0882 12.4048 795 65.4415 650.023 524.548
1425 0 65.0698 11.1265 724 67.8412 649.938 521.918
1426 0 65.0627 10.6052 690 68.4594 649.344 523.984
1427 0 72.0295 12.5504 904 64.8031 649.85 522.051
1428 0 73.1171 11.9534 874 65.5069 649.328 519.423
1429 0 75.0733 13.9197 1045 62.7722 649.531 518.849
1430 0 78.0573 12.2346 955 64.3927 649.766 518.228
1431 1 40.1091 10.3966 417 65.8249 649.743 536.444
1432 0 42.0447 10.9407 460 65.3978 650.2 535.578
1433 0 45.0749 10.7599 485 64.3505 649.693 536.363
1434 0 44.0664 11.6415 513 63.271 650.094 534.041
1435 0 47.0312 11.4392 538 62.4572 649.608 533.403
1436 0 43.0896 10.4666 451 65.663 649.976 531.63
1437 0 47.0842 13.7626 648 60.0077 649.437 532.738
1438 0 49.0296 9.11693 447 65.6913 649.186 534.506
1439 0 51.0331 10.5814 540 63.9259 648.937 531.493
1440 0 51.0134 9.99738 510 64.9216 648.371 530.796
1441 0 53.0203 9.56238 507 65.7022 648.422 529.45
1442 0 53.1061 10.319 548 65.6332 648.677 528.151
1443 0 56.0496 10.4193 584 64.4794 648.543 529.515
1444 0 58.0283 9.73663 565 66.0336 648.499 525.561
1445 0 59.0689 11.512 680 63.2221 648.497 526.834
1446 0 61.0565 10.6295 649 64.0693 648.34 525.362
1447 0 64.0238 12.4016 794 61.9673 648.467 522.904
1448 0 66.0617 12.1402 802 61.9925 648.88 522.596
1449 0 67.0611 10.5575 708 63.8743 648.573 522.558
1450 0 69.0954 9.6099 664 65.872 649.004 519.282
1451 0 71.1192 10.152 722 64.4875 649.294 522.015
1452 0 74.0866 10.7847 799 64.5582 648.934 517.686
1453 0 78.0318 11.2006 874 63.1499 648.833 517.848
1454 0 78.1088 11.3431 886 64.1535 649.155 513.714
1455 1 42.0747 10.9329 460 62.713 649.58 533.237
1456 0 43.0093 10.6256 457 62.0547 649.759 535.009
1457 0 44.0279 10.5161 463 62.6134 650.002 532.382
1458 0 47.0871 11.2982 532 61.4492 649.511 531.624
1459 0 48.0562 11.8403 569 60.8928 649.691 532.808
1460 0 49.1369 11.356 558 61.9767 650.412 531.292
1461 0 51.0753 10.8859 556 62.2788 649.905 530.826
1462 0 52.0495 11.4506 596 62.4983 650.181 530.384
1463 0 50.1046 10.2785 515 65.5592 650.066 528.2
1464 0 55.0321 11.0481 608 63.199 649.505 527.434
1465 0 57.0304 10.1525 579 64.7668 649.228 527.031
1466 0 60.0692 11.4701 689 62.2351 648.972 526.348
1467 0 59.0172 10.9121 644 63.5761 649.474 527.169
1468 0 61.0231 11.5858 707 62.9279 649.021 524.178
1469 0 64.1081 10.8567 696 63.2342 648.751 522.204
1470 0 65.0907 10.4777 682 63.6026 649.293 523.375
1471 0 68.0325 10.8918 741 63.1889 649.659 521.696
1472 0 71.104 10.773 766 63.2063 649.745 521.781
1473 0 72.0652 11.67 841 62.365 649.221 520.117
1474 0 73.1552 10.2385 749 64.6969 649.637 518.101
1475 0 78.1073 11.4458 894 62.8076 650.19 517.99
1476 0 80.0812 9.88996 792 64.9104 649.848 517.149
1477 1 40.0395 10.3898 416 63.4495 650.312 535.462
1478 0 42.0132 11.306 475 62.3158 650.208 532.655
1479 0 44.1931 10.3184 456 63.3048 650.432 534.342
1480 0 44.0583 12.3019 542 61.7066 650.042 533.688
1481 0 43.0244 10.1338 436 64.8555 649.982 531.489
1482 0 47.154 11.4518 540 62.2667 649.874 532.672
1483 0 48.0606 11.2774 542 62.8506 649.498 531.816
1484 0 51.1041 12.543 641 60.8658 649.679 530.534
1485 0 51.062 11.1629 570 62.721 649.777 531.221
1486 0 53.0186 11.9392 633 61.8594 648.949 529.949
1487 0 53.0991 12.0153 638 61.5455 649.857 531.945
1488 0 56.1497 11.1488 626 62.976 649.476 528.479
1489 0 56.1021 11.2117 629 63.8887 649.696 526.347
1490 0 59.0875 10.5945 626 63.7668 649.169 528.633
1491 0 60.0995 12.0467 724 62.8826 649.468 524.677
1492 0 62.1229 11.6704 725 62.5848 648.614 524.248
1493 0 66.0781 12.5912 832 60.8762 649.326 524.215
1494 0 65.099 10.7068 697 65.1176 648.872 523.488
1495 0 70.1156 11.2386 788 64.5254 649.581 521.971
1496 0 70.1058 11.1974 785 65.1745 649.29 520.326
1497 0 73.1521 11.6606 853 64.3025 649.147 519.753
1498 1 39.0369 9.58068 374 63.861 649.414 536.15
1499 0 40.032 10.5166 421 63.3967 649.34 534.782
1500 0 39.073 10.6979 418 63.5981 649.184 534.1
1501 0 41.087 11.2444 462 63.1407 648.978 532.476
1502 0 43.0347 10.5496 454 63.663 649.8 533.278
1503 0 45.0486 9.85603 444 64.1667 649.133 533.34
1504 0 48.0472 12.904 620 59.6242 649.419 531.308
1505 0 47.052 10.3078 485 64.3567 648.909 530.171
1506 0 49.067 10.2921 505 63.3366 649.085 532.147
1507 0 51.0217 11.2305 573 63.2862 649.492 530.234
1508 0 51.0134 9.99738 510 65.0059 648.886 531.267
1509 0 53.0822 11.0395 586 64.8874 648.968 526.261
1510 0 55.0654 11.2049 617 64.6029 649.131 526.786
1511 0 57.1091 12.0646 689 63.5443 649.144 524.935
1512 0 57.0408 11.3252 646 64.9102 648.737 525.562
1513 0 60.0267 12.2779 737 63.7232 649.17 523.783
1514 0 59.1371 11.076 655 66.0229 648.879 522.863
1515 0 63.0595 10.9579 691 66.11 648.318 522.818
1516 0 66.1309 11.7192 775 65.7264 649.523 519.916
1517 0 66.0507 10.2648 678 68.149 649.027 521.445
1518 0 69.0853 11.7825 814 66.2948 648.581 518.587
1519 0 71.096 11.2102 797 67.5245 648.698 518.4
1520 0 75.0695 12.0955 908 65.4482 648.768 517.031
1521 1 38.026 8.96756 341 66.7889 648.223 533.328
1522 0 39.0392 10.1949 398 65.1709 648.759 534.769
1523 0 41.0083 9.75413 400 65.645 648.528 533.338
1524 0 42.0104 10.5688 444 64.6959 648.457 534.534
1525 0 43.0396 9.94432 428 66.2383 648.54 533.932
1526 0 45.0325 11.1253 501 63.8483 648.419 531.074
1527 0 46.0341 11.6001 534 64.1498 648.492 531.191
1528 0 47.0374 11.5653 544 63.5662 648.614 531.268
1529 0 50.0487 12.1881 610 62.8738 648.649 530.054
1530 0 51.0614 11.633 594 64.3064 648.975 528.226
1531 0 52.044 11.2789 587 64.8348 649.196 527.882
1532 0 54.1559 10.1374 549 66.7486 649.202 524.741
1533 0 55.108 10.5248 580 65.7707 649.052 528.193
1534 0 56.0642 11.0052 617 65.9433 648.71 526.99
1535 0 59.097 12.6741 749 63.1522 648.422 524.961
1536 0 60.038 10.5433 633 66.6682 648.96 525.205
1537 0 64.1263 12.2103 783 63.7203 648.911 524.695
1538 0 64.1385 11.5999 744 64.8589 648.387 523.964
1539 0 68.1879 11.1457 760 65.446 648.666 521.897
1540 0 69.0828 11.7974 815 65.9129 648.012 520.158
1541 0 70.044 11.5213 807 65.8315 647.869 521.062
1542 0 75.1284 12.1658 914 64.2615 647.77 519.514
1543 1 41.0244 9.45778 388 63.7371 647.99 536.479
1544 0 37.0374 9.0449 335 66.2388 648.328 535.588
1545 0 41.0189 10.2879 422 62.9313 647.853 535.116
1546 0 43.0164 9.8567 424 65.2712 648.238 532.686
1547 0 44.1164 10.155 448 64.7366 647.973 532.993
1548 0 44.0198 9.97279 439 64.8884 647.743 530.278
1549 0 47.0359 10.9491 515 62.9903 648.482 531.437
1550 0 47.0458 10.6492 501 64.0339 648.637 531.621
1551 0 49.0306 10.7076 525 63.5067 648.632 530.623
1552 0 50.1464 10.8283 543 63.4494 648.866 529.344
1553 0 54.0808 9.98506 540 64.5056 648.304 528.378
1554 0 54.0973 10.8323 586 63.7355 648.321 525.415
1555 0 58.1075 11.1345 647 62.9814 648.495 525.297
1556 0 59.0785 13.4567 795 59.6239 648.706 525.436
1557 0 56.1001 10.9804 616 63.7094 648.643 522.752
1558 0 62.0726 12.1793 756 61.0503 648.517 523.481
1559 0 63.1408 12.0524 761 61.8699 648.194 521.84
1560 0 63.1228 10.7093 676 63.2707 648.333 521.192
1561 0 68.0868 11.1475 759 62.0725 648.851 521.469
1562 0 67.0783 12.3289 827 60.8718 647.99 520.198
1563 0 69.0644 10.7291 741 62.7598 648.142 518.941
1564 0 72.1241 11.9932 865 61.385 648.088 515.702
1565 0 73.0602 10.6624 779 62.9114 648.772 517.435
1566 1 41.027 9.04283 371 60.6038 648.043 536.388
1567 0 38.0385 6.99291 266 64.3985 647.658 534.274
1568 0 41.0107 10.2168 419 61.1981 647.831 532.773
1569 0 45.0457 9.54586 430 60.5605 648.458 533.879
1570 0 44.0666 11.4145 503 59.7614 648.01 529.642
1571 0 47.0655 10.8572 511 60.1389 648.131 530.757
1572 0 46.1329 9.75442 450 61.18 648.702 531.527
1573 0 48.1401 11.1134 535 60.1701 648.671 529.323
1574 0 49.1184 11.1974 550 60.22 648.525 528.415
1575 0 50.0906 10.5808 530 61.2528 648.843 529.458
1576 0 53.1317 12.2714 652 59.5445 648.554 526.684
1577 0 51.0879 8.74962 447 64.528 648.503 525.736
1578 0 57.0919 12.5062 714 59.3655 648.573 525.951
1579 0 57.1484 12.8088 732 59.5806 648.735 524.053
1580 0 57.135 10.3614 592 62.5726 648.605 525.936
1581 0 60.1642 11.9506 719 60.968 648.535 523.218
1582 0 62.1212 10.721 666 62.7658 648.718 522.456
1583 0 64.0715 10.9097 699 62.6881 648.461 521.788
1584 0 65.106 11.151 726 62.241 648.887 521.643
1585 0 67.0446 11.6042 778 61.8985 649.429 521.88
1586 0 70.1491 11.333 795 61.6465 648.764 520.389
1587 0 70.0782 11.6013 813 62.0184 648.428 517.271
1588 0 73.1003 11.6279 850 62.1929 647.999 514.799
1589 0 76.0944 13.3124 1013 48.385 647.894 517.237
1590 0 79.0351 11.2355 888 62.5664 648.241 513.955
1591 0 82.0577 11.0654 908 62.7401 648.439 513.706
1592 0 84.0622 11.3844 957 62.7513 648.339 511.647
1593 0 86.148 11.8517 1021 62.522 648.231 508.769
1594 1 46.0359 10.4701 482 62.0913 647.311 531.22
1595 0 49.0695 10.7195 526 61.6825 646.637 529.215
1596 0 47.1287 12.3067 580 61.6793 647.202 526.702
1597 0 49.1224 11.9294 586 61.8618 647.35 525.843
1598 0 49.0795 10.0857 495 63.8202 647.394 527.36
1599 0 53.0727 13.962 741 58.8016 647.309 525.536
1600 0 54.1044 10.4243 564 63.4628 648.05 525.358
1601 0 55.0646 10.6602 587 64.3407 648.494 524.121
1602 0 57.0561 10.6912 610 63.9607 647.928 524.503
1603 0 57.0472 11.4642 654 63.7125 648.081 524.106
1604 0 59.0903 10.9663 648 63.8225 648.699 522.718
1605 0 63.0635 12.1148 764 62.5825 648.517 521.602
1606 0 64.05 11.413 731 63.6293 648.185 521.676
1607 0 66.0585 12.7311 841 62.3793 648.021 521.394
1608 0 69.0843 12.7815 883 61.9377 648.111 519.177
1609 0 70.0426 12.1783 853 62.9215 648.227 518.889
1610 0 71.0382 11.163 793 64.7566 648.334 516.62
1611 0 73.067 10.5656 772 65.6295 648.825 514.991
1612 0 77.0485 12.265 945 64.0529 648.333 512.527
1613 0 79.1189 12.2095 966 63.3934 648.051 516.807
1614 0 83.102 13.0924 1088 62.3649 648.953 512.918
1615 0 86.2848 13.1657 1136 62.6461 648.357 510.001
1616 0 88.1153 12.8241 1130 63.3885 648.153 509.658
1617 1 48.0317 10.9303 525 64.0819 648.872 529.747
1618 0 47.0603 10.5184 495 64.9576 648.954 528.859
1619 0 50.0909 11.6987 586 63.57 648.688 527.616
1620 0 52.1214 12.4517 649 63.1171 648.824 525.718
1621 0 55.1251 11.7732 649 63.4022 649.165 525.453
1622 0 54.0929 12.8113 693 62.8398 648.69 525.55
1623 0 55.1712 11.3827 628 64.8137 648.877 524.261
1624 0 56.022 11.7275 657 64.3562 649.081 525.394
1625 0 61.1172 13.0405 797 61.5245 649.187 525.359
1626 0 61.05 11.9738 731 63.3516 648.84 523.101
1627 0 62.0764 12.5974 782 62.8517 648.661 522.632
1628 0 64.0924 11.4678 735 64.7483 648.736 520.673
1629 0 65.0853 13.6283 887 61.7351 648.334 520.824
1630 0 69.0937 13.3876 925 62.2584 648.531 519.267
1631 0 70.0976 12.2829 861 63.7805 647.978 515.128
1632 0 74.127 13.4094 994 61.0674 648.467 519.402
1633 0 72.0796 12.2087 880 64.3 649.161 514.252
1634 0 78.1697 13.3684 1045 62.2364 648.661 513.634
1635 0 79.0634 12.6481 1000 63.296 648.901 509.751
1636 0 83.0591 12.8222 1065 63.2019 648.787 510.623
1637 0 85.0677 14.271 1214 61.7702 649.161 508.684
1638 1 41.0731 9.22745 379 66.1873 649.53 530.127
1639 0 43.0262 9.18045 395 66.3494 649.046 529.916
1640 0 46.0713 10.3535 477 65.0021 649.31 527.713
1641 0 47.0524 11.3916 536 63.0373 649.013 527.509
1642 0 48.0403 12.1357 583 63.4494 648.952 527.031
1643 0 51.0226 12.3867 632 62.7089 648.525 526.821
1644 0 53.0284 12.597 668 62.232 648.954 524.708
1645 0 48.08 10.4201 501 66.4531 648.878 523.236
1646 0 53.0506 12.1959 647 63.5193 648.346 522.736
1647 0 57.106 13.8164 789 61.6477 649.229 522.366
1648 0 57.0521 12.2169 697 64.1736 648.92 521.713
1649 0 60.1657 13.147 791 63.4159 648.839 520.207
1650 0 62.0736 12.904 801 63.3084 649.072 520.24
1651 0 59.0601 11.6322 687 66.6376 648.894 517.774
1652 0 66.042 13.3249 880 63.4045 648.127 519.759
1653 0 66.0668 11.4581 757 66.9009 648.075 519.168
1654 0 69.1655 12.2749 849 65.3216 648.804 518.688
1655 0 71.0312 12.9661 921 64.6634 648.918 517.975
1656 0 74.0706 12.4611 923 65.662 648.731 516.807
1657 0 76.0862 13.7081 1043 64.7967 649.198 515.371
1658 0 76.0976 12.6154 960 66.7073 648.554 514.243
1659 0 80.0631 12.1779 975 66.9231 648.506 514.2
1660 1 40.0215 10.0696 403 66.1191 648.437 532.419
1661 0 42.0891 11.048 465 65.2495 648.686 532.243
1662 0 43.0496 12.2185 526 64.1863 648.605 531.173
1663 0 44.0455 11.2384 495 65.4485 648.788 532.024
1664 0 46.0506 11.5959 534 65.5056 648.56 531.97
1665 0 48.067 11.6088 558 65.6201 648.31 530.978
1666 0 48.0994 12.1831 586 66.0102 648.481 530.375
1667 0 51.0281 12.209 623 65.2648 648.318 530.064
1668 0 51.0676 11.3183 578 66.5796 648.362 531.093
1669 0 52.0505 12.3342 642 66.6682 648.396 526.628
1670 0 55.0628 13.6571 752 65.0665 648.698 526.767
1671 0 56.0959 12.8352 720 66.5472 648.383 525.782
1672 0 56.0558 11.5064 645 68.9457 648.87 522.482
1673 0 61.0546 12.5625 767 66.1956 649.003 525.688
1674 0 63.0842 12.7132 802 66.6222 649.389 524.263
1675 0 65.1292 12.79 833 67.024 649.288 522.743
1676 0 64.0342 9.40123 602 71.2342 648.912 523.522
1677 0 69.0538 11.4693 792 69.7576 649.076 521.726
1678 0 68.1119 11.393 776 70.5155 648.451 519.348
1679 0 73.1136 11.2018 819 70.3162 648.28 519.919
1680 0 76.1684 12.7087 968 68.6746 648.465 518.53
1681 1 40.0433 10.5636 423 67.2624 649.156 536.052
1682 0 39.1794 10.0818 395 69.1519 648.81 535.243
1683 0 41.0897 9.80781 403 69.1216 649.506 535.002
1684 0 43.0259 11.0864 477 68.9413 648.901 532.654
1685 0 45.0868 11.001 496 68.7843 649.145 532.76
1686 0 44.0564 11.4853 506 69.5237 648.962 531.895
1687 0 44.1135 11.8784 524 70.0229 649.027 530.092
1688 0 46.1144 10.3222 476 70.6534 648.693 531.597
1689 0 49.085 10.0234 492 72.1077 648.374 529.583
1690 0 51.0808 11.1588 570 70.4702 649.21 527.581
1691 0 52.0353 11.9534 622 69.5466 648.698 527.151
1692 0 54.0451 11.2869 610 69.6426 648.702 527.766
1693 0 57.0293 11.6607 665 69.8872 649.159 524.892
1694 0 58.0826 11.7075 680 68.7603 648.84 527.026
1695 0 60.079 11.4016 685 70.289 648.044 522.834
1696 0 64.0339 13.1024 839 67.081 648.596 522.906
1697 0 65.0505 11.5449 751 69.0959 648.423 523.547
1698 0 68.1023 11.8351 806 68.696 649.024 522.256
1699 0 67.1366 11.2755 757 70.4095 648.984 520.945
1700 1 34.0777 9.27293 316 69.0222 648.747 537.24
1701 0 37.053 10.9303 405 67.242 648.862 535.351
1702 0 37.0397 8.93636 331 70.142 648.23 535.532
1703 0 38.1128 9.76049 372 69.3387 648.199 534.134
1704 0 40.0292 10.2425 410 68.9049 647.854 532.251
1705 0 41.1112 8.09999 333 70.7778 647.874 533.646
1706 0 42.0781 10.4805 441 68.3379 648.397 531.517
1707 0 44.0588 10.1455 447 68.1633 648.289 529.658
1708 0 44.0636 9.62244 424 69.4741 648.802 529.514
1709 0 46.0375 10.3828 478 68.2092 648.483 529.224
1710 0 48.0589 10.175 489 68.4417 648.141 526.583
1711 0 49.0886 10.2468 503 67.5149 648.755 527.918
1712 0 52.2226 10.7042 559 67.1699 648.059 526.204
1713 0 52.1122 10.4966 547 67.6362 648.122 525.574
1714 0 54.1272 11.6023 628 66.1545 648.57 523.457
1715 0 56.0951 10.3931 583 67.6415 648.736 522.72
1716 0 58.0567 9.52517 553 68.4919 649.114 524.242
1717 0 61.0604 10.6779 652 66.4049 648.089 524.275
1718 0 62.1063 10.788 670 66.1134 648.072 520.939
1719 0 63.2798 10.4299 660 66.5394 648.577 518.305
1720 0 65.1187 10.5346 686 65.9825 648.229 520.278
1721 0 68.1146 10.5411 718 66.3844 648.451 518.291
1722 0 71.1354 11.8085 840 63.881 648.607 518.057
1723 0 74.2624 12.6309 938 62.9168 648.193 517.032
1724 0 75.1557 10.8175 813 65.7454 647.827 513.647
1725 0 80.0652 10.8786 871 64.8726 648.084 515.808
1726 1 39.0674 8.29335 324 66.3611 647.537 534.698
1727 0 44.1332 12.1677 537 60.6872 647.568 534.384
1728 0 43.057 9.9403 428 65.5093 647.392 531.049
1729 0 48.0607 11.4647 551 62.274 647.976 531.492
1730 0 49.0407 10.9093 535 62.4953 647.273 531.469
1731 0 48.1435 10.7595 518 63.5927 647.859 532.303
1732 0 52.0641 11.2169 584 62.6712 648.022 528.204
1733 0 53.1252 11.8023 627 62.1722 647.6 528.707
1734 0 54.2159 10.9193 592 63.2112 647.632 528.377
1735 0 56.1011 13.8322 776 59.7075 647.996 526.07
1736 0 58.1219 11.2178 652 62.6994 647.429 523.88
1737 0 60.0419 11.2921 678 62.3614 647.829 523.948
1738 0 59.0772 12.1874 720 61.3028 647.45 525.16
1739 0 62.0811 11.5655 718 61.7298 648.017 523.823
1740 0 64.0646 10.7548 689 62.9332 648.164 521.742
1741 0 67.0394 11.9333 800 61.1625 648.069 520.988
1742 0 69.1 10.2894 711 62.8059 648.205 519.433
1743 0 69.1054 10.8819 752 62.9508 648.475 516.279
1744 0 72.1095 9.61038 693 63.1602 648.566 520.113
1745 0 74.0511 10.5063 778 62.7301 648.093 518.744
1746 0 78.2586 10.6442 833 62.0432 648.3 518.14
1747 0 77.1671 10.4578 807 63.3309 648.035 515.252
1748 0 81.2945 9.28722 755 64.4927 648.168 514.785
1749 0 85.3 10.7855 920 62.7424 648.328 512.074
1750 1 47.0677 11.7703 554 60.3105 647.917 533.417
1751 0 48.1159 10.0175 482 63.0871 648.214 532.292
1752 0 50.1197 11.7718 590 61.6034 648.137 529.759
1753 0 50.0232 10.0753 504 63.7837 647.998 530.331
1754 0 51.0882 10.9223 558 62.853 647.86 527.287
1755 0 54.1045 11.0342 597 62.3568 647.69 527.126
1756 0 57.1642 12.088 691 61.1433 648.14 526.15
1757 0 57.1909 10.701 612 62.6618 648.131 527.204
1758 0 59.2347 10.9395 648 63.0324 647.765 523.895
1759 0 62.1207 12.8782 800 60.3012 648.205 524.185
1760 0 62.208 10.1434 631 63.9826 647.254 523.509
1761 0 66.0638 12.8512 849 60.6726 647.438 522.688
1762 0 66.0606 12.4431 822 61.3917 648.206 521.966
1763 0 69.1329 11.4996 795 62.2491 648.614 521.801
1764 0 73.2278 11.1706 818 63.4487 648.274 519.253
1765 0 72.0917 12.0402 868 62.3134 648.77 520.184
1766 0 75.2145 11.1016 835 64.2335 648.583 517.234
1767 0 79.0641 12.2179 966 63.0797 648.423 514.841
1768 0 80.2769 11.2984 907 64.0827 647.863 512.544
1769 0 84.1306 10.971 923 64.5742 648.493 513.437
1770 1 42.0129 10.9014 458 62.0852 649.188 534.773
1771 0 42.0147 7.75918 326 65.7178 648.822 534.862
1772 0 43.0222 10.4597 450 64.3556 648.471 533.129
1773 0 46.0225 12.2114 562 62.0979 648.947 531.358
1774 0 48.1095 11.9311 574 62.622 648.72 530.491
1775 0 49.0216 10.4036 510 64.4961 648.722 530.406
1776 0 51.0522 12.9867 663 61.6757 647.872 528.318
1777 0 53.0477 11.763 624 62.5849 647.782 527.479
1778 0 54.0646 12.8365 694 61.5476 647.886 526.816
1779 0 56.0443 12.1689 682 62.3974 648.042 525.136
1780 0 56.0213 12.4595 698 62.7407 647.88 522.244
1781 0 60.1579 12.0516 725 61.9586 648.348 523.291
1782 0 61.0854 11.9832 732 62.2719 648.824 522.794
1783 0 62.0574 11.6666 724 62.6229 648.942 522.457
1784 0 65.0989 11.9971 781 61.9296 648.796 521.784
1785 0 67.0614 12.5557 842 61.639 648.631 519.879
1786 0 68.0468 10.2136 695 64.3525 648.702 520.568
1787 0 72.194 13.3668 965 60.7067 648.916 518.772
1788 0 73.1649 11.4262 836 62.6184 648.555 514.577
1789 0 76.1542 11.1353 848 63.2547 648.34 513.729
1790 0 79.1418 11.789 933 61.9775 648.923 513.042
1791 1 41.0821 11.1728 459 60.5076 649.24 533.174
1792 0 43.0468 13.2414 570 57.9544 649.053 533.725
1793 0 45.0408 10.7902 486 60.821 649.169 533.156
1794 0 46.1456 12.5472 579 59.0449 649.432 532.368
1795 0 47.1371 11.9651 564 60.0922 648.48 531.47
1796 0 45.114 11.6372 525 60.8743 648.232 530.288
1797 0 50.0986 12.9944 651 58.3779 649.111 530.261
1798 0 52.0627 12.2352 637 59.741 648.857 527.154
1799 0 50.0333 11.992 600 60.405 648.44 526.61
1800 0 54.0622 11.9492 646 60.5573 648.433 524.635
1801 0 56.028 12.0297 674 60.7048 648.954 523.905
1802 0 59.0699 12.3075 727 59.7978 648.532 525.124
1803 0 59.096 13.0127 769 59.3732 648.909 521.84
1804 0 60.1074 10.9471 658 61.4514 648.394 523.088
1805 0 64.0645 11.3948 730 60.1096 648.389 523.447
1806 0 62.0912 11.3865 707 61.4682 648.338 519.574
1807 0 66.0299 12.8427 848 58.9257 648.371 520.189
1808 0 70.0609 11.9182 835 59.5269 648.569 518.737
1809 0 70.1261 12.2066 856 59.639 648.779 516.071
1810 0 73.1425 12.4962 914 59.3786 648.48 516.035
1811 0 74.0823 10.7313 795 60.9912 648.304 517.611
1812 0 77.1809 11.337 875 61.0629 648.206 512.946
1813 0 79.2361 11.6487 923 60.8722 648.028 512.058
1814 0 83.167 12.2645 1020 59.548 648.708 511.556
1815 0 86.1979 13.8054 1190 58.3193 647.57 511.124
1816 1 42.0802 9.10167 383 61.3969 647.734 529.444
1817 0 44.0648 10.3711 457 59.5952 647.667 530.991
1818 0 46.0364 10.3831 478 60.4602 647.634 527.937
1819 0 47.0759 10.7274 505 60.0495 648.503 528.321
1820 0 49.0476 11.601 569 59.5764 647.756 529.531
1821 0 53.0767 11.2102 595 59.7698 647.982 528.513
1822 0 53.1049 12.1269 644 59.7096 648.502 525.974
1823 0 53.0872 10.9066 579 61.7599 647.979 524.356
1824 0 57.1438 12.4773 713 58.9846 648.181 525.015
1825 0 56.049 10.1697 570 61.9193 648.09 526.14
1826 0 60.0686 11.3703 683 59.9663 648.204 524.151
1827 0 62.0365 11.4126 708 60.3432 648.623 520.984
1828 0 63.0982 11.284 712 60.8708 648.087 520.94
1829 0 65.0383 12.1774 792 59.7727 647.948 518.864
1830 0 67.1349 11.6929 785 60.4497 647.534 518.857
1831 0 67.0357 11.9339 800 60.44 647.674 517.924
1832 0 68.1064 9.98438 680 62.3941 647.902 519.153
1833 0 73.1682 10.182 745 62.1195 648.013 516.901
1834 0 76.1281 11.3624 865 61.0347 647.911 515.407
1835 0 77.076 11.4173 880 61.0466 647.308 514.045
1836 0 79.1428 11.3213 896 61.4319 647.434 512.452
1837 0 83.1558 11.268 937 61.9136 648.061 509.813
1838 0 87.1472 12.0945 1054 62.0294 647.815 508.21
1839 0 87.154 11.8641 1034 61.7853 647.604 509.672
1840 1 46.0942 10.5002 484 60.938 647.397 529.056
1841 0 49.1378 11.3355 557 60.2675 647.476 527.19
1842 0 50.1068 10.0984 506 61.8538 647.13 526.221
1843 0 50.1204 10.9536 549 61.3315 647.924 525.29
1844 0 52.0374 11.0498 575 62.08 648.292 523.833
1845 0 53.1186 9.22464 490 63.9286 647.802 526.086
1846 0 55.0578 10.8613 598 61.6455 648.04 524.931
1847 0 58.1628 11.6054 675 61.1748 647.908 519.705
1848 0 60.0611 11.2552 676 61.8106 647.425 518.567
1849 0 61.2394 12.9492 793 59.3266 648.047 522.332
1850 0 64.0952 11.4985 737 61.4043 647.091 519.567
1851 0 66.1024 11.2099 741 61.8488 647.547 518.016
1852 0 68.1651 10.3132 703 62.3684 648.036 519.428
1853 0 69.1028 10.0285 693 63.3117 647.175 519.036
1854 0 71.1005 11.111 790 62.2747 647.777 515.047
1855 0 75.0677 11.2698 846 62.1064 648.197 511.76
1856 0 78.1268 11.3277 885 61.6644 647.918 513.09
1857 0 78.1422 9.77704 764 63.7107 647.488 514.77
1858 0 83.0736 11.9051 989 61.4338 647.308 511.117
1859 1 42.0234 11.3984 479 60.5031 647.871 530.415
1860 0 42.0425 10.87 457 60.6149 647.591 530.372
1861 0 44.0277 11.3565 500 60.752 647.71 528.796
1862 0 46.0889 12.7362 587 59.7615 647.216 527.37
1863 0 45.0285 9.70496 437 63.5767 647.238 528.719
1864 0 48.0603 11.9017 572 60.9825 647.572 527.28
1865 0 49.0364 10.6044 520 63.3827 647.106 526.663
1866 0 53.0262 9.88191 524 63.895 647.639 525.83
1867 0 52.0412 8.58935 447 66.1588 647.396 527.734
1868 0 53.0974 10.283 546 65.3425 646.549 524.619
1869 0 58.141 12.5557 730 61.6 646.986 524.818
1870 0 57.0292 11.31 645 64.3907 646.967 523.226
1871 0 60.0884 11.2667 677 63.5643 647.272 523.198
1872 0 60.1654 10.3548 623 64.5714 647.449 523.562
1873 0 64.0272 12.073 773 62.8719 647.589 520.467
1874 0 64.0866 10.1113 648 65.5077 647.593 519.662
1875 0 69.0725 11.9005 822 62.6545 647.117 519.749
1876 0 68.1083 12.9793 884 61.9333 647.649 517.198
1877 0 71.0442 12.3726 879 62.6428 647.654 517.166
1878 0 74.1027 12.4287 921 62.1824 647.504 515.472
1879 0 74.2374 12.0155 892 62.7735 647.223 515.321
1880 0 77.1158 10.6852 824 64.841 647.805 512.279
1881 0 78.1542 11.9635 935 63.5508 647.671 510.494
1882 0 84.1045 12.5796 1058 62.0567 647.959 511.134
1883 0 88.1383 13.1498 1159 61.4107 647.966 511.055
1884 1 43.2034 10.5547 456 63.1864 647.691 531.482
1885 0 44.1574 11.3458 501 62.2994 647.411 532.816
1886 0 44.0427 11.3753 501 63.988 647.577 530.056
1887 0 48.0725 11.9195 573 63.0646 648.384 529.337
1888 0 49.0269 11.1979 549 64.1239 647.663 529.337
1889 0 50.0806 12.2802 615 63.1805 647.611 526.724
1890 0 49.028 12.1359 595 63.1193 646.682 527.524
1891 0 52.04 11.3182 589 64.3362 646.806 527.818
1892 0 54.0926 11.9055 644 63.8416 646.498 525.724
1893 0 54.0452 11.6754 631 65.225 647.292 522.632
1894 0 57.0705 13.5622 774 63.3437 646.72 521.917
1895 0 56.0523 12.2029 684 65.8904 646.912 521.061
1896 0 60.0747 13.6164 818 63.6467 646.627 519.237
1897 0 64.1263 14.1128 905 62.6552 647.501 519.84
1898 0 65.0427 14.2522 927 62.8069 647.554 518.22
1899 0 68.1251 12.3009 838 65.0119 648.432 519.566
1900 0 70.1502 12.0884 848 65.6014 648.08 518.138
1901 0 72.0874 13.8027 995 63.6965 647.896 517.577
1902 0 73.2015 15.8057 1157 61.5722 647.933 516.158
1903 0 75.0819 14.0913 1058 64.5198 647.679 512.761
1904 0 76.1384 12.74 970 66.6515 648.076 513.931
1905 0 80.0717 13.7502 1101 64.9691 647.785 514.38
1906 0 81.125 13.3251 1081 66.345 647.84 511.2
1907 0 84.0521 12.7302 1070 67.5523 648.158 509.887
1908 0 88.0858 13.975 1231 66.0008 648.413 506.381
1909 0 87.0938 13.5256 1178 67.4525 648.216 507.045
1910 0 91.062 12.3323 1123 68.8157 648.706 505.458
1911 0 95.065 14.832 1410 65.5128 648.478 503.594
1912 0 95.0637 11.75 1117 69.1397 648.186 506.602
1913 0 102.114 12.2413 1250 68.5464 647.493 502.065
1914 0 103.117 13.1307 1354 67.7925 648.482 500.343
1915 0 105.148 13.4762 1417 67.6733 648.637 498.847
1916 0 110.047 13.2489 1458 67.2064 648.286 498.12
1917 0 112.127 12.1648 1364 69.2353 648.392 495.7
1918 0 115.206 12.8292 1478 67.8498 647.791 495.737
1919 1 46.0284 12.3402 568 64.4084 648.151 529.778
1920 0 46.0328 11.6873 538 66.8439 648.701 528.823
1921 0 48.052 12.4865 600 65.21 648.567 529.41
1922 0 50.0476 11.9486 598 65.3696 648.411 529.311
1923 0 52.0698 11.8879 619 66.8885 648.651 524.827
1924 0 54.0813 13.3503 722 64.7853 648.799 524.572
1925 0 53.0504 11.4608 608 67.5033 648.02 524.39
1926 0 56.0276 11.3158 634 66.4385 647.59 524.568
1927 0 60.0538 12.9384 777 64.3282 648.054 523.376
1928 0 60.0537 13.4047 805 64.4758 648.156 520.547
1929 0 62.0376 13.2178 820 64.6768 647.774 519.313
1930 0 65.0532 12.3437 803 65.4184 647.956 518.625
1931 0 66.0495 11.2037 740 66.623 648.081 517.838
1932 0 69.0934 12.418 858 64.5256 647.893 518.904
1933 0 72.0657 11.1426 803 66.0722 647.907 516.798
1934 0 73.0728 11.5912 847 65.4238 647.277 517.195
1935 0 75.1022 12.1701 914 64.5821 647.321 514.496
1936 0 78.1253 11.5584 903 64.8571 647.445 512.385
1937 0 81.0678 11.3239 918 64.9553 646.852 510.79
1938 1 38.057 11.1937 426 61.7441 646.669 535.289
1939 0 40.0665 11.0816 444 62.1284 646.441 533.45
1940 0 40.0309 11.2663 451 62.3171 646.541 533.725
1941 0 42.0351 10.2058 429 62.5897 646.825 531.448
1942 0 43.0229 11.0406 475 61.6295 646.663 533.459
1943 0 45.2379 10.9201 494 61.2166 646.54 532.826
1944 0 45.0798 11.8678 535 60.9271 646.026 530.097
1945 0 47.0944 12.4431 586 60.0068 646.109 530.253
1946 0 49.0454 11.7238 575 61.1183 645.824 530.713
1947 0 51.2058 12.2056 625 60.3808 645.662 528.234
1948 0 52.0537 11.9492 622 60.7379 645.455 527.122
1949 0 53.033 12.2942 652 60.454 645.212 526.37
1950 0 54.0213 12.9394 699 59.5451 644.994 526.299
1951 0 57.1281 11.3079 646 61.4551 645.322 524.587
1952 0 57.0485 12.8838 735 59.9687 644.917 523.997
1953 0 63.0686 11.4161 720 61.0583 645.326 522.067
1954 0 60.0608 10.4061 625 63.4384 645.197 520.784
1955 0 64.0491 9.68008 620 63.6387 644.984 520.498
1956 0 68.0983 12.0855 823 60.9283 645.556 519.397
1957 0 71.1863 13.0222 927 59.712 644.986 518.694
1958 0 70.0979 10.5281 738 62.5027 644.916 518.882
1959 0 75.1736 11.1608 839 61.8057 645.748 515.291
1960 0 75.0565 13.5898 1020 59.7461 646.037 514.771
1961 0 78.1399 11.1467 871 62.2308 646.177 513.984
1962 0 81.2272 10.3783 843 62.8897 646.46 512.633
1963 0 82.1306 10.0084 822 63.4769 646.331 511.445
1964 0 87.1623 12.9528 1129 60.4243 646.966 510.98
1965 0 88.1266 10.7459 947 63.3284 646.665 507.933
1966 1 43.0787 10.4228 449 61.4031 646.824 531.862
1967 0 45.2065 11.3258 512 61.1074 646.734 528.627
1968 0 45.1134 10.4625 472 62.0297 646.714 530.235
1969 0 47.0771 11.0669 521 61.6564 646.916 527.365
1970 0 48.0497 12.4038 596 60.3708 646.824 529.438
1971 0 52.1791 12.7829 667 59.7271 647.421 525.915
1972 0 53.1362 13.1925 701 59.3238 647.214 525.133
1973 0 56.0769 10.2359 574 62.1638 647.124 524.277
1974 0 58.103 11.2387 653 61.1164 647.277 524.136
1975 0 57.1194 11.2046 640 61.9953 647.014 520.612
1976 0 59.0925 11.8628 701 60.7446 647.061 523.033
1977 0 64.1168 14.0681 902 58.4379 647.389 519.99
1978 0 65.1958 14.7095 959 58.3837 647.35 519.122
1979 0 66.0857 10.8798 719 62.7427 648.504 521.331
1980 0 68.0812 12.2354 833 61.5426 648.114 520.435
1981 0 72.2297 13.4709 973 60.2056 648.163 517.727
1982 0 74.1442 12.678 940 60.9872 647.253 518.464
1983 0 75.2019 12.4731 938 62.306 647.614 514.03
1984 0 78.1519 13.8064 1079 60.4801 648.124 517.063
1985 0 78.1502 12.975 1014 62.5523 647.315 513.126
1986 0 82.2878 12.4198 1022 62.7153 648.162 515.676
1987 0 84.0862 12.2374 1029 63.7415 648.35 511.688
1988 0 84.1311 11.4108 960 65.0031 648.236 508.094
1989 0 90.1189 12.6167 1137 63.6315 648.333 510.756
1990 0 88.3153 10.8135 955 66.9152 648.507 508.067
1991 0 93.252 13.2437 1235 62.9158 648.047 510.625
1992 1 50.0385 12.3305 617 65.0162 648.266 524.833
1993 0 53.11 12.7283 676 63.8624 648.475 527.173
1994 0 55.0504 14.5866 803 61.7061 648.31 525.898
1995 0 56.14 13.0745 734 64.2357 648.512 523.902
1996 0 58.1236 13.5401 787 63.8806 648.43 524.207
1997 0 59.1536 13.6932 810 63.8716 648.401 524.02
1998 0 62.1504 13.6765 850 63.5718 648.219 523.311
1999 0 64.0796 13.9358 893 63.4099 648.432 519.775
2000 0 63.036 12.0725 761 66.205 648.85 520.862
2001 0 67.1649 13.0425 876 65.1279 648.301 519.063
2002 0 70.115 13.0785 917 64.5572 649.034 519.204
2003 0 72.0823 12.7216 917 65.1603 648.79 516.268
2004 0 73.1779 13.5013 988 64.5476 648.887 515.9
2005 0 75.066 13.0152 977 65.4718 648.699 515.295
2006 0 79.1828 13.6393 1080 64.4954 648.852 512.646
2007 0 81.2358 13.9101 1130 64.4841 648.879 509.493
2008 0 84.0887 11.916 1002 66.7355 648.526 510.752
2009 0 85.1971 12.6765 1080 66.2768 648.608 509.998
2010 0 90.2063 12.9148 1165 65.9571 648.34 509.021
2011 0 93.178 12.8249 1195 65.8268 648.564 510.129
2012 0 95.1135 12.8058 1218 66.6995 648.059 504.271
2013 0 98.1355 13.3795 1313 66.313 648.306 503.349
2014 0 102.128 12.7193 1299 66.2679 648.133 504.24
2015 1 54.1428 11.4881 622 66.5868 648.833 525.397
2016 0 55.1561 13.217 729 65.0123 648.196 525.521
2017 0 58.1281 13.3154 774 64.4147 648.125 525.494
2018 0 59.0498 13.1923 779 65.7189 647.692 521.286
2019 0 62.0788 11.8398 735 67.1864 648.182 521.299
2020 0 64.2516 12.5444 806 66.5422 648.191 521.123
2021 0 67.1384 13.286 892 65.2915 648.32 521.443
2022 0 68.0787 12.5884 857 66.9708 648.088 519.338
2023 0 70.0928 11.8272 829 67.9614 648.519 518.259
2024 0 75.1947 13.8441 1041 65.1431 648.447 517.289
2025 0 77.0999 12.3347 951 67.7739 648.456 516.324
2026 0 80.1104 13.781 1104 65.8696 648.563 514.382
2027 0 83.1185 13.2461 1101 66.6866 647.806 515.96
2028 0 84.1688 11.5839 975 69.0154 647.885 511.915
2029 0 87.1732 13.238 1154 67.6378 647.821 510.379
2030 0 91.1024 14.0831 1283 66.5323 647.67 508.621
2031 0 97.181 15.0544 1463 65.0807 647.496 508.379
2032 1 47.1104 12.354 582 68.3213 647.399 531.256
2033 0 49.1694 12.2637 603 68.209 648.264 530.778
2034 0 51.0439 14.0075 715 66.8909 647.429 528.455
2035 0 53.0729 13.9619 741 66.9231 646.609 527.42
2036 0 54.0993 14.5288 786 65.9529 646.845 528.086
2037 0 54.0603 12.708 687 69.1179 647.483 528.207
2038 0 58.1254 15.1397 880 65.4898 647.68 526.339
2039 0 57.083 12.6132 720 68.7764 647.89 524.899
2040 0 61.1676 14.7627 903 66.2758 648.043 524.431
2041 0 64.0844 13.607 872 66.8566 647.696 524.327
2042 0 65.0758 14.2142 925 66.3405 647.201 523.849
2043 0 68.2169 16.3303 1114 64.5027 647.369 519.191
2044 0 71.0956 14.6844 1044 66.0383 646.753 521.27
2045 0 72.2247 13.0426 942 68.5764 647.556 519.192
2046 0 75.0881 13.2777 997 67.9027 647.53 517.706
2047 0 78.1438 12.3362 964 68.612 647.368 520.054
2048 0 79.219 13.1029 1038 68.8131 647.318 517.284
2049 0 83.1678 13.2623 1103 68.1559 647.11 516.992
2050 0 83.2182 12.6775 1055 69.4028 647.33 513.966
2051 0 90.3539 13.8788 1254 67.7504 646.538 513.528
2052 1 45.09 12.841 579 67.7979 646.378 533.306
2053 0 48.1718 12.4762 601 68.0782 646.636 531.439
2054 0 48.1306 12.7362 613 68.4062 647.041 531.7
2055 0 49.1082 13.3175 654 68.0199 646.858 530.783
2056 0 52.2233 13.672 714 66.3824 646.246 531.087
2057 0 50.242 12.3602 621 69.6522 647.087 529.652
2058 0 54.0863 14.7357 797 65.6575 646.472 529.895
2059 0 57.1561 12.1947 697 68.7274 646.789 528.254
2060 0 58.1391 13.8461 805 68.5478 646.993 528.908
2061 0 60.1925 14.4536 870 68.2862 646.815 527.039
2062 0 62.0603 14.0831 874 68.3032 646.819 525.892
2063 0 64.2733 12.8202 824 69.9551 646.559 525.842
2064 0 65.06 13.0802 851 69.8625 647.213 525.358
2065 0 69.1206 15.6393 1081 65.7576 646.96 524.305
2066 0 70.1286 13.133 921 69.6004 646.573 520.493
2067 0 70.2492 12.9396 909 69.8317 646.897 520.243
2068 0 74.1589 13.5789 1007 69.1668 646.137 519.869
2069 0 78.146 12.9885 1015 69.7517 646.534 519.174
2070 0 79.128 15.0263 1189 67.8377 646.09 517.05
2071 0 83.2344 13.0835 1089 70.494 646.534 515.286
2072 0 85.3215 13.1034 1118 70.9213 646.364 515.363
2073 0 87.087 12.7229 1108 71.6688 645.805 514.767
2074 0 92.1596 15.0825 1390 68.787 646.65 512.388
2075 1 48.2809 12.0544 582 71.4089 646.141 533.651
2076 0 47.1318 11.6482 549 72.561 646.182 532.9
2077 0 49.1594 12.3679 608 71.8849 645.982 531.628
2078 0 49.1299 10.2992 506 74.8874 646.184 531.383
2079 0 54.132 14.0398 760 70.8 646.132 528.454
2080 0 54.3674 13.9974 761 70.9527 646.753 529.152
2081 0 55.2883 13.5472 749 72.462 646.114 528.669
2082 0 58.1548 12.8966 750 73.384 646.543 526.208
2083 0 59.1046 14.5674 861 71.7201 646.504 524.289
2084 0 62.2954 13.2915 828 73.6159 646.297 523.533
2085 0 64.1884 13.7096 880 72.9841 646.086 519.819
2086 0 68.1058 13.8901 946 72.8615 646.395 521.997
2087 0 71.3088 14.8369 1058 71.2883 646.843 521.181
2088 0 69.1136 13.2391 915 75.0874 646.764 519.15
2089 0 74.1549 13.1482 975 74.398 646.422 520.554
2090 0 76.1798 14.5051 1105 73.5919 646.376 518.616
2091 0 79.1797 14.5366 1151 73.212 646.602 517.761
2092 0 81.2451 13.0592 1061 76.2394 646.721 513.485
2093 0 82.2364 13.5585 1115 75.7749 646.536 514.749
2094 0 87.1807 16.0127 1396 72.5107 646.771 512.012
2095 0 88.1555 12.875 1135 77.3454 647.215 511.371
2096 0 93.2576 14.9907 1398 73.5494 646.832 511.838
2097 1 46.1668 11.7834 544 77.2463 647.029 533.393
2098 0 47.174 12.2101 576 78.066 646.703 532.255
2099 0 52.3289 12.7845 669 75.2496 646.824 533.451
2100 0 50.0731 12.4019 621 77.9291 646.473 530.293
2101 0 53.1795 14.5921 776 74.0168 646.858 530.326
2102 0 56.1009 13.6361 765 74.7634 647.374 529.099
2103 0 58.2616 14.4006 839 73.6102 647.248 527.151
2104 0 59.1155 14.0572 831 74.1023 646.976 526.237
2105 0 61.073 16.554 1011 70.4233 647.136 525.033
2106 0 62.1394 14.5801 906 73.1634 647.008 525.847
2107 0 66.141 14.832 981 72.9256 646.33 522.712
2108 0 68.1239 14.0479 957 74.4336 646.675 522.259
2109 0 70.1148 15.5887 1093 71.258 646.81 522.392
2110 0 72.1469 15.1496 1093 72.2818 646.815 520.641
2111 0 73.1326 14.3301 1048 74.1908 647.113 519.807
2112 0 76.1132 15.0302 1144 73.2089 647.086 516.5
2113 0 77.1169 14.6142 1127 74.85 647.39 515
2114 0 82.0684 13.9152 1142 74.9781 647.316 516.216
2115 0 83.1876 14.3411 1193 74.4711 647.258 516.101
2116 0 84.1724 13.805 1162 76.4268 647.082 512.474
2117 0 89.265 14.1265 1261 75.6741 646.809 511.633
2118 1 45.1117 12.8348 579 77.0069 647.035 531.841
2119 0 47.1564 11.8542 559 77.5957 647.088 532.767
2120 0 48.1305 13.4426 647 75.4683 646.798 531.182
2121 0 50.2079 13.6632 686 75.1516 647.143 531.254
2122 0 49.134 13.4937 663 77.1629 646.727 528.701
2123 0 53.2291 14.2967 761 74.2208 647.078 527.449
2124 0 54.3252 13.0326 708 76.3418 646.165 527.424
2125 0 56.1338 13.0046 730 75.5096 647.316 529.333
2126 0 57.213 14.2975 818 74.9976 647.39 525.444
2127 0 58.079 13.6366 792 75.9684 646.744 522.439
2128 0 60.079 12.9996 781 76.3227 647.182 524.968
2129 0 63.1659 14.169 895 73.9196 646.556 525.556
2130 0 64.1442 12.5031 802 77.0835 646.369 521.939
2131 0 66.069 13.5918 898 75.8129 646.934 521.259
2132 0 70.0509 14.3039 1002 73.024 647.555 525.21
2133 0 71.3876 13.4897 963 75.0748 647.118 521.02
2134 0 75.1638 13.4506 1011 74.5747 646.91 516.496
2135 0 76.1814 12.8247 977 75.739 647.44 518.438
2136 0 79.1595 14.035 1111 74.0378 647.034 516.27
2137 0 81.0595 13.5703 1100 75.0073 646.722 513.783
2138 0 85.0721 14.999 1276 72.8973 646.913 515.142
2139 0 87.2557 13.7985 1204 74.4693 647.518 516.782
2140 0 90.157 14.6522 1321 73.8857 647.161 513.245
2141 0 93.2082 14.0868 1313 74.869 646.866 509.694
2142 1 49.1362 13.2489 651 73.9247 647.22 533.742
2143 0 49.236 14.3594 707 73.761 647.297 530.417
2144 0 50.0968 12.935 648 75.5093 646.699 530.89
2145 0 53.1732 13.2209 703 74.5832 646.634 531.341
2146 0 53.2018 13.5898 723 74.7165 646.502 529.542
2147 0 56.147 16.0115 899 71.0623 645.894 526.941
2148 0 58.0981 13.0641 759 74.3584 645.852 528.084
2149 0 62.0882 15.4619 960 69.9448 645.805 527.389
2150 0 62.1412 14.6602 911 73.0296 645.746 523.912
2151 0 65.0609 14.863 967 71.7156 646.088 524.725
2152 0 65.0819 12.5841 819 75.514 645.835 523.773
2153 0 68.0859 13.8355 942 74.0276 646.201 522.744
2154 0 69.0989 14.4286 997 73.4072 645.917 522.462
2155 0 73.1209 13.252 969 74.4923 646.428 521.434
2156 0 75.232 14.2227 1070 73.828 646.547 520.008
2157 0 77.0588 16.3122 1257 71.3771 646.301 515.785
2158 0 80.0972 14.8819 1192 73.3683 646.739 515.559
2159 0 82.0839 14.8141 1216 73.9942 646.242 513.359
2160 0 86.0822 15.9499 1373 72.1216 646.356 513.765
2161 0 88.1426 14.59 1286 74.6128 646.678 511.33
2162 0 90.0895 13.9972 1261 75.3814 646.202 511.565
2163 0 92.1494 13.6083 1254 76.63 646.227 510.268
2164 1 45.0845 11.8223 533 78.2158 646.366 532.597
2165 0 46.0517 12.486 575 76.8174 646.522 532.833
2166 0 49.0783 13.9165 683 74.5739 646.676 532.408
2167 0 50.0527 15.8233 792 71.9356 647.044 532.098
2168 0 54.0875 14.7908 800 72.2762 646.431 530.954
2169 0 56.0667 13.591 762 74.1063 646.325 530.671
2170 0 55.1692 14.2108 784 74.0128 646.696 529.467
2171 0 57.1158 13.9016 794 74.3589 647.339 527.048
2172 0 61.1151 14.3009 874 72.6041 647.146 526.45
2173 0 62.0373 13.7176 851 74.0541 646.94 525.604
2174 0 63.0663 13.6523 861 74.3856 647.005 524.366
2175 0 65.0679 14.8307 965 71.9254 646.971 523.586
2176 0 65.135 14.1399 921 73.9761 647.116 521.379
2177 0 70.1148 14.9612 1049 71.4957 646.404 522.314
2178 0 72.1914 13.0625 943 74.9226 646.748 520.157
2179 0 75.1293 14.8943 1119 71.8963 647.025 516.916
2180 0 77.0625 14.7802 1139 72.4355 647.088 516.505
2181 0 80.0743 14.8237 1187 72.5021 647.083 514.066
2182 0 84.04 13.4698 1132 73.9055 647.148 514.852
2183 1 40.0512 12.7836 512 74.8184 647.137 534.139
2184 0 40.0542 13.9561 559 73.39 646.898 533.531
2185 0 42.0685 12.7887 538 75.9944 647.195 532.489
2186 0 42.1307 12.6511 533 74.955 646.891 533.619
2187 0 46.1382 12.4192 573 75.0035 647.073 531.366
2188 0 47.0576 13.3241 627 73.8724 646.729 530.155
2189 0 50.0549 13.9447 698 72.2994 646.622 529.739
2190 0 51.0766 13.5483 692 72.4249 646.357 529.447
2191 0 52.123 14.1588 738 71.687 646.976 529.532
2192 0 55.1534 13.5078 745 72.2926 645.997 527.362
2193 0 56.1849 14.8616 835 70.3952 646.622 526.904
2194 0 55.0481 12.0985 666 75.0465 646.844 527.048
2195 0 60.0861 14.3461 862 70.9559 646.665 525.625
2196 0 63.0845 13.1411 829 71.7575 646.37 526.935
2197 0 65.0775 13.2765 864 71.7662 646.344 523.251
2198 0 67.1748 13.6956 920 71.1 646.758 523.403
2199 0 68.0656 12.9728 883 72.1223 646.666 520.247
2200 0 70.0893 11.2571 789 74.5627 646.516 520.857
2201 0 75.0426 14.4851 1087 69.5989 646.715 520.037
2202 0 77.0882 13.53 1043 71.2713 646.46 518.536
2203 1 39.178 12.3283 483 71.8613 647.118 535.768
2204 0 37.0589 12.7635 473 73.0888 646.939 535.736
2205 0 38.0239 12.0976 460 74.113 646.667 533.978
2206 0 41.1237 12.6448 520 72.5827 646.663 533.313
2207 0 43.0307 13.8738 597 69.7487 646.849 534.348
2208 0 44.0496 13.0989 577 72.3224 646.915 531.263
2209 0 46.1173 13.0103 600 71.225 647.11 531.763
2210 0 48.0443 14.112 678 69.0634 646.768 530.254
2211 0 51.2774 15.3479 787 66.3266 646.925 531.149
2212 0 52.0591 14.157 737 68.076 647.187 530.429
2213 0 53.2162 13.3606 711 69.6188 646.578 528.626
2214 0 54.1419 12.8366 695 70.0878 646.934 528.249
2215 0 57.1345 13.1094 749 69.3458 646.784 526.68
2216 0 60.1429 12.9192 777 69.1609 646.328 525.259
2217 0 62.0378 15.7485 977 65.6817 646.299 523.594
2218 0 65.2772 12.8069 836 68.5526 646.685 524.207
2219 0 66.132 13.5789 898 67.6036 646.827 521.754
2220 0 68.1055 16.122 1098 64.5492 646.718 520.174
2221 0 68.088 14.305 974 67.2885 647.129 520.099
2222 0 72.115 12.7713 921 68.6786 647.112 520.222
2223 0 76.0466 13.9783 1063 67.1759 647.148 518.028
2224 0 79.108 12.1732 963 69.0498 646.198 517.79
2225 0 80.1209 12.4187 995 69.5819 647.282 515.824
2226 0 86.1254 14.7459 1270 65.6331 647.113 515.791
2227 1 42.0295 9.56471 402 72.8085 647.448 533.751
2228 0 44.0481 11.3739 501 70.9281 647.371 532.725
2229 0 48.0315 12.6375 607 69.089 647.944 531.43
2230 0 50.0382 13.03 652 68.0506 648.08 531.235
2231 0 49.0847 12.5294 615 69.6374 647.956 529.415
2232 0 53.0458 13.9879 742 66.4434 647.435 528.408
2233 0 56.0362 13.5448 759 66.4229 647.391 529.843
2234 0 56.039 13.6155 763 66.7287 647.831 528.832
2235 0 58.048 13.8161 802 66.5424 648.226 525.468
2236 0 61.0528 13.1362 802 67.0112 648.061 525.921
2237 0 62.0409 14.0875 874 65.6293 648.151 525.335
2238 0 64.1977 13.1002 841 66.6873 648.073 524.434
2239 0 67.0784 13.1637 883 66.7101 648.046 520.754
2240 0 69.0356 13.5727 937 66.3991 647.89 519.488
2241 0 70.0573 13.7031 960 66.2094 648.465 520.274
2242 0 74.1682 14.1705 1051 65.216 648.362 517.423
2243 0 77.1106 13.7724 1062 65.4991 648.207 516.691
2244 0 77.1259 12.4083 957 67.4556 647.857 517.024
2245 0 82.0844 13.4739 1106 65.5633 648.266 513.763
2246 0 86.0726 13.8023 1188 65.2231 648.138 513.742
2247 1 39.0467 9.3734 366 70.1858 647.27 535.596
2248 0 43.0182 13.0875 563 65.8401 647.886 533.416
2249 0 45.0473 12.6534 570 66.6491 647.675 532.314
2250 0 47.0702 13.0444 614 65.4332 647.438 532.42
2251 0 49.1122 14.2734 701 64.3424 647.588 529.715
2252 0 52.0258 15.7037 817 62.3648 647.709 528.739
2253 0 52.0685 15.0571 784 63.3189 647.205 527.15
2254 0 55.1301 14.0214 773 64.1643 647.686 527.075
2255 0 56.0316 14.2063 796 64.3681 647.736 525.567
2256 0 56.0491 13.167 738 65.4959 647.565 525.572
2257 0 59.1065 15.8189 935 61.9037 647.795 524.278
2258 0 61.1516 13.8835 849 64.2309 647.909 524.782
2259 0 63.0757 13.3966 845 65.0083 647.631 521.949
2260 0 65.041 12.6074 820 65.4841 647.929 521.172
2261 0 66.1031 12.8284 848 65.7276 647.797 521.234
2262 0 71.0608 13.3407 948 64.8681 648.111 518.129
2263 0 75.0641 13.7083 1029 63.8776 648.303 517.367
2264 0 75.1093 13.1675 989 65.1587 647.586 515.553
2265 0 81.0993 13.9952 1135 63.163 647.441 516.324
2266 1 41.0241 14.7474 605 62.5273 648.519 534.909
2267 0 42.0616 13.1474 553 65.2333 647.731 532.797
2268 0 44.0559 11.894 524 66.4027 647.924 532.508
2269 0 47.0537 14.069 662 64.1344 647.563 530.403
2270 0 47.0296 11.631 547 67.287 647.709 531.89
2271 0 51.048 14.6725 749 63.2163 647.973 530
2272 0 50.058 12.4456 623 66.8491 647.514 529.169
2273 0 50.0104 12.0375 602 67.6661 647.583 529.166
2274 0 55.033 14.0461 773 64.4191 647.953 528.912
2275 0 57.0826 13.0162 743 65.9219 647.661 526.68
2276 0 57.0453 13.8662 791 65.5183 647.936 524.832
2277 0 59.0378 12.3819 731 67.1012 647.547 524.956
2278 0 63.0474 13.244 835 65.5689 647.867 525.259
2279 0 64.0482 13.0214 834 66.5096 646.989 522.484
2280 0 65.1274 16.0455 1045 62.9225 648.355 521.952
2281 0 65.0644 12.7412 829 67.9361 648.014 518.442
2282 0 71.1462 14.2664 1015 64.6473 647.435 521.225
2283 0 74.0859 14.9556 1108 64.3664 647.758 516.968
2284 0 75.082 13.5585 1018 66.4303 647.878 516.588
2285 0 76.0594 13.1608 1001 67.2817 647.533 514.118
2286 0 79.0819 14.0487 1111 66.2601 648.178 515.115
2287 0 82.1334 13.3685 1098 66.7441 647.748 514.382
2288 1 41.02 11.8966 488 67.7746 648.373 533.27
2289 0 43.0457 12.4519 536 67.6175 648.769 532.517
2290 0 45.0518 11.2981 509 68.9666 648.281 529.876
2291 0 47.0374 13.6912 644 66.2143 648.07 530.488
2292 0 50.1239 12.6487 634 66.7855 648.254 529.415
2293 0 52.0582 14.0036 729 65.7462 648.255 527.483
2294 0 53.1831 12.4476 662 67.8595 647.823 526.867
2295 0 53.0366 13.9149 738 66.3957 648.412 525.911
2296 0 54.0582 14.0034 757 66.5707 648.283 524.966
2297 0 57.2431 13.3466 764 66.3966 647.27 525.031
2298 0 61.1598 14.4866 886 64.3059 648.224 524.36
2299 0 61.1213 13.7432 840 65.2798 648.748 524.919
2300 0 62.1347 12.2315 760 66.5947 648.324 521.393
2301 0 68.1114 14.9608 1019 62.4406 648.607 521.562
2302 0 69.0906 14.054 971 63.9794 648.211 519.367
2303 0 72.2656 14.2945 1033 63.7115 648.008 516.419
2304 0 72.1276 13.7395 991 64.5631 648.604 519.183
2305 0 76.1208 14.9237 1136 62.8398 648.126 517.857
2306 0 78.0979 13.5983 1062 65.2938 647.982 515.16
2307 0 81.3273 12.6403 1028 66.1206 648.418 516.242
2308 0 82.11 12.8852 1058 67.0293 648.46 510.141
2309 1 46.0149 11.1486 513 66.4561 647.904 532.09
2310 0 43.0449 12.6844 546 66.2015 648.112 531.18
2311 0 47.0416 12.4146 584 66.1558 648.228 531.894
2312 0 50.0879 12.6378 633 66.0158 648.292 530.033
2313 0 49.0899 13.1799 647 66.915 647.553 525.405
2314 0 50.0801 12.9992 651 67.043 648.335 527.088
2315 0 53.175 12.5247 666 67.3453 648.066 526.625
2316 0 56.2202 12.8957 725 66.88 647.921 525.862
2317 0 55.2216 11.8794 656 68.6951 647.674 524.585
2318 0 60.0638 13.0195 782 67.0179 647.926 523.795
2319 0 60.0869 14.013 842 66.0879 647.891 522.795
2320 0 65.1772 14.9285 973 64.9455 648.376 520.665
2321 0 65.4195 11.602 759 68.863 647.66 521.449
2322 0 68.0818 12.7787 870 67.3839 648.407 521.575
2323 0 69.0687 12.8278 886 68.1637 648.367 518.342
2324 0 72.0994 14.6464 1056 65.7557 648.92 516.024
2325 0 74.1226 14.0713 1043 67.0585 648.552 514.459
2326 0 77.1429 14.9463 1153 65.797 648.46 513.943
2327 0 82.0508 14.2838 1172 65.7807 647.815 516.666
2328 0 84.188 15.4297 1299 65.4326 648.318 512.911
2329 0 84.104 12.972 1091 68.9047 648.305 510.443
2330 1 42.1466 11.1278 469 69.5139 648.316 533.755
2331 0 42.1958 11.731 495 69.9697 648.283 533.111
2332 0 47.1146 12.8622 606 67.6287 648.272 532.031
2333 0 48.1505 12.8555 619 67.8514 648.094 533.061
2334 0 48.3385 11.5436 558 69.8817 648.527 531.561
2335 0 49.3817 14.074 695 68.0849 648.676 528.469
2336 0 53.2822 15.4085 821 65.1316 648.725 529.721
2337 0 54.1787 12.9756 703 68.5007 648.75 530.723
2338 0 57.2042 14.02 802 66.7095 648.596 529.355
2339 0 58.1689 13.0138 757 68.819 648.992 528.234
2340 0 59.1907 12.6709 750 69.16 649.039 527.263
2341 0 64.0953 13.8388 887 67.5006 648.56 524.198
2342 0 63.413 13.4988 856 68.3178 648.326 524.282
2343 0 66.2418 14.115 935 67.6695 648.155 519.788
2344 0 68.0946 13.6428 929 68.6114 648.565 522.71
2345 0 71.2307 14.2214 1013 67.6871 648.882 520.218
2346 0 74.0891 13.3893 992 68.1079 648.15 521.39
2347 0 73.2273 12.3451 904 70.6117 648.513 518.22
2348 0 78.3415 12.8029 1003 69.655 648.51 515.52
2349 1 39.279 13.315 523 68.1893 648.371 535.717
2350 0 40.0238 11.8429 474 62.7616 648.215 534.732
2351 0 41.1102 14.9355 614 59.329 648.287 534.441
2352 0 42.0439 12.5345 527 61.9602 648.152 532.099
2353 0 45.025 13.1038 590 60.2424 647.675 533.183
2354 0 47.105 12.5889 593 60.57 648.086 532.354
2355 0 49.2662 13.1936 650 59.6446 648.522 530.543
2356 0 48.0705 13.9379 670 59.8358 648.228 530.31
2357 0 51.0801 14.8394 758 59.1821 648.107 529.677
2358 0 50.0997 14.1718 710 60.2789 648.139 529.707
2359 0 55.0663 13.5473 746 59.7426 647.929 528.93
2360 0 55.1309 13.6765 754 60.5822 648.139 524.615
2361 0 58.2098 14.2588 830 58.8494 648.258 524.98
2362 0 61.1246 15.313 936 57.6432 648.068 526.885
2363 0 62.0865 14.5281 902 58.6486 648.144 524.463
2364 0 64.2316 14.9615 961 57.8637 647.97 524.607
2365 0 66.1433 15.2548 1009 58.1903 647.702 522.453
2366 0 68.1404 15.3653 1047 58.1643 648.079 522.828
2367 0 70.1691 13.7953 968 60.2355 648.057 518.739
2368 0 73.2006 14.3988 1054 59.093 647.765 521.669
2369 0 76.2411 13.3524 1018 60.3536 647.998 515.959
2370 0 76.0757 14.157 1077 59.4578 647.942 516.857
2371 1 38.1109 13.1196 500 60.274 647.948 535.286
2372 0 41.1134 12.1615 500 61.216 647.794 533.89
2373 0 40.1168 11.4665 460 62.5 647.737 532.648
2374 0 44.1738 12.1792 538 60.7881 647.498 532.79
2375 0 45.2581 13.7213 621 59.6377 648.016 531.623
2376 0 44.2162 12.8007 566 60.4753 647.495 533.11
2377 0 47.0586 15.6613 737 57.1655 648.144 533.593
2378 0 47.1368 14.2139 670 59.4433 648.376 531.036
2379 0 50.0424 14.9673 749 58.0587 648.33 531.531
2380 0 52.102 13.4736 702 58.9259 648.41 530.58
2381 0 52.1306 11.9699 624 60.9407 648.272 527.702
2382 0 54.0967 13.0507 706 59.8428 647.582 528.222
2383 0 57.2329 14.2575 816 58.0833 647.901 527.717
2384 0 58.1621 15.4052 896 56.8784 648.219 526.143
2385 0 60.0739 13.4501 808 58.0804 648.256 527.036
2386 0 58.3087 13.0855 763 59.9345 647.523 522.768
2387 0 63.0569 14.1935 895 58.0503 648.55 524.181
2388 0 66.185 15.366 1017 56.3078 648.906 526.398
2389 0 67.1706 14.8577 998 57.1172 649.154 521.362
2390 0 69.2565 14.4391 1000 58.172 648.665 519.706
2391 0 74.0852 14.6858 1088 56.4936 649.777 519.024
2392 0 74.3499 14.2569 1060 57.5047 648.791 521.051
2393 0 78.3688 14.9294 1170 57.4239 649.931 516.013
2394 0 78.3455 14.2574 1117 58.726 650.417 516.448
2395 1 39.0662 11.8005 461 59.2473 649.009 534.605
2396 0 39.3321 12.1783 479 59.4969 649.551 533.62
2397 0 41.208 11.4541 472 61.1716 648.905 532.926
2398 0 43.1398 12.8883 556 58.9209 649.212 533.804
2399 0 43.3265 14.1715 614 58.0228 650.391 533.598
2400 0 43.2954 13.1654 570 60.3842 649.81 530.163
2401 0 46.1694 13.9703 645 58.1178 650.045 533.271
2402 0 45.2363 11.7384 531 61.742 650.298 529.622
2403 0 48.0974 13.9093 669 59.0703 650.151 529.487
2404 0 49.1605 12.1642 598 60.7659 649.895 527.045
2405 0 51.2655 13.1863 676 59.3476 649.72 527.886
2406 0 53.2274 14.1468 753 58.7304 649.659 529.004
2407 0 56.3152 15.3777 866 56.6697 650.023 529.266
2408 0 56.1731 12.8709 723 60.047 650.077 527.715
2409 0 57.2301 12.7905 732 59.9549 649.616 526.29
2410 0 62.2726 15.4161 960 56.9656 649.912 524.758
2411 0 62.1183 12.4601 774 60.2946 650.121 526.242
2412 0 65.1212 13.8972 905 59.5646 650.411 523.284
2413 0 66.1578 13.362 884 60.3235 649.974 522.269
2414 0 68.1963 13.5784 926 60.3218 650.037 521.083
2415 0 69.3276 13.0972 908 62.0804 650.041 517.739
2416 0 75.2813 15.3956 1159 58.6368 650.539 519.145
2417 1 36.3011 11.9556 434 61.3825 650.539 534.843
2418 0 37.2222 11.3642 423 60.227 650.17 537.565
2419 0 36.1765 11.6098 420 62.869 649.833 535.162
2420 0 39.1936 10.4098 408 63.924 650.02 533.777
2421 0 40.1566 12.526 503 62.0219 649.99 532.095
2422 0 42.105 14.5826 614 59.5733 650.064 532.406
2423 0 42.0994 14.727 620 59.8048 650.077 533.269
2424 0 43.0441 12.3594 532 61.782 649.712 531.9
2425 0 46.3325 14.3096 663 59.6305 650.169 530.051
2426 0 47.2482 12.1063 572 61.3776 650.351 530.974
2427 0 49.2251 12.4124 611 61.0426 650.568 530.571
2428 0 53.1849 13.8573 737 59.1805 650.62 528.867
2429 0 53.2776 14.5465 775 58.6619 650.201 528.296
2430 0 52.1208 14.4088 751 59.5886 650.145 526.313
2431 0 55.0939 13.4861 743 60.1575 649.997 527.93
2432 0 56.1305 11.6158 652 62.7255 650.272 524.474
2433 0 60.0603 13.2866 798 60.683 650.04 524.164
2434 0 59.2039 12.212 723 62.2822 649.949 521.527
2435 0 61.4463 13.7681 846 60.7151 649.833 521.703
2436 0 66.1749 14.235 942 59.7983 650.01 522.745
2437 0 66.2514 12.4073 822 62.1946 650.387 519.217
2438 0 67.2645 12.1015 814 63.0688 650.122 518.317
2439 0 72.2467 12.222 883 62.8516 650.176 518.58
2440 0 73.2156 14.3276 1049 60.9819 650.455 516.051
2441 0 76.1606 14.6139 1113 60.619 650.219 514.212
2442 0 78.1202 12.596 984 63.0406 649.91 514.304
2443 0 81.3297 13.2793 1080 61.3268 649.818 516.554
2444 1 44.1202 14.0978 622 61.3682 649.974 530.677
2445 0 46.2281 11.573 535 63.7514 649.875 530.972
2446 0 49.1416 12.4131 610 62.9115 650.088 529.528
2447 0 50.242 14.0122 704 61.2159 649.138 527.776
2448 0 51.3774 12.6904 652 62.5997 648.77 528.578
2449 0 52.0827 13.5746 707 61.9646 649.366 527.86
2450 0 54.5469 13.218 721 62.0929 649.861 527.691
2451 0 57.2179 12.6883 726 62.5096 649.638 525.81
2452 0 59.4523 14.5831 867 60.2814 649.652 523.579
2453 0 62.1355 12.6659 787 61.6442 649.278 524.944
2454 0 63.1721 12.8696 813 61.54 649.967 524.727
2455 0 65.3984 14.4193 943 59.6394 649.645 521.053
2456 0 68.3195 13.554 926 60.7376 649.149 519.618
2457 0 71.3089 15.4259 1100 58.4673 647.971 517.733
2458 0 74.2374 15.1271 1123 58.4239 649.391 517.355
2459 0 76.2803 12.8474 980 61.0367 649.235 515.365
2460 0 77.3705 14.1527 1095 59.9763 648.931 515.485
2461 0 81.2544 14.3131 1163 59.558 649.104 512.576
2462 0 81.2994 12.4355 1011 61.8398 649.156 510.665
2463 0 86.2542 12.6834 1094 61.1106 649.254 509.299
2464 0 90.3003 14.8948 1345 59.0647 649.245 508.124
2465 1 42.1586 15.0384 634 58.9227 649.102 532.17
2466 0 43.3741 11.8273 513 62.6335 649.396 532.041
2467 0 43.0878 12.9039 556 61.8561 649.89 529.718
2468 0 44.2374 12.5686 556 62.1529 649.255 530.669
2469 0 47.2072 13.9597 659 60.3172 649.719 529.929
2470 0 47.4389 14.1656 672 60.0893 649.254 529.746
2471 0 49.2332 13.0603 643 61.0435 649.386 529.333
2472 0 53.3052 14.2012 757 58.5073 649.585 528.914
2473 0 53.102 12.8244 681 60.9574 649.295 527.267
2474 0 58.1792 14.0256 816 58.6973 649.044 526.977
2475 0 56.2059 15.2475 857 57.9323 649.635 525.893
2476 0 58.1953 14.606 850 58.7047 649.574 523.275
2477 0 60.2277 14.1961 855 59.2117 649.301 520.853
2478 0 61.0846 13.1293 802 61.1359 649.481 522.958
2479 0 64.1236 14.6124 937 59.317 650.054 520.231
2480 0 66.1817 14.7322 975 59.6523 649.757 518.227
2481 0 71.1038 12.7279 905 60.7238 650.439 519.902
2482 0 73.291 13.0439 956 60.3766 649.934 518.85
2483 0 75.4091 14.5606 1098 58.7814 650.086 516.458
2484 0 80.1403 12.9772 1040 60.1317 649.783 517.865
2485 0 80.1814 14.754 1183 59.197 649.974 514.085
2486 0 82.3833 14.3719 1184 59.2888 649.555 514.83
2487 0 86.4947 15.2148 1316 58.2325 649.138 511.148
2488 0 89.2731 14.4276 1288 59.2321 650.129 509.783
2489 0 92.2271 15.7654 1454 58.0007 648.935 508.703
2490 1 44.3021 12.8436 569 61.9578 649.733 528.708
2491 0 49.2724 13.5979 670 60.2104 649.745 529.193
2492 0 50.3312 13.8483 697 60.6471 649.374 529.036
2493 0 51.1878 14.3393 734 60.5477 648.916 528.62
2494 0 51.1196 15.1214 773 60.1358 650.085 526.417
2495 0 51.1868 12.933 662 62.2553 649.71 529.737
2496 0 54.3536 12.5659 683 62.3836 649.991 529.243
2497 0 55.2138 13.4205 741 62.0027 649.209 523.949
2498 0 55.1366 13.7477 758 62.4842 649.735 523.563
2499 0 59.2174 13.8135 818 61.7641 649.754 522.648
2500 0 60.3052 14.9241 900 60.7122 649.322 521.878
2501 0 63.1629 14.518 917 60.7088 649.539 520.196
2502 0 65.1602 14.2879 931 61.4468 649.386 519.12
2503 0 68.189 13.8879 947 61.3337 649.22 519.976
2504 0 69.2893 15.3415 1063 60.5437 649.535 516.761
2505 0 73.1032 16.7708 1226 58.3703 649.1 515.188
2506 0 75.151 16.4203 1234 59.248 649.49 515.648
2507 0 76.2111 15.2602 1163 61.037 649.43 512.911
2508 0 77.3847 15.1839 1175 62.023 648.545 511.561
2509 0 80.3587 15.7419 1265 61.0261 648.811 512.176
2510 0 84.4731 14.9633 1264 61.1258 649.343 512.7
2511 0 86.2459 15.363 1325 61.2506 649.175 510.319
2512 0 88.3126 15.0262 1327 61.8086 648.986 507.911
2513 0 93.45 16.4794 1540 59.6188 649.142 507.172
2514 0 96.3198 14.8671 1432 61.6208 649.56 506.425
2515 0 97.2168 15.7072 1527 60.7577 648.35 504.288
2516 0 98.3974 15.2748 1503 62.1637 648.743 499.644
2517 0 103.137 15.2419 1572 61.6132 649.768 496.94
2518 1 52.0603 12.7544 664 63.4292 649.342 526.343
2519 0 55.1354 15.0901 832 61.8353 649.432 523.846
2520 0 55.0831 14.1423 779 63.4467 649.712 521.146
2521 0 58.2659 12.5116 729 64.8148 650.14 520.484
2522 0 58.1788 15.5555 905 61.6884 650.56 520.915
2523 0 62.119 15.0839 937 62.143 649.69 518.359
2524 0 65.226 16.7878 1095 60.1361 649.636 519.9
2525 0 65.1348 15.0457 980 62.8745 649.665 517.414
2526 0 67.0935 14.8002 993 63.1631 650.121 517.242
2527 0 69.2168 13.7683 953 64.8562 649.621 516.64
2528 0 71.2114 14.7167 1048 64.23 650.141 515.01
2529 0 75.1686 14.5007 1090 64.0073 650.364 514.937
2530 0 75.0928 13.8628 1041 65.2392 650.444 513.498
2531 0 81.4209 15.5365 1265 62.083 650.212 512.114
2532 0 82.1344 16.6556 1368 61.2909 650.455 511.545
2533 0 85.3279 13.9228 1188 64.9091 650.407 509.528
2534 0 84.329 12.7358 1074 66.9898 650.191 507.682
2535 0 92.3538 14.6935 1357 63.2638 650.772 509.696
2536 0 91.2002 14.7587 1346 64.708 651.027 502.376
2537 1 45.0409 13.3212 600 64.69 650.537 527.727
2538 0 44.1137 13.6919 604 63.5695 650.452 530.22
2539 0 46.409 14.1998 659 64.4067 650.202 526.672
2540 0 49.2372 13.5873 669 64.577 650.432 527.637
2541 0 53.1767 13.709 729 64.4774 650.527 525.435
2542 0 52.3379 15.3235 802 63.5561 650.218 524.794
2543 0 52.121 14.4663 754 64.7149 650.008 524.805
2544 0 54.1131 13.3424 722 66.6537 650.183 521.676
2545 0 59.1247 14.6808 868 64.0288 650.12 522.211
2546 0 60.2923 15.2922 922 64.128 650.958 520.488
2547 0 62.1043 14.7333 915 64.9738 650.684 520.207
2548 0 62.1439 14.6595 911 65.9363 649.528 518.645
2549 0 65.0767 14.4291 939 65.7561 650.641 518.784
2550 0 64.177 13.9614 896 68.0078 649.418 514.911
2551 0 68.0717 13.6768 931 67.7121 650.146 514.295
2552 0 71.1395 16.0389 1141 65.2533 649.693 511.904
2553 0 76.0787 15.9572 1214 64.6936 649.769 511.697
2554 0 76.2494 13.9804 1066 67.9381 650.35 508.335
2555 0 77.0742 15.0504 1160 67.5638 649.891 506.726
2556 0 82.1526 14.7774 1214 66.8789 650.232 505.521
2557 0 84.2928 14.2361 1200 68.1842 649.998 504.619
2558 0 87.1925 14.8293 1293 67.4354 650.094 503.933
2559 0 89.1126 13.7018 1221 68.8468 650.224 503.99
2560 0 93.1709 15.1979 1416 67.1292 649.994 503.09
2561 0 96.2169 14.6856 1413 67.8606 649.333 501.758
2562 1 45.1085 12.6362 570 68.7912 649.035 524.791
2563 0 48.2277 14.2242 686 66.9738 649.767 523.624
2564 0 47.0431 11.33 533 71.06 649.859 523.214
2565 0 51.0633 12.9055 659 68.5964 649.302 522.537
2566 0 53.0662 14.2463 756 67.4511 648.926 521.659
2567 0 52.1748 13.0523 681 69.9545 649.348 519.082
2568 0 55.082 15.0684 830 67.2578 649.888 520.233
2569 0 58.0606 14.6054 848 67.441 649.38 522.209
2570 0 59.1032 13.4341 794 68.9181 649.557 520.181
2571 0 65.084 13.9358 907 67.8346 649.863 517.181
2572 0 64.0594 14.7675 946 67.4482 649.5 515.43
2573 0 67.2582 13.9611 939 68.279 648.82 515.58
2574 0 65.0756 12.3395 803 71.8506 649.196 512.925
2575 0 71.3302 13.3043 949 69.4036 649.138 513.095
2576 0 72.0842 14.0808 1015 68.9034 649.271 510.85
2577 0 76.1441 13.2381 1008 69.8552 649.264 510.53
2578 0 79.089 14.3636 1136 68.5572 648.829 510.296
2579 0 80.2672 14.1777 1138 68.2715 648.575 508.874
2580 0 83.3066 14.0205 1168 68.5428 649.419 507.145
2581 0 88.4354 13.5014 1194 69.5126 649.533 504.963
2582 0 89.1906 14.0822 1256 68.5422 648.978 507.228
2583 0 91.1347 14.4511 1317 68.7699 649.32 505.283
2584 0 96.2348 13.6853 1317 69.0516 649.283 502.763
2585 1 51.2357 11.5349 591 70.1574 649.33 523.482
2586 0 50.1308 13.784 691 67.919 649.369 522.308
2587 0 52.1683 14.5491 759 68.1304 649.095 521.274
2588 0 54.2808 14.3329 778 68.7288 649.605 520.207
2589 0 55.2343 14.0311 775 68.9987 648.881 520.603
2590 0 59.0996 13.2827 785 69.2382 649.144 520.246
2591 0 61.215 13.6241 834 68.9436 648.888 518.186
2592 0 64.3464 15.028 967 66.7322 648.752 517.366
2593 0 64.1616 12.9517 831 70.7581 649.348 516.272
2594 0 65.1206 14.0969 918 69.8845 649.007 514.293
2595 0 67.1626 13.5492 910 70.8648 647.909 511.697
2596 0 71.166 14.0376 999 69.5175 649.129 515.154
2597 0 74.1394 13.9602 1035 69.3362 650.651 514.002
2598 0 74.2162 14.067 1044 69.8008 650.581 511.92
2599 0 76.0941 14.0878 1072 70.2024 649.346 510.81
2600 0 78.3223 13.5594 1062 71.6714 650.327 510.426
2601 0 78.3824 12.4518 976 74.043 649.291 508.714
2602 0 81.0598 13.4715 1092 72.0339 649.384 507.864
2603 0 86.1391 13.0254 1122 71.2888 649.622 507.201
2604 0 88.0767 14.2035 1251 70.1207 649.317 505.737
2605 0 91.423 15.2697 1396 68.3761 649.444 503.296
2606 0 97.1725 14.5514 1414 68.0919 648.841 503.163
2607 0 100.327 14.0441 1409 68.8353 649.262 501.996
2608 1 51.1729 11.5686 592 70.603 649.23 524.618
2609 0 50.2345 11.088 557 72.9013 649.312 522.63
2610 0 54.1269 12.5076 677 70.6839 649.171 522.388
2611 0 54.0971 12.1448 657 71.8904 649.457 521.196
2612 0 55.286 13.3307 737 70.7761 649.328 518.834
2613 0 57.2092 15.2248 871 68.4615 648.48 520.652
2614 0 56.2898 11.956 673 74.3848 648.642 517.207
2615 0 62.2119 13.7273 854 70.4461 648.7 518.369
2616 0 62.037 13.2824 824 71.6626 648.57 518.356
2617 0 63.179 13.2956 840 72.625 648.942 517.29
2618 0 65.1842 14.2826 931 71.1933 649.247 517.77
2619 0 71.2436 14.7662 1052 69.9477 649.716 512.862
2620 0 70.1208 12.9063 905 74.0265 649.533 512.055
2621 0 75.1621 14.1295 1062 71.8098 649.38 511.487
2622 0 77.2505 12.6989 981 72.948 649.451 511.767
2623 0 79.0797 13.7203 1085 71.9465 650.128 508.818
2624 0 79.1565 12.709 1006 73.9463 650.178 505.969
2625 0 83.187 13.2833 1105 73.3538 649.84 505.04
2626 0 85.0822 12.9639 1103 73.7616 649.254 504.806
2627 0 90.1636 14.2075 1281 70.9914 648.691 506.994
2628 0 91.2868 13.1782 1203 72.9742 648.002 502.643
2629 0 92.0758 12.3811 1140 74.8114 647.99 501.449
2630 1 45.1919 11.9933 542 74.0203 647.613 526.725
2631 0 48.0754 11.4404 550 73.4964 648.584 527.151
2632 0 48.0732 14.0203 674 72.3353 649.681 524.153
2633 0 49.0338 11.6246 570 75.2965 649.523 521.895
2634 0 51.0286 13.953 712 72.2514 649.47 522.229
2635 0 52.0763 12.8657 670 73.5209 649.324 522.6
2636 0 55.0702 14.2364 784 71.2245 649.738 522.188
2637 0 57.1589 13.0513 746 72.9584 649.193 521.799
2638 0 60.1824 12.3957 746 73.3432 649.773 521.775
2639 0 59.0543 13.5638 801 72.7366 649.357 519.092
2640 0 63.376 13.412 850 71.4553 649.395 517.452
2641 0 66.4738 12.802 851 72.215 650.109 516.82
2642 0 67.2854 13.5096 909 71.7976 650.043 515.98
2643 0 71.271 14.3677 1024 69.6592 649.816 514.568
2644 0 74.1775 13.4407 997 70.7041 649.65 512.911
2645 0 74.2881 13.2457 984 71.5711 649.912 511.475
2646 0 75.1848 13.6065 1023 71.5787 650.197 511.949
2647 0 80.2239 14.9831 1202 68.723 650.116 513.246
2648 0 83.3997 13.2495 1105 71.1376 649.823 512.58
2649 0 85.2955 15.4522 1318 67.626 649.791 510.172
2650 0 88.3321 13.653 1206 70.3358 650.163 509.264
2651 0 88.2688 14.3086 1263 69.8844 650.155 507.527
2652 0 93.2344 14.7585 1376 68.9557 649.828 505.374
2653 0 97.2578 14.4461 1405 68.9872 649.986 504.688
2654 0 101.352 14.0205 1421 69.007 650.911 504.063
2655 1 52.7111 13.0333 687 67.8035 650.294 529.073
2656 0 52.472 11.9873 629 69.9237 650.463 528.102
2657 0 54.6228 11.497 628 71.2166 650.256 526.011
2658 0 58.561 15.0954 884 66.0057 650.647 526.893
2659 0 58.2123 13.5023 786 68.8422 650.369 524.805
2660 0 59.0609 13.393 791 69.1631 650.369 524.343
2661 0 61.2214 13.9494 854 68.329 650.105 523.111
2662 0 60.1633 13.0644 786 70.4886 649.982 520.835
2663 0 64.1017 14.6174 937 68.2721 650.123 520.765
2664 0 67.2533 14.4826 974 68.0339 649.596 518.624
2665 0 70.4662 14.6453 1032 67.4952 649.686 518.102
2666 0 72.2102 14.8179 1070 67.4748 649.873 517.504
2667 0 76.3299 15.3544 1172 65.977 649.666 518.022
2668 0 77.3581 14.4652 1119 67.462 649.147 516.523
2669 0 79.3721 13.7328 1090 67.5184 649.028 514.535
2670 0 83.2962 14.0583 1171 67.1529 649.313 515.623
2671 0 86.319 15.5006 1338 65.7496 648.627 514.646
2672 0 87.3578 12.8781 1125 69.6409 648.645 511.82
2673 0 89.2271 13.4712 1202 69.6672 648.427 509.423
2674 0 95.2516 14.194 1352 67.4401 649.217 508.905
2675 0 96.1816 14.0463 1351 67.9948 649.178 507.508
2676 0 100.18 12.228 1225 69.8906 648.817 508.054
2677 1 47.1581 14.5468 686 66.1093 648.828 532.631
2678 0 49.2764 14.0432 692 67.909 648.948 529.718
2679 0 49.1332 12.7205 625 70.1136 648.648 529.23
2680 0 52.176 12.6878 662 69.781 648.86 527.992
2681 0 54.265 14.208 771 66.3554 648.857 528.739
2682 0 56.4026 13.3327 752 67.5891 649.08 526.58
2683 0 54.0689 13.6492 738 67.2602 649.36 525.587
2684 0 59.1474 14.0158 829 66.7431 649.049 523.056
2685 0 62.2382 13.6733 851 66.5264 649.281 525.544
2686 0 64.2399 14.5548 935 65.2856 648.924 524.56
2687 0 65.295 12.344 806 67.9938 649.058 523.489
2688 0 67.4008 13.3085 897 66.7503 649.313 521.794
2689 0 70.1021 15.5915 1093 63.9222 648.87 517.791
2690 0 74.2564 14.625 1086 63.8702 649.405 519.805
2691 0 73.1449 14.5465 1064 65.2697 649.114 513.867
2692 0 75.2201 14.5041 1091 64.8918 648.996 516.475
2693 0 78.2919 13.6668 1070 65.6822 649.023 513.361
2694 0 81.3265 13.6118 1107 65.9431 649.662 513.21
2695 0 84.1772 13.5904 1144 65.3322 649.147 512.767
2696 0 83.2941 13.2302 1102 66.5308 649.718 509.002
2697 0 88.4057 14.7163 1301 63.897 649.677 510.005
2698 0 89.1489 15.0422 1341 63.6778 649.811 507.421
2699 0 91.3607 14.3059 1307 64.2089 649.9 507.381
2700 0 94.1084 13.1444 1237 65.5457 649.521 506.699
2701 0 98.3335 13.5254 1330 64.9925 649.412 504.515
2702 0 101.147 14.4344 1460 64.4363 649.543 501.964
2703 0 106.258 13.4579 1430 64.9643 650.107 501.701
2704 0 106.177 13.242 1406 65.5526 650.652 497.667
2705 1 55.4292 13.6571 757 63.5548 649.75 526.272
2706 0 56.1395 14.2146 798 63.9436 650.226 527.142
2707 0 58.1107 14.3175 832 63.8101 649.88 523.965
2708 0 60.2781 13.0893 789 65.9708 650.539 521.193
2709 0 62.2288 14.2699 888 64.295 650.002 521.911
2710 0 65.2324 13.6435 890 64.827 649.821 521.343
2711 0 69.1255 14.1337 977 63.433 650.232 519.562
2712 0 69.166 12.0724 835 65.7868 650.52 521.228
2713 0 72.1923 14.2813 1031 63.5606 650.173 518.385
2714 0 71.1497 14.6452 1042 63.8484 650.752 515.965
2715 0 74.1268 13.2611 983 65.0936 650.335 517.545
2716 0 73.0524 13.0181 951 66.3586 649.988 514.812
2717 0 80.1229 14.0908 1129 64.4438 650.215 514.723
2718 0 83.1361 12.5818 1046 66.0507 650.139 512.099
2719 0 83.2691 13.5224 1126 65.3393 649.438 512.608
2720 0 86.1049 12.3686 1065 66.5024 650.333 510.63
2721 0 92.5097 13.9553 1291 64.2355 649.914 509.02
2722 1 41.0628 13.8325 568 64.9859 649.628 531.255
2723 0 40.0571 14.5792 584 64.3716 650.122 530.901
2724 0 43.056 13.1921 568 65.9683 650.349 529.188
2725 0 48.0783 13.894 668 63.6587 649.888 530.344
2726 0 48.1118 12.5125 602 65.5282 649.688 530.258
2727 0 47.031 13.0977 616 66.6932 650.245 527.607
2728 0 50.2885 13.0447 656 65.7393 650.242 526.325
2729 0 53.1017 14.5381 772 63.592 650.425 526.646
2730 0 53.1801 14.1218 751 64.5606 650.304 525.439
2731 0 55.1189 15.5301 856 63.118 649.817 523.589
2732 0 58.0726 13.6725 794 65.1977 650.097 521.475
2733 0 58.1774 13.476 784 65.7793 649.911 523.621
2734 0 63.0414 15.704 990 62.1636 650.783 524.533
2735 0 61.0464 14.1532 864 64.9815 650.56 522.551
2736 0 66.3573 14.5726 967 64.1148 650.579 519.546
2737 0 66.1273 14.3057 946 64.9894 650.403 520.717
2738 0 67.0734 13.2392 888 67.2455 650.158 517.843
2739 0 71.1132 15.7636 1121 63.4996 650.525 517.518
2740 0 72.11 13.7152 989 66.3883 649.857 515.871
2741 0 75.2638 13.9376 1049 66.3031 651.021 514.581
2742 0 77.1449 14.7644 1139 65.3292 651.104 515.188
2743 0 79.0604 13.9767 1105 66.7593 650.732 510.196
2744 0 84.0619 16.0715 1351 63.9245 650.933 508.175
2745 0 85.066 15.2 1293 65.6326 651.105 508.422
2746 0 87.1264 14.9094 1299 65.4973 650.975 509.886
2747 0 88.0331 12.1886 1073 69.8947 651.313 509.029
2748 1 42.0355 13.3221 560 67.2125 651.143 531.129
2749 0 43.0322 11.3171 487 69.5585 651.296 530.869
2750 0 45.0322 11.9248 537 68.797 651.274 529.289
2751 0 47.0667 13.3428 628 67.5064 650.997 527.026
2752 0 48.1325 13.3797 644 67.5202 651.085 526.21
2753 0 47.0594 14.6836 691 66.6411 651.013 525.485
2754 0 50.0737 14.0393 703 66.7696 650.531 525.407
2755 0 52.088 14.6867 765 66.2471 651.169 525.258
2756 0 53.0594 14.3236 760 66.5974 651.208 525.3
2757 0 56.0686 12.8592 721 68.4688 651.702 524.008
2758 0 56.2317 13.9423 784 67.4209 651.477 523.728
2759 0 57.0474 13.0593 745 69 651.201 522.346
2760 0 60.2807 14.1173 851 67.0611 651.572 522.904
2761 0 61.1362 14.5904 892 67.2007 651.873 521.373
2762 0 62.1708 15.8917 988 65.4383 651.553 519.611
2763 0 64.0638 15.8124 1013 66.304 651.665 520.562
2764 0 63.04 12.6428 797 70.4868 651.432 518.738
2765 0 66.1646 13.935 922 68.5108 651.213 521.582
2766 0 70.1528 14.668 1029 68.3955 651.365 517.152
2767 0 69.0859 13.5773 938 70.6844 651.118 516.773
2768 0 72.1055 13.6189 982 70.8717 651.505 514.307
2769 0 70.0796 13.7415 963 72.4143 651.947 513.238
2770 0 76.0989 15.1119 1150 69.1791 651.761 515.503
2771 0 77.1484 14.8286 1144 70.347 651.748 513.41
2772 0 82.2748 14.8648 1223 69.7073 651.729 512.82
2773 0 82.1989 16.4844 1355 67.4768 651.937 510.773
2774 0 82.2291 13.6813 1125 71.9022 651.676 511.436
2775 0 86.2153 14.5218 1252 70.9177 651.503 507.577
2776 0 87.2672 16.4323 1434 68.6485 651.227 506.725
2777 0 92.1955 16.0095 1476 68.7676 651.24 505.877
2778 0 92.0352 15.9178 1465 69.1481 651.456 506.677
2779 0 95.2565 15.3375 1461 69.4921 650.575 505.58
2780 0 100.265 15.2496 1529 69.5605 650.196 500.325
2781 0 100.221 14.0888 1412 72.245 650.63 501.348
2782 0 102.069 13.9318 1422 72.4423 651.034 502.574
2783 0 108.128 14.9267 1614 70.8544 651.219 499.684
2784 0 111.177 14.0227 1559 72.2726 651.312 497.8
2785 1 58.1614 12.2418 712 72.8244 650.978 523.237
2786 0 61.2332 12.3299 755 72.8424 651.132 523.374
2787 0 62.0479 14.0537 872 71.328 651.174 522.48
2788 0 64.1152 13.7253 880 71.6545 651.202 521.149
2789 0 64.0662 13.8763 889 72.0866 651.656 519.934
2790 0 67.1086 14.3201 961 71.2414 651.626 520.588
2791 0 69.2118 13.9861 968 71.4112 650.741 521.083
2792 0 70.4911 14.3564 1012 71.7431 651.151 518.126
2793 0 73.3124 13.9267 1021 71.6533 651.815 517.651
2794 0 74.2102 13.3135 988 73.1822 651.75 516.79
2795 0 75.2033 13.7893 1037 73.6943 650.762 512.934
2796 0 78.0692 15.2813 1193 70.627 650.008 513.33
2797 0 82.1212 13.9915 1149 71.9008 651.343 512.942
2798 0 83.1749 13.2372 1101 73.0354 650.518 510.845
2799 0 87.1154 15.0834 1314 69.9361 652.046 512.53
2800 1 40.0338 12.4145 497 72.0785 651.895 532.06
2801 0 40.0388 13.7117 549 71.8233 651.448 532.344
2802 0 45.0477 14.6067 658 69.4924 651.275 530.147
2803 0 42.1464 13.1684 555 72.2757 651.524 530.744
2804 0 46.091 12.9309 596 71.8406 651.272 529.406
2805 0 46.0607 13.6993 631 71.4517 651.296 526.178
2806 0 49.0475 14.1495 694 69.9452 651.205 527.906
2807 0 49.0761 12.6946 623 71.5008 651.673 528.152
2808 0 53.1019 14.6699 779 68.9332 650.679 525.04
2809 0 52.1516 12.943 675 72.0489 651.402 524.702
2810 0 55.052 12.7153 700 71.0371 650.71 525.624
2811 0 58.1411 13.8456 805 69.3404 650.8 524.779
2812 0 59.3878 13.9254 827 69.283 651.416 524.863
2813 0 60.1107 13.3088 800 70.2088 651.279 522.775
2814 0 63.2192 14.6949 929 68.7675 651.223 521.257
2815 0 64.3259 13.556 872 70.0952 651.469 521.423
2816 0 66.2141 13.4715 892 70.6715 650.765 518.556
2817 0 71.1346 14.7748 1051 66.6879 650.589 521.439
2818 0 71.098 14.3323 1019 68.1943 651.054 520.695
2819 0 73.2098 15.0253 1100 68.0136 650.967 517.283
2820 0 75.2505 13.7939 1038 69.4451 650.544 515.987
2821 0 77.1681 16.2502 1254 65.811 650.69 515.73
2822 0 79.1328 13.8122 1093 69.2178 651.574 514.483
2823 0 85.2711 14.7999 1262 67.5333 651.291 510.944
2824 0 86.0476 14.8522 1278 67.6299 651.269 511.261
2825 0 88.0744 14.8284 1306 68.1669 651.37 507.786
2826 0 91.1825 14.9371 1362 67.8106 651.592 506.371
2827 1 44.1553 14.1546 625 66.8816 651.205 532.357
2828 0 47.1328 15.7428 742 64.8787 651.512 530.635
2829 0 46.2193 12.9816 600 68.865 651.198 529.162
2830 0 48.1467 12.3165 593 68.9966 650.526 528.69
2831 0 49.0239 13.4424 659 68.4127 650.592 527.736
2832 0 51.0286 13.9138 710 68.2127 650.899 526.473
2833 0 51.1064 13.5013 690 68.0783 651.178 528.017
2834 0 57.1444 14.4371 825 65.7358 650.903 527.522
2835 0 56.0962 14.3682 806 67.2916 651.517 523.433
2836 0 57.0413 15.182 866 66.7818 651.536 523.288
2837 0 60.194 14.6194 880 66.3727 651.768 524.661
2838 0 61.031 13.3211 813 67.9459 651.694 522.631
2839 0 63.0438 15.0213 947 66.5892 651.449 520.505
2840 0 64.0458 13.1468 842 68.924 651.931 520.514
2841 0 64.2128 13.3618 858 69.0303 651.704 520.073
2842 0 67.0858 14.6529 983 67.6602 651.539 518.344
2843 0 69.1086 14.8607 1027 67.1139 650.843 518.391
2844 0 71.0673 14.6762 1043 66.8821 652.015 517.128
2845 0 72.0862 13.8168 996 68.6295 651.962 517.538
2846 0 75.0757 15.2779 1147 66.4673 651.405 513.335
2847 0 79.1225 13.5865 1075 68.1907 652.13 512.67
2848 1 37.0793 15.75 584 66.2997 652.69 533.158
2849 0 37.078 12.2984 456 69.6513 652.406 533.219
2850 0 37.0585 13.2224 490 70.4429 652.12 531.735
2851 0 37.0627 13.1939 489 70.0757 652.258 532.456
2852 0 38.0402 12.5131 476 72.0336 652.25 530.168
2853 0 39.2863 13.058 513 71.1111 652.328 530.179
2854 0 42.0557 15.955 671 67.3651 652.282 527.401
2855 0 40.0548 14.6799 588 69.3503 652.048 527.685
2856 0 46.0897 15.318 706 67.0241 652.608 528.095
2857 0 46.1056 15.985 737 66.5224 652.855 527.573
2858 0 46.1428 14.7369 680 68.1985 652.296 528.074
2859 0 47.2524 13.248 626 70.6661 653.254 528.196
2860 0 49.0641 14.2874 701 68.8474 651.796 526.13
2861 0 50.1118 16.6827 836 65.6794 651.952 526.429
2862 0 51.1239 16.4698 842 66.1342 652.012 525.333
2863 0 52.3271 14.1036 738 69.2249 652.1 524.764
2864 0 51.0494 12.9091 659 71.9439 651.819 521.924
2865 0 56.107 15.4883 869 67.0713 651.555 522.417
2866 0 59.207 15.6231 925 66.4757 652.12 523.022
2867 0 60.1383 16.8611 1014 65.6085 651.953 521.348
2868 0 61.0686 15.3106 935 68.1326 652.117 519.711
2869 0 64.4164 14.9651 964 67.7002 651.691 522.015
2870 0 65.3083 15.2814 998 67.7625 651.53 519.428
2871 0 66.2741 15.9338 1056 67.3731 651.64 517.697
2872 0 67.0581 16.1651 1084 67.2509 651.301 516.803
2873 0 68.1324 15.5433 1059 67.9783 651.84 518.838
2874 0 70.0904 15.2517 1069 68.6108 651.588 516.626
2875 0 75.2324 15.8841 1195 67.3264 651.409 513.559
2876 0 74.1359 14.8241 1099 69.616 651.357 512.552
2877 0 78.1323 16.4721 1287 67.6449 651.116 512.425
2878 0 81.3818 16.1953 1318 67.626 651.84 510.523
2879 0 84.2423 17.6633 1488 65.4758 651.45 513.315
2880 0 85.1327 15.0119 1278 69.4632 651.654 511.478
2881 0 89.188 16.0896 1435 68.1888 652.181 510.072
2882 0 93.1394 16.5451 1541 67.3472 651.621 509.587
2883 0 93.3221 15.6769 1463 69.501 651.569 509.342
2884 0 97.2699 17.6108 1713 67.0198 652.027 505.881
2885 0 100.285 17.7894 1784 66.8772 651.878 504.229
2886 0 101.483 15.3425 1557 70.5845 651.854 500.317
2887 0 106.109 14.9657 1588 71.0819 651.21 500.183
2888 1 56.1202 15.7875 886 68.6512 651.844 528.459
2889 0 54.2086 15.5695 844 70.1232 652.216 528.43
2890 0 58.116 15.1593 881 70.3576 651.32 526.523
2891 0 57.3901 15.595 895 70.6067 652.079 525.972
2892 0 59.333 14.8653 882 72.8708 652.167 520.575
2893 0 62.1413 13.5337 841 74.4614 652.73 522.91
2894 0 64.1236 15.0179 963 72.6075 651.936 520.651
2895 0 66.1558 14.6472 969 72.6708 651.939 520.479
2896 0 65.14 14.0927 918 74.3486 651.754 519.203
2897 0 68.0475 13.9755 951 74.4564 652.714 518.861
2898 0 69.1457 12.7412 881 76.3927 652.598 517.428
2899 0 71.2926 14.7421 1051 73.216 651.89 517.029
2900 0 77.2746 14.5197 1122 72.4305 652.367 515.735
2901 0 78.0989 13.8542 1082 73.5434 651.691 515.103
2902 0 77.1434 15.6721 1209 71.5492 652.222 515.081
2903 0 82.2103 13.7696 1132 74.3154 651.993 512.919
2904 0 84.1217 15.4538 1300 71.3654 651.642 513.502
2905 0 89.4067 15.0884 1349 70.7242 652.149 512.116
2906 0 89.2189 14.6942 1311 72.0374 652.312 511.294
2907 0 94.2091 14.7863 1393 71.3927 652.207 509.11
2908 0 98.3143 15.5216 1526 69.8991 651.863 506.818
2909 0 99.119 13.9327 1381 71.7958 651.56 506.65
2910 1 47.0572 12.4742 587 71.54 651.627 530.216
2911 0 50.0682 13.2619 664 71.4503 651.34 528.417
2912 0 52.0876 11.8838 619 72.6753 651.99 527.916
2913 0 55.2021 16.0139 884 67.2964 652.037 526.56
2914 0 56.1571 13.6581 767 70.8383 651.627 525.708
2915 0 58.3148 13.65 796 70.951 651.928 524.923
2916 0 59.2186 14.4212 854 70.041 651.979 522.704
2917 0 62.1707 14.6693 912 68.2774 652.195 526.526
2918 0 61.0315 14.9595 913 70.299 651.696 522.559
2919 0 64.0597 13.9401 893 70.3908 651.944 524.06
2920 0 64.0335 13.0088 833 72.9172 651.665 521.084
2921 0 67.13 14.8518 997 70.3922 651.895 520.441
2922 0 67.0791 15.6084 1047 69.9312 651.792 518.868
2923 0 70.0629 14.1159 989 71.7968 652.17 518.965
2924 0 71.1849 12.8539 915 73.6273 651.426 518.246
2925 0 73.0608 13.6325 996 72.8082 651.314 517.893
2926 0 76.2002 13.9895 1066 72.0638 651.896 517.04
2927 0 77.2022 14.7276 1137 71.4723 651.362 516.701
2928 0 78.2882 14.8681 1164 71.9296 651.129 514.247
2929 0 82.1025 15.4928 1272 69.9693 651.109 513.056
2930 0 83.1089 14.3306 1191 71.7632 651.053 514.387
2931 0 85.1475 12.86 1095 74.3388 651.336 513.395
2932 0 88.3122 14.211 1255 73.0343 651.402 508.274
2933 1 43.0448 14.3572 618 71.466 650.951 531.741
2934 0 42.1007 13.2539 558 74.0591 651.163 531.143
2935 0 45.0467 14.5627 656 71.593 652.134 531.122
2936 0 48.0733 13.833 665 72.3203 651.614 529.922
2937 0 48.1043 14.5309 699 72.083 651.711 528.393
2938 0 51.1381 14.1968 726 71.9408 651.399 529.051
2939 0 50.0473 13.4673 674 73.7478 651.625 527.469
2940 0 52.0882 15.301 797 70.921 651.248 527
2941 0 53.1525 13.6588 726 73.7245 651.543 526.464
2942 0 54.1392 15.534 841 71.2759 651.75 526.258
2943 0 56.1272 14.7344 827 72.1669 651.03 525.733
2944 0 57.078 15.6453 893 70.925 651.451 523.571
2945 0 58.0795 15.651 909 70.6656 650.686 523.998
2946 0 60.4252 14.3483 867 72.1903 651.291 524.821
2947 0 63.0934 14.6608 925 72.7492 651.528 521.515
2948 0 64.0876 13.8872 890 74.1989 651.492 520.044
2949 0 68.1771 14.741 1005 71.7134 651.486 521.902
2950 0 68.067 13.8099 940 73.3553 651.55 519.872
2951 0 72.2639 14.0873 1018 72.7053 651.557 518.733
2952 0 70.1107 15.4042 1080 72.2852 651.368 515.271
2953 0 74.0901 14.4824 1073 72.5788 651.163 516.896
2954 0 76.0909 16.0597 1222 70.2725 651.511 514.408
2955 0 78.099 14.1103 1102 72.843 651.195 514.351
2956 0 81.1418 13.7414 1115 73.4251 651.221 511.205
2957 0 83.0786 14.5886 1212 72.005 651.722 512.809
2958 0 87.2286 14.0092 1222 72.4214 651.804 510.901
2959 0 88.1582 14.5647 1284 71.7095 651.725 510.46
2960 1 43.1075 12.3181 531 75.9454 651.921 529.787
2961 0 47.0696 13.5119 636 73.5535 652.044 528.261
2962 0 45.0913 14.4596 652 73.0675 651.414 528.557
2963 0 50.1164 13.2691 665 73.3654 651.69 528.165
2964 0 51.1686 14.3057 732 71.6312 652.041 529.273
2965 0 53.1723 14.895 792 71.3447 651.491 525.312
2966 0 54.0631 15.2784 826 70.9903 651.447 525.117
2967 0 55.103 14.1372 779 71.8652 651.137 526.852
2968 0 57.1977 15.1929 869 70.1726 651.362 524.449
2969 0 59.1181 13.6506 807 72.0161 651.61 522.295
2970 0 60.101 13.2277 795 72.0302 651.414 523.535
2971 0 65.3393 15.6108 1020 68.5324 651.798 520.746
2972 0 64.073 13.7343 880 71.6011 651.838 521.928
2973 0 65.0989 15.1923 989 70.3458 652.08 518.042
2974 0 68.2094 16.0682 1096 68.531 652.173 517.491
2975 0 69.073 14.2024 981 71.6799 651.741 516.093
2976 0 70.1968 14.5876 1024 71.4609 651.856 515.43
2977 0 76.0387 15.742 1197 68.5171 651.886 515.906
2978 0 76.2016 16.417 1251 68.4053 651.998 515.97
2979 0 78.1505 14.6896 1148 70.4878 651.496 513.97
2980 0 78.1759 14.7744 1155 70.1697 651.097 513.185
2981 0 82.0881 15.5686 1278 69.3545 651.35 511.188
2982 0 85.085 14.6794 1249 69.53 650.998 512.307
2983 0 88.2254 17.0359 1503 66.2568 651.011 510.836
2984 0 89.193 15.2478 1360 69.6559 650.619 506.636
2985 0 92.1042 14.5162 1337 70.1167 650.951 506.473
2986 0 94.1494 15.1461 1426 69.6178 651.313 505.313
2987 0 98.0868 14.9969 1471 69.1128 651.74 503.432
2988 0 100.156 14.1778 1420 69.993 651.656 503.552
2989 0 104.152 13.9988 1458 70.2689 651.364 501.059
2990 0 106.108 12.8736 1366 71.399 651.425 500.856
2991 0 109.195 14.8633 1623 68.65 650.383 498.986
2992 0 113.089 15.4481 1747 67.2524 651.817 502.914
2993 1 50.0637 15.2606 764 71.0615 651.743 525.694
2994 0 54.1154 13.2125 715 71.9371 651.564 526.352
2995 0 53.1528 15.7283 836 69.6782 651.029 526.145
2996 0 56.5758 14.865 841 70.2711 651.474 526.649
2997 0 58.2801 15.6314 911 69.371 651.608 524.968
2998 0 58.0879 15.7864 917 69.8866 651.591 523.679
2999 0 61.2565 14.2842 875 71.5589 651.525 522.416
3000 0 60.1489 15.977 961 69.641 651.787 523.171
3001 0 61.0796 14.1127 862 72.891 651.712 520.407
3002 0 64.3001 15.4588 994 70.3682 651.552 520.838
3003 0 63.1581 13.585 858 73.4452 651.897 519.795
3004 0 65.0705 14.5227 945 71.9005 650.891 518.224
3005 0 66.3951 16.7633 1113 69.7889 652.034 517.84
3006 0 69.2041 14.2911 989 72.5531 651.678 516.24
3007 0 71.1612 15.4438 1099 71.0801 651.261 516.537
3008 0 70.1058 14.4924 1016 73.4144 651.828 515.189
3009 0 73.2104 14.7383 1079 72.8916 651.794 515.537
3010 0 75.1667 15.0865 1134 72.3201 651.279 513.048
3011 0 79.1329 15.3413 1214 71.014 651.994 513.751
3012 0 78.1954 14.6172 1143 72.9598 651.999 513.149
3013 0 82.0609 16.0856 1320 71.0689 652.202 511.221
3014 0 86.3363 16.7369 1445 69.7813 651.996 512.388
3015 0 86.1566 16.0754 1385 71.9711 651.246 509.614
3016 0 89.5494 16.0247 1435 71.4321 651.751 508.378
3017 0 89.1273 15.1357 1349 74.6071 651.845 504.99
3018 0 93.3156 16.9425 1581 71.6161 651.792 506.624
3019 0 99.1413 15.6847 1555 73.4424 651.568 503.895
3020 0 99.2924 17.0003 1688 72.0136 651.937 501.073
3021 0 102.212 16.7984 1717 72.7507 652.048 503.36
3022 0 104.317 16.2869 1699 74.0689 651.73 501.42
3023 1 54.1902 15.5932 845 75.6237 651.534 524.858
3024 0 55.0878 14.1048 777 78.5096 651.602 524.709
3025 0 58.0775 14.5667 846 77.2163 651.915 524.852
3026 0 58.3088 14.4918 845 77.3941 651.8 522.541
3027 0 58.2781 14.671 855 76.8561 651.632 525.371
3028 0 60.5044 16.1476 977 76.262 651.934 522.347
3029 0 61.104 16.4965 1008 75.8462 651.889 522.348
3030 0 62.4026 15.9609 996 77.0914 651.779 521.636
3031 0 62.3289 15.8995 991 77.4834 652.172 523.358
3032 0 65.3716 15.7714 1031 78.7381 651.857 521.19
3033 0 65.3554 15.607 1020 79.5363 651.578 520.068
3034 0 65.2396 15.4201 1006 81.3449 652.018 520.767
3035 0 69.2522 16.0428 1111 80.1413 651.788 520.127
3036 0 69.1486 14.9099 1031 83.5121 652.01 518.973
3037 0 69.2959 14.8349 1028 85.1946 652.088 518.452
3038 0 71.3631 15.5823 1112 84.0917 651.763 518.279
3039 0 70.1655 16.3328 1146 84.1335 652.11 516.093
3040 0 72.1482 16.9235 1221 84.896 651.905 515.605
3041 0 73.218 16.5533 1212 86.2814 651.595 516.73
3042 0 76.2243 17.2255 1313 85.1752 651.6 515.841
3043 0 76.2985 17.5757 1341 85.6943 652.114 515.034
3044 0 78.3063 16.1545 1265 88.3779 652.564 514.416
3045 0 79.0563 15.7736 1247 90.2574 652.144 513.959
3046 0 80.2156 15.7575 1264 90.9114 651.848 509.145
3047 0 88.0914 22.1134 1948 68.1653 651.826 514.254
3048 0 85.5163 16.874 1443 89.0977 652.152 508.626
3049 0 88.2985 16.9992 1501 87.8341 652.484 510.516
3050 0 90.382 16.4967 1491 88.8893 652.121 505.578
3051 0 90.7521 16.0768 1459 90.255 652.239 507.138
3052 0 92.3428 16.8069 1552 90.3692 652.06 506.383
3053 0 92.1269 16.7812 1546 91.7096 652.406 505.369
3054 0 95.4855 16.5261 1578 91.9772 652.425 505.989
3055 0 96.3542 16.7092 1610 91.5267 651.778 503.372
3056 0 99.1491 17.3678 1722 90.1266 652.362 504.239
3057 0 100.254 16.7873 1683 92.303 652.243 499.425
3058 0 105.348 16.6021 1749 91.5506 651.918 501.915
3059 0 105.541 17.1308 1808 91.4967 652.015 498.284
3060 0 106.36 16.4441 1749 93.8805 652.584 496.021
3061 0 110.477 16.465 1819 92.8791 652.582 499.565
3062 0 115.264 17.7505 2046 90.9242 652.412 494.518
3063 0 115.366 16.1919 1868 95.3298 652.117 492.023
3064 0 120.179 17.5655 2111 92.6722 652.907 490.598
3065 0 123.556 15.7823 1950 96.139 652.532 490.434
3066 0 126.553 16.0723 2034 96.9154 652.301 488.226
3067 0 130.315 18.1177 2361 92.903 652.404 484.692
3068 0 132.252 15.962 2111 98.7745 652.125 482.522
3069 0 136.609 17.0267 2326 96.1741 652.523 485.032
3070 0 139.279 16.8295 2344 97.2705 652.519 481.714
3071 0 144.34 16.7867 2423 97.4049 652.851 479.055
3072 0 150.853 17.5866 2653 94.8176 652.504 478.096
3073 0 149.219 16.9952 2536 98.7476 652.573 475.413
3074 0 155.339 16.9822 2638 97.1763 652.549 475.146
3075 0 159.218 16.4303 2616 94.5054 652.255 473.034
3076 0 153.634 21.6879 3332 89.7122 652.238 470.464
3077 1 73.0497 14.7982 1081 109.415 652.766 513.625
3078 0 78.0446 15.4911 1209 104.256 652.668 512.208
3079 0 78.4754 14.7562 1158 104.457 652.557 514.175
3080 0 81.4773 14.863 1211 104.154 652.347 512.449
3081 0 81.1921 14.2748 1159 106.144 652.664 513.78
3082 0 83.4485 15.231 1271 106.069 652.651 512.38
3083 0 82.341 14.695 1210 108.547 652.464 511.322
3084 0 86.1138 15.9324 1372 105.841 652.346 509.94
3085 0 87.3152 16.1598 1411 104.933 652.566 509.078
3086 0 79.2462 18.7391 1485 107.185 652.646 510.967
3087 0 86.251 16.7882 1448 109.894 652.123 509.034
3088 0 88.204 15.8269 1396 110.503 652.434 509.905
3089 0 91.1841 14.9807 1366 112.497 652.457 507.317
3090 0 91.438 16.1421 1476 109.869 652.548 506.15
3091 0 97.2493 15.8767 1544 109.422 652.824 506.554
3092 0 96.3076 15.5855 1501 108.959 652.312 508.539
3093 0 98.1324 15.2549 1497 110.228 652.094 506.331
3094 0 102.148 16.339 1669 106.997 651.806 504.945
3095 0 105.129 16.551 1740 107.349 652.547 503.744
3096 0 103.275 15.5895 1610 111.058 651.729 501.668
3097 0 111.32 15.3971 1714 109.194 652.642 501.07
3098 0 110.1 15.7856 1738 108.856 652.769 497.266
3099 0 114.294 15.8714 1814 107.234 652.478 497.325
3100 0 115.203 14.9996 1728 110.29 652.039 493.999
3101 0 120.432 16.2665 1959 106.327 652.3 494.498
3102 0 122.278 15.8654 1940 107.466 653.1 492.911
3103 1 54.2784 13.3202 723 108.811 652.242 525.45
3104 0 54.3511 14.5167 789 107.567 652.218 522.735
3105 0 57.084 15.4684 883 103.078 651.933 523.971
3106 0 56.2001 14.7331 828 105.55 652.882 523.411
3107 0 55.0324 14.4824 797 106.403 652.565 522.169
3108 0 55.1276 14.4211 795 106.239 652.346 521.488
3109 0 58.2095 13.6748 796 106.59 652.437 522.143
3110 0 56.1397 15.1408 850 104.145 652.852 521.405
3111 0 58.1027 15.3177 890 103.379 652.63 520.383
3112 0 58.0543 16.6396 966 101.82 652.594 520.526
3113 0 60.1219 16.3335 982 100.163 652.014 519.975
3114 0 60.1912 14.022 844 106.504 652.775 521.135
3115 0 59.3251 16.7889 996 102.468 652.687 519.758
3116 0 60.1805 15.171 913 104.681 652.369 518.277
3117 0 59.0671 14.5597 860 107.571 652.73 518.208
3118 0 63.1802 16.0493 1014 102.423 652.031 518.608
3119 0 61.3185 14.3676 881 106.977 653.159 519.417
3120 0 62.3705 15.3278 956 105.532 652.751 517.59
3121 0 64.198 13.9257 894 108.267 653.162 517.361
3122 0 64.0713 14.8272 950 107.306 652.398 516.478
3123 0 66.0939 13.7834 911 108.293 652.473 516.782
3124 0 66.2143 15.1025 1000 107.011 652.658 516.317
3125 0 66.2485 14.4909 960 106.911 651.888 516.806
3126 0 69.0776 14.433 997 107.431 652.455 515.423
3127 0 68.1536 14.8635 1013 107.707 652.184 515.412
3128 0 69.0703 13.9278 962 108.6 652.066 515.03
3129 0 69.0566 14.4809 1000 109.149 652.822 514.356
3130 0 70.1707 15.4623 1085 107.629 652.79 513.277
3131 0 67.1996 15.1935 1021 109.982 652.799 511.093
3132 0 71.0542 15.2982 1087 107.578 652.602 513.501
3133 0 70.0464 14.9901 1050 109.935 652.237 510.857
3134 0 72.2203 14.4281 1042 111.974 652.523 510.036
3135 0 72.3385 14.211 1028 110.53 651.829 512.583
3136 0 73.1925 13.6899 1002 112.449 652.218 511.259
3137 0 74.1565 13.8221 1025 111.784 651.739 512.443
3138 0 75.376 15.0579 1135 110.017 651.412 509.231
3139 0 74.0735 13.7161 1016 112.884 651.904 510.349
3140 0 79.238 14.7909 1172 109.393 651.817 509.845
3141 0 78.2061 15.6765 1226 108.746 651.355 508.665
3142 0 80.3431 15.2596 1226 108.981 651.351 508.771
3143 0 81.1146 14.4117 1169 109.989 651.342 507.734
3144 0 80.0909 14.7208 1179 108.236 651.008 508.634
3145 0 84.222 14.2956 1204 109.161 651.304 506.833
3146 0 86.2244 16.2251 1399 104.52 651.246 506.024
3147 0 85.2972 14.4319 1231 107.506 650.969 505.505
3148 0 89.11 14.4877 1291 106.516 651.51 506.036
3149 0 92.2763 15.9196 1469 104.027 651.771 504.031
3150 0 94.4197 16.003 1511 103.336 651.824 502.4
3151 0 95.1963 15.6624 1491 102.63 651.351 502.211
3152 0 98.2676 14.5216 1427 103.371 651.528 500.685
3153 0 101.372 14.6885 1489 102.081 651.805 500.778
3154 0 103.262 15.4462 1595 101.602 651.586 499.303
3155 0 105.443 15.2405 1607 102.365 651.554 497.833
3156 0 107.334 15.8849 1705 100.664 651.014 498.104
3157 0 109.452 15.669 1715 101.455 651.221 496.264
3158 0 112.274 15.1771 1704 101.477 651.355 493.432
3159 0 116.252 15.7674 1833 100.95 651.258 491.051
3160 0 120.28 17.0685 2053 97.622 651.46 493.36
3161 0 122.194 16.4329 2008 99.6599 651.415 490.919
3162 0 124.174 15.5508 1931 101.137 650.856 487.848
3163 0 129.258 15.7747 2039 100.306 651.239 488.606
3164 0 128.346 16.1907 2078 100.595 650.92 483.128
3165 0 134.381 16.6244 2234 98.9718 651.231 481.861
3166 0 137.377 15.3737 2112 100.357 650.878 481.625
3167 0 141.232 16.6393 2350 98.0043 651.212 481.245
3168 0 143.544 15.6537 2247 98.8349 651.024 478.544
3169 0 148.224 16.8191 2493 95.8893 651.463 478.357
3170 0 151.219 14.7667 2233 99.103 651.119 475.917
3171 0 157.282 16.6707 2622 95.5889 651.409 474.123
3172 0 162.401 17.2597 2803 93.5922 650.867 473.286
3173 0 164.49 15.3869 2531 95.9945 650.835 474.105
3174 0 166.226 14.2457 2368 98.2458 651.144 467.724
3175 0 174.331 15.3214 2671 94.623 651.583 467.616
3176 0 180.326 16.3759 2953 92.7162 651.561 463.137
3177 0 182.207 15.7787 2875 93.713 651.716 456.303
3178 0 187.525 15.7846 2960 93.1862 651.664 460.543
3179 0 196.559 16.0206 3149 92.328 651.737 456.677
3180 0 200.43 15.4019 3087 93.8478 650.932 453.401
3181 0 208.314 16.9839 3538 90.3293 651.184 449.78
3182 0 212.531 15.7248 3342 92.424 651.431 447.996
3183 0 219.315 16.0774 3526 91.9322 651.334 445.63
3184 0 227.294 16.0761 3654 91.8968 651.661 443.455
3185 0 232.318 17.644 4099 89.6836 651.404 437.634
3186 0 237.506 15.9364 3785 92.2132 651.062 440.843
3187 0 249.458 15.8183 3946 92.4189 651.431 433.8
3188 0 254.484 16.4529 4187 91.1619 651.732 430.284
3189 0 263.662 16.9118 4459 90.5808 651.063 423.396
3190 0 270.386 14.9823 4051 94.3572 651.724 425.871
3191 0 276.582 15.9338 4407 93.3998 651.213 417.974
3192 1 311.479 15.7186 4896 91.7966 651.008 409.668
3193 0 320.426 14.6711 4701 94.271 651.158 404.295
3194 0 330.635 14.8049 4895 93.7798 650.851 398.59
3195 1 244.33 16.5227 4037 91.5185 650.723 435.814
3196 0 253.811 15.6455 3971 94.4372 650.766 427.674
3197 0 259.496 16.1544 4192 94.6143 651.273 424.153
3198 0 266.25 16.5709 4412 93.7303 650.991 423.162
3199 0 272.577 16.5568 4513 94.3415 650.668 415.534
3200 0 278.35 16.3427 4549 94.8318 651.252 419.513
3201 0 288.021 16.0405 4620 96.1638 650.718 411.059
3202 0 295.539 16.4378 4858 94.5224 650.93 414.691
3203 0 302.527 15.83 4789 97.0109 651.189 403.639
3204 0 307.304 17.2142 5290 96.0123 651.72 397.058
3205 0 316.302 16.1365 5104 97.7541 650.461 398.861
3206 0 320.598 16.2197 5200 98.7338 651.304 392.645
3207 0 326.434 17.4155 5685 97.2014 651.571 390.489
3208 1 143.367 15.415 2210 97.1457 650.941 483.275
3209 0 141.226 14.5087 2049 89.8585 651.195 480.607
3210 1 320.726 14.5857 4678 87.7616 650.733 398.558
3211 0 319.897 14.0108 4482 87.9777 651.564 396.648
3212 0 323.299 15.1563 4900 85.0437 651.304 400.099
3213 0 322.654 14.7433 4757 85.5062 651.364 393.255
3214 0 320.443 14.7452 4725 85.4447 651.13 394.748
3215 0 330.497 18.802 6214 77.8865 651.763 378.335
3216 0 327.719 21.0455 6897 74.1515 651.763 394.079
3217 0 333.852 20.9224 6985 73.1274 651.902 392.379
3218 0 333.857 20.401 6811 73.8385 651.535 388.034
3219 0 333.887 20.1535 6729 74.1835 652.367 385.71
3220 0 335.888 19.316 6488 74.689 652.129 382.323
3221 0 332.848 19.7357 6569 74.8226 651.364 386.162
3222 0 330.731 18.1568 6005 76.5885 651.968 384.965
3223 0 330.725 17.631 5831 77.4576 651.89 386.699
3224 0 331.652 19.822 6574 73.9172 652.071 374.733
3225 0 333.031 18.0164 6000 76.2125 651.944 384.966
