time division length width area intensity CMx CMy
0 0 69.0938 15.2981 1057 52.3926 427.134 499.206
1 0 71.0968 19.9728 1420 47.7352 426.522 499.04
2 0 72.078 18.1193 1306 49.6746 427.096 497.995
3 0 75.151 19.4408 1461 48.5168 426.644 497.903
4 1 40.0707 10.6062 425 56.6329 425.868 516.974
5 0 40.0561 10.8598 435 58.0759 425.002 514.425
6 0 40.0133 12.1959 488 56.6209 425.705 516.191
7 0 43.1242 11.7567 507 56.6824 426.028 515.7
8 0 44.0213 12.5848 554 56.0181 425.796 515.518
9 0 45.0204 11.8835 535 57.0206 425.364 515.211
10 0 48.0336 12.1582 584 56.4195 425.373 514.467
11 0 49.1055 12.5037 614 55.6531 424.402 514.311
12 0 50.0552 13.2853 665 55.2556 425.035 513.529
13 0 49.0476 12.8243 629 56.5548 425.242 513.499
14 0 51.025 12.4253 634 57.2934 424.732 512.08
15 0 51.1444 12.7091 650 57.4231 425.272 512.645
16 0 54.1133 12.3814 670 57.791 425.843 511.464
17 0 56.0631 13.8951 779 55.8626 424.9 510.354
18 0 57.0614 13.1613 751 56.7896 425.023 510.297
19 0 57.0353 10.9406 624 59.625 425.067 509.566
20 0 60.0589 13.8864 834 56.1655 424.872 508.723
21 0 62.0637 15.1296 939 54.3962 424.891 508.871
22 0 63.0979 13.4077 846 57.2104 424.754 504.931
23 0 66.1205 14.9575 989 55.1335 424.606 504.058
24 0 70.0311 14.7506 1033 54.9061 424.944 505.202
25 0 70.0473 14.0477 984 55.872 424.474 503.768
26 0 72.1103 12.7721 921 58.0608 425.029 502.735
27 0 75.1526 14.9163 1121 55.8617 424.379 499.281
28 0 77.0572 13.6003 1048 57.5057 424.993 500.088
29 0 81.0671 14.2351 1154 56.9601 426.065 498.25
30 0 83.0649 13.339 1108 58.3366 425.659 497.208
31 0 86.1906 14.4331 1244 56.9767 425.668 496.707
32 0 89.264 14.2835 1275 57.6486 425.58 495.173
33 0 92.1498 13.4021 1235 58.3733 425.315 495.696
34 1 48.0707 15.5396 747 54.5797 424.487 515.818
35 0 50.0701 12.103 606 59.802 425.249 513.525
36 0 52.0653 12.1386 632 60.1456 425.889 511.967
37 0 52.0721 11.1384 580 62.2828 425.434 510.595
38 0 56.0588 11.2917 633 61.1106 425.613 512.551
39 0 57.1005 12.0314 687 60.2999 425.865 512.543
40 0 59.0479 12.3967 732 60.7158 426.623 510.507
41 0 60.0742 16.0135 962 55.8181 425.874 512.069
42 0 61.1458 12.7237 778 60.5 425.356 509.301
43 0 61.0869 11.7374 717 61.8968 425.873 507.792
44 0 64.1475 11.4268 733 62.7258 425.698 505.697
45 0 65.1213 11.8548 772 61.8808 426.014 506.725
46 0 71.0698 12.7621 907 60.6428 425.9 506
47 0 70.2322 13.0567 917 61.2737 425.835 503.707
48 0 70.1553 12.7717 896 61.7433 425.708 503.742
49 0 77.1266 13.2509 1022 60.227 426.308 504.015
50 0 78.213 14.55 1138 59.7566 425.949 501.568
51 0 80.141 13.5886 1089 61.0918 426.075 501.161
52 0 82.1313 14.4281 1185 60.2667 426.224 497.788
53 0 82.1616 12.3415 1014 63.1893 426.281 498.478
54 0 87.1271 12.9696 1130 62.7195 426.627 494.995
55 0 90.1156 12.3397 1112 63.6286 425.994 495.41
56 0 91.0577 13.9472 1270 62.4953 425.996 492.069
57 1 47.0398 10.6506 501 64.3752 426.669 514.367
58 0 48.0415 10.9489 526 64.538 427.544 513.582
59 0 48.0739 9.29819 447 66.0201 426.537 515.047
60 0 52.0333 11.1467 580 63.9569 426.991 512.914
61 0 53.0508 12.4032 658 62.8389 427.267 511.106
62 0 55.0639 12.095 666 63.3799 426.071 510.405
63 0 56.0823 11.5723 649 63.735 426.1 510.67
64 0 58.0307 12.0626 700 63.3986 426.846 510.017
65 0 58.1158 10.7716 626 65.1342 427.522 508.144
66 0 60.081 12.0504 724 64.5635 426.97 505.388
67 0 62.1205 10.4957 652 66.7147 427.526 504.913
68 0 66.0986 12.9957 859 63.447 426.623 506.003
69 0 67.0512 13.1094 879 64.2753 426.297 503.3
70 0 69.1781 12.157 841 65.1855 426.366 503.746
71 0 71.043 13.1892 937 64.4216 426.011 502.446
72 0 71.0536 11.6672 829 66.9481 426.376 499.172
73 0 76.0467 11.7165 891 65.9854 426.123 500.24
74 0 77.0887 12.2456 944 65.7659 426.209 500.751
75 0 82.1516 13.9255 1144 63.8601 427.004 496.982
76 0 81.1648 12.5547 1019 65.8911 427.089 498.871
77 0 82.2536 12.0967 995 67.803 426.526 493.361
78 1 43.1121 11.3657 490 64.9878 426.931 516.616
79 0 46.0335 10.2534 472 66.1504 427 515.39
80 0 47.1063 11.2724 531 65.3691 426.605 513.987
81 0 48.0878 11.4166 549 65.3843 426.386 514.466
82 0 48.0885 11.7284 564 65.4929 427.096 513.546
83 0 51.0499 11.6749 596 65.5621 426.827 512.034
84 0 53.1156 11.5973 616 65.4594 426.526 511.75
85 0 51.0896 12.2921 628 65.4682 427.07 510.35
86 0 52.0564 11.4491 596 66.797 427.562 509.475
87 0 57.0391 12.132 692 64.5361 427.366 509.542
88 0 55.0637 10.3517 570 66.9386 427.302 509.404
89 0 60.0594 10.5729 635 65.0945 427.216 509.844
90 0 60.0837 11.1844 672 65.2396 427.656 506.81
91 0 62.1513 11.7294 729 64.8957 427.387 505.199
92 0 63.1168 9.96565 629 66.4404 427.246 507.025
93 0 65.0913 9.70944 632 66.7991 426.544 506.413
94 0 69.0515 12.411 857 63.7585 426.224 502.026
95 0 71.1317 10.5719 752 65.3723 426.332 501.902
96 0 75.0876 11.8661 891 63.4343 426.391 501.81
97 0 77.0824 10.9104 841 65.1332 426.673 499.348
98 1 38.027 9.75621 371 62.31 426.383 518.962
99 0 40.0261 10.4432 418 60.9856 426.239 517.804
100 0 41.0482 10.8896 447 61.264 426.548 515.915
101 0 41.0324 9.33408 383 63.5692 426.851 516.159
102 0 44.0752 11.2535 496 61.6008 426.879 514.621
103 0 44.2438 9.89968 438 63.3516 426.767 513.982
104 0 46.0947 10.0879 465 63.4344 426.839 512.662
105 0 45.1276 10.0825 455 63.5802 427.277 513.248
106 0 49.0926 11.1015 545 61.9321 426.083 510.914
107 0 50.1789 10.3231 518 63.3398 426.795 510.319
108 0 50.0274 13.0529 653 56.3032 426.734 505.412
109 0 55.13 12.135 669 60.2496 426.686 509.034
110 0 54.0847 10.7979 584 63.8082 427.062 506.031
111 0 56.1129 10.6036 595 63.1866 426.583 507.556
112 0 58.0699 10.5046 610 63.9016 426.993 505.248
113 0 59.1715 11.4244 676 62.9068 426.871 505.154
114 0 62.2064 10.7224 667 62.8546 426.688 505.343
115 0 63.215 11.9434 755 62.6119 427.438 502.683
116 0 66.0897 11.6206 768 62.4753 427.333 503.677
117 0 66.1508 10.9749 726 64.2383 426.952 501.23
118 0 70.3221 12.912 908 61.3205 427.045 501.774
119 0 72.1778 10.2802 742 64.9394 426.875 500.376
120 0 73.1372 9.17454 671 66.2221 426.705 499.586
121 0 76.1112 11.2336 855 63.5427 426.579 499.487
122 1 42.06 10.5088 442 61.6154 426.633 516.321
123 0 42.1165 9.80613 413 62.5835 426.915 515.763
124 0 42.1145 9.61665 405 63.9827 426.699 515.622
125 0 43.1121 9.46371 408 64.4191 425.61 515.032
126 0 46.1306 11.0556 510 62.2627 425.445 514.237
127 0 47.0403 12.3086 579 61.3713 425.805 512.903
128 0 47.0363 9.54582 449 65.6771 426.989 511.967
129 0 50.1177 8.36033 419 66.1337 426.869 513.368
130 0 51.0644 9.69365 495 64.8242 426.255 512.448
131 0 51.1055 10.5272 538 65.0279 425.901 508.783
132 0 54.0565 10.008 541 64.9963 426.277 509.762
133 0 56.1093 11.9766 672 63.4583 426.515 508.975
134 0 57.0981 10.2805 587 65.3986 426.641 509.625
135 0 59.1978 13.2268 783 61.3691 426.711 506.562
136 0 61.43 11.2649 692 63.8945 426.897 505.104
137 0 61.1285 10.7151 655 65.2458 426.885 503.711
138 0 64.0826 13.2797 851 61.785 426.489 503.482
139 0 65.2527 11.3405 740 64.7297 426.65 502.682
140 0 69.2276 12.235 847 63.4841 427.22 501.46
141 0 69.1002 10.3907 718 66.5111 427.136 499.625
142 0 73.2801 11.4902 842 64.4109 427.438 502.164
143 0 74.2639 11.2706 837 65.5735 426.685 498.151
144 0 78.1777 10.9622 857 65.3186 427.315 497.201
145 0 80.1829 10.6382 853 66.3318 426.921 495.557
146 1 41.1144 8.85335 364 66.9533 426.89 513.352
147 0 42.0931 9.59776 404 65.8589 426.396 513.755
148 0 44.0918 11.1812 493 64.0811 426.339 513.868
149 0 46.1492 9.36095 432 66.2847 426.081 512.201
150 0 48.0992 11.3931 548 63.3285 426.918 512.841
151 0 50.0567 11.3471 568 63.3521 426.415 511.903
152 0 50.0639 10.5265 527 64.8577 426.712 510.199
153 0 51.0476 10.6763 545 64.0073 426.292 513.13
154 0 51.0687 10.0257 512 65.9707 427.178 510.408
155 0 54.1528 10.6181 575 64.8678 426.937 510.273
156 0 54.0646 10.8759 588 65.0221 427.325 509.388
157 0 54.1291 10.5119 569 65.3849 426.163 508.042
158 0 58.0512 12.3512 717 63.0488 426.888 507.305
159 0 58.077 9.64236 560 67.1107 426.525 505.304
160 0 62.06 11.2311 697 64.5825 426.555 504.875
161 0 63.0734 10.6225 670 65.8463 426.372 505.507
162 0 66.067 11.564 764 64.0209 426.424 502.927
163 0 67.0838 10.5241 706 65.1586 426.599 503.132
164 0 68.1147 11.0108 750 65.272 425.76 502.048
165 0 71.092 12.4627 886 63.7822 426.758 499.316
166 0 73.0301 12.6523 924 63.4968 426.806 498.727
167 0 76.0281 12.9557 985 62.9431 426.267 497.706
168 1 37.0326 9.91019 367 64.6267 426.629 516.169
169 0 40.0761 10.4551 419 62.9547 426.126 515.465
170 0 40.0749 10.8048 433 63.5012 426.49 515.831
171 0 41.0591 10.083 414 63.628 426.191 516.42
172 0 42.067 8.89059 374 65.9011 426.572 513.142
173 0 45.0907 10.623 479 64.0981 426.303 513.626
174 0 46.0134 10.9099 502 63.3625 426.697 513.823
175 0 46.0218 12.3637 569 62.0158 425.968 512.29
176 0 49.0947 10.714 526 64.3764 426.624 512.471
177 0 49.1992 10.7928 531 65.0019 426.478 510.77
178 0 51.0968 10.5095 537 64.9721 426.836 510.413
179 0 51.0916 10.9411 559 63.9499 427.512 509.846
180 0 53.2022 11.5597 615 63.1724 427.548 508.746
181 0 53.189 11.4685 610 63.9459 427.682 506.497
182 0 56.0925 11.3919 639 63.7653 427.207 507.017
183 0 58.1846 11.9963 698 63.0014 426.663 505.685
184 0 61.1371 11.417 698 62.9155 426.113 508.408
185 0 63.1619 12.3809 782 61.9028 425.808 506.678
186 0 64.26 12.1071 778 63.0283 425.175 505.896
187 0 65.15 12.7859 833 62.3818 425.083 502.819
188 0 67.1311 12.1553 816 63.9338 424.768 502.815
189 0 69.114 13.4705 931 63.0193 425.092 500.357
190 0 71.089 12.1538 864 64.6273 424.772 500.15
191 0 72.0687 11.8082 851 65.2162 424.261 502.712
192 0 72.0687 11.7804 849 142.733 423.253 502.572
193 0 79.2196 11.5502 915 66.9814 424.789 499.848
194 0 81.0503 12.1406 984 66.3821 424.63 500.474
195 0 82.1989 12.1534 999 67.3353 423.704 498.647
196 0 85.2049 12.957 1104 65.9321 424.469 498.931
197 0 88.1044 14.8914 1312 63.4977 424.95 498.424
198 1 48.1264 10.888 524 67.7309 424.527 517.239
199 0 47.0637 11.58 545 67.2349 423.543 519.097
200 0 50.0961 13.7336 688 65.0378 423.753 515.561
201 0 50.1063 11.1363 558 69.1864 424.251 517.041
202 0 53.1093 12.9544 688 66.3983 423.52 515.156
203 0 54.1555 12.1687 659 66.6039 423.171 516.883
204 0 54.1167 11.5121 623 68.7994 423.196 514.093
205 0 58.0626 12.5899 731 67.0793 423.138 514.075
206 0 59.0528 12.9714 766 65.7258 422.824 515.188
207 0 63.0458 13.9264 878 63.5478 423.786 514.105
208 0 62.0235 11.5763 718 68.2507 423.44 512.242
209 0 63.083 11.7781 743 67.7604 423.122 512.354
210 0 65.0716 11.1569 726 68.2094 422.592 512.912
211 0 67.0671 12.1222 813 66.4649 423.052 511.095
212 0 70.105 12.7523 894 65.2136 422.569 511.041
213 0 71.0849 13.6457 970 64.3691 421.947 508.951
214 0 74.1295 13.1257 973 64.5355 421.982 510.313
215 0 75.2021 13.8693 1043 64.257 421.86 507.37
216 0 77.1426 11.6278 897 67.2876 421.971 505.292
217 0 80.1636 13.3352 1069 65.3312 421.476 502.855
218 0 81.0809 12.2717 995 66.6965 420.887 502.488
219 0 86.1096 13.7035 1180 64.0805 421.814 501.453
220 1 48.0646 12.3168 592 64.402 421.071 518.939
221 0 47.0291 11.6311 547 65.1938 420.658 520.338
222 0 48.156 10.9021 525 66.5219 421.606 520.347
223 0 50.0371 10.9719 549 67.0528 421.346 517.579
224 0 50.1148 13.2496 664 65.0181 421.11 515.566
225 0 52.1729 11.9794 625 66.024 420.512 514.829
226 0 54.1429 11.9498 647 66.136 420.949 512.966
227 0 56.0213 12.3524 692 63.9306 420.467 515.461
228 0 55.1993 10.761 594 67.9916 421.515 512.51
229 0 60.1019 12.146 730 65.1945 421.493 510.656
230 0 60.1748 12.8293 772 64.5946 421.289 510.912
231 0 63.2047 12.8313 811 64.4562 421.483 509.116
232 0 64.0703 11.3937 730 66.4301 422.047 507.263
233 0 64.1296 11.1961 718 67.2159 421.777 504.838
234 0 67.137 11.9606 803 65.9178 421.344 506.036
235 0 70.129 11.3505 796 66.5088 421.563 503.979
236 0 73.0661 11.3322 828 66.4746 421.955 504.606
237 0 73.1724 12.1221 887 66.23 421.413 499.693
238 0 76.1706 11.9863 913 66.253 422.047 500.394
239 0 79.1273 12.0312 952 67.0777 421.959 498.362
240 0 83.187 12.4298 1034 66.3994 422.15 496.569
241 0 87.1049 12.904 1124 65.4297 422.174 496.917
242 1 45.1518 12.1368 548 65.1642 422.208 515.349
243 0 45.025 11.1272 501 66.1497 421.713 516.513
244 0 49.0517 12.7213 624 65.0321 421.675 513.356
245 0 49.0767 10.2289 502 68.3187 422.339 514.568
246 0 51.1009 13.3657 683 64.2196 422.81 513.592
247 0 51.0782 10.8853 556 68.4442 422.142 513.183
248 0 53.0817 12.2453 650 66.5415 422.518 512.457
249 0 55.1129 11.1226 613 67.3083 422.995 512.388
250 0 57.108 12.5727 718 65.5989 422.653 511.096
251 0 58.1247 11.8022 686 66.4242 422.173 510.59
252 0 59.0446 12.0756 713 66.3464 422.171 511.391
253 0 63.1182 10.6784 674 67.8813 422.347 510.955
254 0 64.0535 15.0968 967 62.0279 422.91 508.752
255 0 64.135 11.0704 710 68.1 422.331 507.92
256 0 68.0847 13.4245 914 64.5985 422.368 502.611
257 0 69.0469 11.007 760 67.525 422.582 505.958
258 0 71.1886 11.603 826 67.4225 422.492 505.789
259 0 75.1488 12.3355 927 66.055 422.23 504.546
260 0 75.1847 10.5474 793 68.9823 421.987 504.077
261 0 79.0843 13.3149 1053 64.9848 421.897 503.315
262 0 82.2543 13.203 1086 65.5331 422.087 500.206
263 0 85.2492 12.7626 1088 66.2215 422.824 500.393
264 0 88.2268 13.76 1214 65.098 422.219 497.952
265 0 90.1444 11.3041 1019 69.4161 421.849 497.029
266 0 93.0978 11.9122 1109 68.7989 421.472 494.234
267 1 48.0825 10.6692 513 66.2339 421.269 520.908
268 0 50.1232 10.6538 534 67.7341 421.146 519.004
269 0 51.1158 11.3664 581 67.6093 421.279 518.177
270 0 51.245 10.6352 545 69.0606 421.253 517.756
271 0 54.0616 11.1909 605 68.1868 421.018 516.603
272 0 56.1712 10.9309 614 68.4186 421.187 515.161
273 0 58.1627 11.932 694 67.366 420.803 513.873
274 0 59.284 10.7786 639 68.7324 421.221 513.59
275 0 61.297 10.6367 652 68.4248 420.702 512.879
276 0 62.1382 10.9433 680 67.9691 420.841 511.696
277 0 64.2523 11.0502 710 67.6324 421.006 510.007
278 0 67.0972 11.2672 756 67.3452 421.179 509.115
279 0 68.1856 11.2487 767 66.6115 421.073 511.485
280 0 72.2712 11.4015 824 66.9066 421.75 508.532
281 0 73.1034 10.7109 783 67.4853 420.723 505.959
282 0 76.2375 11.0707 844 66.7062 420.544 506.845
283 0 80.2223 13.4875 1082 63.3752 420.986 505.651
284 0 80.1704 11.0265 884 66.4796 420.715 504.798
285 1 43.0979 8.60831 371 65.0943 419.429 523.857
286 0 43.142 10.9174 471 63.8493 419.945 521.881
287 0 44.1542 11.7996 521 62.9539 419.774 520.589
288 0 47.0428 11.075 521 63.3628 420.031 519.831
289 0 47.0705 12.4282 585 62.4256 420.039 518.349
290 0 50.0845 11.5205 577 62.9532 420.477 518.724
291 0 49.148 10.4989 516 64.9477 420.659 519.893
292 0 52.2247 11.2973 590 63.5508 420.546 517.837
293 0 54.1373 11.3046 612 63.1781 420.65 518.57
294 0 55.2598 11.4369 632 63.4778 420.957 516.528
295 0 56.1478 11.7013 657 63.6819 420.953 515.464
296 0 56.0628 11.826 663 63.0075 420.275 516.947
297 0 57.1267 11.1157 635 64.7055 419.932 512.987
298 0 61.1499 11.5454 706 63.5014 420.197 513.324
299 0 63.1446 12.4318 785 62.2191 420.313 512.093
300 0 63.1205 11.1533 704 63.4247 420.808 512.091
301 0 65.0934 13.4269 874 60.9966 420.35 507.478
302 0 67.0799 10.5248 706 64.0113 419.813 507.996
303 0 70.0702 13.2581 929 60.2659 419.721 506.9
304 0 71.1591 11.6218 827 61.8222 419.137 507.045
305 0 71.1591 11.6921 832 127.675 417.13 507.044
306 1 39.1117 10.7641 421 60.7886 418.784 521.696
307 0 38.131 10.2541 391 62.7417 418.767 518.857
308 0 42.0664 10.4359 439 62.0228 419.945 518.2
309 0 42.0558 9.84408 414 62.3575 419.58 519.831
310 0 45.097 9.69022 437 62.4462 418.908 518.224
311 0 47.0348 12.0124 565 59.8549 419.625 516.464
312 0 48.0953 11.8515 570 60.3509 419.051 514.993
313 0 47.1539 10.7096 505 61.8178 418.325 515.15
314 0 50.09 10.4412 523 63.1491 419.329 512.721
315 0 51.0642 12.2787 627 60.3987 419.199 513.439
316 0 52.0528 10.7775 561 62.8004 419.426 510.968
317 0 54.0364 11.8254 639 61.6041 419.543 512.326
318 0 58.0522 12.7816 742 60.2574 419.456 511.07
319 0 59.0981 12.9615 766 59.812 419.85 510.235
320 0 59.0745 11.02 651 62.3687 419.455 510.227
321 0 61.0934 10.9504 669 62.2048 418.957 510.635
322 0 62.1185 11.5746 719 62.1113 419.186 508.045
323 0 66.1089 12.8878 852 60.3603 419.106 506.502
324 0 68.0672 12.664 862 60.1926 419.78 506.303
325 0 71.1612 11.0735 788 62.0647 419.476 502.685
326 0 74.1316 12.6667 939 60.0192 420.233 503.383
327 0 74.1027 11.7809 873 61.5029 420.101 504.176
328 0 77.2701 11.2463 869 62.0817 420.474 500.736
329 1 41.1503 9.64755 397 61.5995 419.741 520.703
330 0 41.0746 9.08105 373 63.7158 419.383 516.59
331 0 45.1341 10.9009 492 61.185 419.504 516.433
332 0 45.0896 11.1999 505 61.295 420.01 517.048
333 0 48.1249 10.9299 526 61.3403 420.46 515.612
334 0 51.0896 12.5857 643 59.3188 420.759 513.986
335 0 50.09 10.4811 525 62.5695 419.709 513.775
336 0 53.0788 12.1329 644 59.8261 419.911 514.134
337 0 55.1487 13.0919 722 59.3837 419.662 512.741
338 0 55.0466 12.0625 664 61.4533 420.202 511.92
339 0 53.0794 11.4734 609 63.2874 420.373 510.273
340 0 57.1245 11.5362 659 62.0683 420.489 509.475
341 0 58.1204 11.6999 680 62.4853 419.443 509.599
342 0 62.0576 14.0031 869 59.6306 420.04 507.41
343 0 64.06 12.8786 825 60.4194 420.002 508.442
344 0 64.049 13.5833 870 60.2379 419.76 507.652
345 0 64.1188 12.3833 794 62.5327 420.36 505.763
346 0 68.0967 13.055 889 60.4207 420.318 508.213
347 0 69.0299 13.5593 936 61.2062 419.817 503.812
348 0 68.1227 11.7435 800 63.9925 419.8 502.828
349 0 72.1096 12.0927 872 62.2947 419.837 502.869
350 0 75.1438 12.7888 961 61.6785 419.617 501.66
351 0 76.1018 13.5082 1028 61.18 420.081 501.067
352 0 79.0881 12.9982 1028 61.5389 419.665 498.346
353 0 82.1219 12.932 1062 61.8917 419.895 497.556
354 1 40.0249 12.5172 501 61.982 420.269 516.695
355 0 41.0727 11.4675 471 62.8153 421.146 518.902
356 0 44.0961 13.2665 585 60.7726 420.699 516.978
357 0 43.0344 11.2236 483 64.7081 420.631 516.443
358 0 44.0821 12.0457 531 62.9642 420.394 517.804
359 0 45.0486 12.0759 544 63.2316 419.886 516.583
360 0 47.1027 12.3772 583 62.7307 420.557 517.237
361 0 48.0454 11.0521 531 64.9567 420.089 514.036
362 0 49.0487 13.1094 643 63.3188 420.07 511.928
363 0 51.1471 12.2979 629 63.9921 420.094 512.577
364 0 54.0422 11.7686 636 64.173 420.215 512.535
365 0 54.0574 13.9851 756 62.164 420.767 511.03
366 0 57.1411 13.4754 770 62.9805 420.875 509.422
367 0 59.0558 14.19 838 62.1623 419.788 508.777
368 0 61.0537 13.0868 799 62.9612 420.15 510.267
369 0 62.0628 12.7774 793 64.5498 420.465 505.595
370 0 66.0689 13.5767 897 62.1817 420.523 509.244
371 0 67.053 12.5423 841 64.0725 420.409 507.732
372 0 70.1109 12.7512 894 64.2103 419.947 505.086
373 0 71.1237 14.2147 1011 62.9931 420.551 504.702
374 0 71.0989 12.4193 883 65.7848 420.749 503.813
375 0 76.1261 13.4908 1027 63.777 420.738 503.328
376 0 79.0842 13.6563 1080 64.3657 421.018 501.22
377 0 80.0951 13.0095 1042 65.6267 420.405 498.45
378 0 81.0474 12.6963 1029 66.8853 420.569 498.285
379 1 43.0482 10.8251 466 67.3519 419.886 518.496
380 0 45.0637 11.4283 515 67.3573 419.835 517.437
381 0 46.1019 10.9757 506 68.5395 419.551 517.962
382 0 46.1181 12.9884 599 67.399 419.447 513.763
383 0 50.0985 11.1181 557 68.009 419.977 517.404
384 0 49.0554 13.0261 639 66.615 420.197 516.044
385 0 51.0168 11.6824 596 69.7148 420.698 514.926
386 0 53.0854 13.7514 730 67.1521 420.186 511.886
387 0 54.0971 12.3851 670 68.8119 419.806 513.422
388 0 54.0733 11.0221 596 71.2349 419.837 512.549
389 0 57.0494 12.235 698 69.086 420.034 511.5
390 0 61.0926 12.9312 790 68.2 420.773 509.482
391 0 63.1285 11.8172 746 70.008 421.446 508.643
392 0 63.0972 13.915 878 67.7494 421.207 507.844
393 0 65.0828 12.2459 797 70.5307 420.951 505.055
394 0 68.2527 11.9409 815 70.5534 420.461 505.79
395 0 68.0728 12.4279 846 70.0118 420.372 506.761
396 0 71.0676 11.8619 843 71.3796 420.669 505.227
397 0 77.1361 13.4438 1037 68.1157 420.223 505.406
398 0 78.0978 13.1246 1025 69.718 420.765 503.782
399 0 80.0797 12.2378 980 70.951 420.923 502.937
400 0 83.1403 13.0743 1087 70.2981 420.591 500.659
401 0 88.0721 13.7728 1213 68.8261 420.766 498.758
402 1 46.0139 11.5617 532 70.4492 420.996 518.077
403 0 47.0185 11.6125 546 68.9817 421.696 520.016
404 0 48.039 10.7413 516 72.5058 422.215 516.814
405 0 51.0458 11.9892 612 69.8497 422.02 517.263
406 0 51.0458 12.812 654 68.4327 421.477 518.446
407 0 53.0478 15.8536 841 64.8894 422.083 515.486
408 0 55.0534 12.8784 709 69.079 421.427 513.394
409 0 56.046 12.3292 691 69.4689 421.114 514.614
410 0 59.0472 14.192 838 67.4523 420.292 512.426
411 0 61.0742 11.4779 701 69.3695 420.126 515.936
412 0 61.0777 12.8197 783 68.7982 420.149 512.535
413 0 63.0747 13.6505 861 68.9129 420.713 509.666
414 0 67.0554 13.5261 907 67.7762 420.641 511.123
415 0 67.0593 12.0192 806 70.9975 420.404 509.681
416 0 71.0653 12.9599 921 69 420.177 510.017
417 0 72.0747 13.4305 968 69.2738 420.619 507.095
418 0 74.0253 12.7254 942 70.3577 420.704 506.331
419 0 77.1136 15.0816 1163 66.902 419.625 504.3
420 0 79.0356 13.0954 1035 69.8744 419.335 502.644
421 0 81.14 12.4476 1010 70.9465 419.217 502.547
422 0 84.0789 12.7618 1073 70.6486 420.125 500.298
423 0 87.1178 13.6826 1192 69.3062 420.44 501.195
424 0 90.1163 13.0498 1176 70.2849 420.02 497.577
425 1 45.0673 11.1389 502 69.9163 419.956 519.159
426 0 45.0184 11.7063 527 70.4118 419.928 517.472
427 0 49.0337 10.299 505 71.5307 420.085 516.745
428 0 48.1037 11.7039 563 70.8774 420.517 515.041
429 0 47.0618 10.5393 496 72.1149 419.96 514.573
430 0 51.0224 11.0736 565 70.7929 420.299 516.338
431 0 55.0259 12.7576 702 67.7749 419.85 515.382
432 0 54.039 13.4532 727 68.1678 420.168 513.607
433 0 52.0572 11.1224 579 71.7202 419.708 511.998
434 0 57.0445 11.903 679 70.3108 420.767 511.163
435 0 60.1705 12.4812 751 67.8336 420.944 513.59
436 0 62.0363 13.073 811 67.3169 420.614 512.293
437 0 64.0912 13.5432 868 67.1521 420.615 511.209
438 0 64.1053 11.0443 708 71.0424 420.318 510.863
439 0 67.1249 12.2607 823 69.1762 419.932 508.998
440 0 69.0929 14.1549 978 66.9775 419.392 507.34
441 0 72.194 12.9097 932 68.3991 420.008 506.8
442 0 75.1447 13.3609 1004 67.6365 420.148 505.363
443 0 73.0916 11.1914 818 71.4499 420.866 505.152
444 0 78.1457 13.5516 1059 68.4901 420.311 502.123
445 0 80.1989 12.5563 1007 70.6048 420.78 499.648
446 0 82.0931 11.9377 980 71.3071 420.744 502.58
447 0 85.1021 13.0549 1111 69.703 419.985 500.617
448 0 87.0429 13.0166 1133 69.6302 420.123 499.895
449 0 90.0898 12.1323 1093 70.9671 420.016 498.244
450 0 95.1049 12.891 1226 69.7471 420.437 495.618
451 0 94.0996 11.5197 1084 72.1541 419.875 494.323
452 1 50.0641 11.685 585 67.5043 420.263 519.094
453 0 53.0475 10.255 544 68.9154 420.417 518.178
454 0 55.0373 10.6473 586 68.7645 420.263 516.684
455 0 54.0559 11.1366 602 69.8106 421.153 514.296
456 0 56.0552 11.9525 670 68.4418 420.524 513.348
457 0 60.0946 12.3971 745 66.4886 420.417 513.307
458 0 60.0163 11.8968 714 67.486 420.433 513.19
459 0 62.1234 11.8313 735 67.2694 420.796 512.393
460 0 64.0833 12.1717 780 67.2872 420.001 510.94
461 0 67.0464 12.0812 810 67.6691 419.598 508.3
462 0 66.1584 11.5329 763 68.6448 419.701 507.081
463 0 71.1775 13.2486 943 66.2651 419.155 504.517
464 0 74.0745 13.1354 973 65.9548 419.441 506.92
465 0 75.3062 11.9645 901 67.99 420.095 505.143
466 0 76.156 12.8158 976 66.7848 419.893 506.169
467 0 80.1868 12.4709 1000 67.478 419.419 504.059
468 0 82.0587 12.1986 1001 68.2517 420.633 503.353
469 0 83.0696 11.3519 943 69.9735 419.97 500.985
470 0 86.0249 13.0427 1122 68.32 419.675 498.545
471 0 87.0709 14.6432 1275 66.2345 419.798 498.646
472 0 91.2115 12.1585 1109 69.1885 419.795 499.54
473 0 93.1735 11.6771 1088 70.0928 419.736 497.097
474 0 96.1447 11.7635 1131 70.2166 420.388 495.51
475 1 55.1439 12.0231 663 67.7345 420.713 515.667
476 0 55.067 10.805 595 69.716 419.817 513.861
477 0 58.1055 12.4429 723 66.9682 419.35 516.126
478 0 59.0542 11.8196 698 68.9226 419.858 514.723
479 0 60.3415 12.943 781 67.3265 419.985 512.679
480 0 63.1987 12.9117 816 66.6752 419.817 513.455
481 0 63.3384 11.8727 752 69.0891 419.798 510.537
482 0 64.3226 11.7377 755 68.3152 419.697 512.391
483 0 69.1306 13.1635 910 66.3615 419.863 509.108
484 0 70.113 12.5797 882 67.5907 420.056 507.214
485 0 73.1135 13.4585 984 66.0244 419.323 506.267
486 0 75.2976 12.5236 943 67.2704 420.075 504.38
487 0 77.3297 11.7031 905 68.5713 419.74 503.381
488 0 77.1022 11.6728 900 69.0267 420.261 503.772
489 0 81.0778 12.0255 975 67.8882 420.158 503.034
490 0 83.0488 10.8611 902 69.3537 420.081 502.622
491 0 86.1761 11.7202 1010 69.0257 420.461 498.95
492 0 91.1107 12.622 1150 67.14 419.701 499.872
493 0 93.156 14.0302 1307 65.4966 419.896 498.067
494 0 95.1244 12.6781 1206 67.602 420.33 494.716
495 0 97.1155 12.2843 1193 68.394 420.326 495.304
496 1 49.109 12.3806 608 65.8865 419.72 517.653
497 0 51.0678 12.4736 637 65.7661 420.011 517.182
498 0 53.0832 12.6594 672 65.0238 419.64 517.025
499 0 54.0546 12.5614 679 65.7482 420.057 516.464
500 0 56.0589 11.2025 628 66.7182 420.396 517.322
501 0 57.0962 11.5419 659 66.5432 420.484 516.781
502 0 59.1175 14.3782 850 63.2141 420.159 514.654
503 0 60.0688 12.0695 725 66.7283 420.243 512.88
504 0 61.1546 11.0867 678 68.174 420.168 513.444
505 0 65.1265 13.7425 895 64.7095 420.231 511.491
506 0 67.0485 12.6625 849 66.2344 420.131 511.197
507 0 69.0604 13.814 954 65.652 419.987 505.941
508 0 70.0362 12.9076 904 67.3385 419.955 506.399
509 0 73.1722 12.5867 921 67.6558 419.999 504.673
510 0 77.0631 13.1451 1013 66.9664 419.512 504.593
511 0 78.1136 12.9555 1012 67.3686 419.557 504.627
512 0 82.081 13.8522 1137 66.4828 419.96 501.311
513 0 83.1126 11.9236 991 69.7608 419.597 499.872
514 0 87.1269 11.7071 1020 69.2029 419.852 503.206
515 1 42.1007 11.615 489 68.1779 419.759 521.387
516 0 43.0515 11.3585 489 68.6483 418.93 521.622
517 0 45.1286 12.2317 552 68.0833 419.02 520.138
518 0 45.0096 10.42 469 71.4328 419.576 519.275
519 0 47.0808 11.682 550 69.1164 419.547 519.222
520 0 49.0562 11.3543 557 69.4632 419.075 517.461
521 0 47.0539 10.8386 510 70.5882 419.596 518.004
522 0 51.1002 11.135 569 70.2917 419.633 517.065
523 0 51.0756 12.8633 657 68.2024 419.394 515.431
524 0 54.0514 14.4122 779 65.2272 418.996 515.942
525 0 56.0311 12.2253 685 68.1664 419.025 514.866
526 0 55.0221 11.3773 626 70.1757 419.479 514.252
527 0 61.0621 11.4474 699 69.0959 419.721 512.099
528 0 62.0795 14.0304 871 66.5614 419.238 510.915
529 0 64.0885 13.5126 866 67.1628 419.494 510.163
530 0 67.096 13.3391 895 66.9453 419.036 510.232
531 0 68.0721 11.7669 801 68.9663 419.23 509.826
532 0 71.0764 13.0986 931 67.7916 418.633 508.092
533 0 71.1212 12.4295 884 68.905 418.995 507.448
534 0 76.0426 12.5193 952 68.5483 418.663 505.589
535 1 40.0662 9.06001 363 70.6116 418.901 523.096
536 0 40.0938 11.8722 476 67.6324 418.828 522.521
537 0 41.0567 11.3258 465 69.2043 419.746 519.856
538 0 42.0546 12.2935 517 68.0116 419.571 519.309
539 0 44.0469 12.4413 548 67.8558 419.909 519.484
540 0 44.0637 10.6664 470 71.0979 419.979 519.617
541 0 45.0431 11.6999 527 70.1461 418.808 518
542 0 48.0159 11.6212 558 69.6953 419.819 519.05
543 0 49.0361 12.7049 623 68.1974 419.262 518.579
544 0 51.0627 12.5728 642 67.7617 419.673 518.058
545 0 52.103 12.7824 666 68.3514 419.054 515.269
546 0 53.1486 13.0201 692 68.4379 419.156 515.181
547 0 57.0828 13.8395 790 65.9747 419.086 514.162
548 0 57.0492 13.1465 750 67.652 419.396 512.928
549 0 59.1123 13.3306 788 67.7931 419.091 511.195
550 0 60.0268 11.928 716 69.6872 419.451 511.346
551 0 62.081 13.5307 840 67.1869 418.626 511.26
552 0 66.0635 12.1853 805 68.6658 418.841 511.164
553 0 68.0625 12.8558 875 67.888 419.993 507.734
554 0 68.0637 12.9878 884 68.2692 419.374 506.477
555 0 70.1504 14.5402 1020 65.4059 419.225 507.492
556 0 73.0815 12.575 919 67.8477 419.096 506.351
557 0 75.0463 13.2452 994 67.504 418.99 503.693
558 0 78.059 15.0527 1175 64.6068 419.074 500.837
559 0 80.0491 13.5542 1085 66.1862 418.296 499.843
560 0 84.0519 13.8367 1163 65.6982 419.217 498.559
561 0 85.1413 11.8979 1013 68.0731 419.436 500.257
562 0 88.1765 13.3482 1177 66.4817 419.652 497.112
563 0 90.1643 11.468 1034 68.7834 419.643 497.401
564 0 93.0878 12.4828 1162 67.2014 419.093 492.629
565 1 51.0386 11.893 607 67.0395 418.558 513.784
566 0 52.1113 11.4562 597 67.5075 418.776 513.209
567 0 56.0731 13.2327 742 63.7156 418.813 512.493
568 0 57.1349 11.6741 667 66.1364 418.961 510.505
569 0 58.1421 11.7127 681 65.486 418.457 511.242
570 0 60.0183 12.1296 728 64.9203 418.295 509.96
571 0 62.1252 11.5412 717 65.1646 418.206 508.236
572 0 65.2093 12.3755 807 64 418.586 506.17
573 0 67.1003 12.8464 862 63.2285 418.802 505.494
574 0 69.1207 11.1544 771 65.1219 418.901 501.652
575 0 72.1408 12.337 890 63.4315 419.167 500.933
576 0 77.0492 11.4083 879 63.9317 418.52 500.421
577 0 76.091 12.3799 942 63.2017 419.071 497.215
578 0 81.1476 11.9289 968 63.5847 419.817 499.162
579 1 41.0228 9.23877 379 64.7546 419.921 517.034
580 0 41.1061 10.4851 431 63.5916 420.336 516.694
581 0 44.1792 9.66519 427 63.9344 420.075 514.927
582 0 47.1504 11.7072 552 60.6739 419.899 514.917
583 0 49.0655 11.3929 559 60.9284 420.487 513.823
584 0 53.063 11.7408 623 60.1862 419.469 511.937
585 0 51.1206 9.72211 497 63.6579 419.728 512.801
586 0 56.115 11.9932 673 60.2853 419.853 512.756
587 0 55.124 12.0819 666 61.2778 419.341 510.614
588 0 56.1603 11.0576 621 61.694 419.448 511.327
589 0 60.0854 10.9677 659 62.1563 419.129 509.158
590 0 63.0672 12.4629 786 60.5598 418.466 506.244
591 0 64.0724 12.6888 813 60.6581 418.74 503.584
592 0 66.1382 12.6402 836 60.7081 418.66 504.819
593 0 71.3036 13.0709 932 59.4753 418.716 504.255
594 0 71.1342 11.5978 825 61.1006 418.907 503.087
595 0 73.2476 12.0004 879 61.5961 418.796 499.543
596 0 75.2436 11.9479 899 61.4627 419.651 501.077
597 0 78.1109 11.5733 904 61.8916 418.622 498.17
598 0 80.0958 11.6985 937 61.4109 419.308 499.199
599 0 84.1781 11.6063 977 61.6182 419.113 498.076
600 0 85.1739 11.9403 1017 61.3589 418.85 497.889
601 1 44.063 10.9389 482 59.6598 420.089 516.585
602 0 46.0818 12.6948 585 58.3419 419.827 515.856
603 0 46.1103 11.0604 510 60.698 420.088 516.596
604 0 48.0675 10.5477 507 61.43 419.542 514.13
605 0 49.0588 10.783 529 62.4405 419.951 511.766
606 0 52.0969 11.2099 584 60.4966 419.955 513.515
607 0 52.0324 10.5896 551 61.7314 419.601 512.612
608 0 51.0359 8.71934 445 64.6045 419.045 511.247
609 0 56.0703 10.7187 601 61.1498 419.524 508.94
610 0 58.1151 10.2727 597 62.1139 419.935 509.385
611 0 59.0437 10.2975 608 62.4408 419.929 506.554
612 0 61.0745 10.5936 647 61.7589 420.141 508.198
613 0 62.128 12.6513 786 60.4567 419.991 505.805
614 0 65.1055 12.1342 790 60.6354 420.28 507.662
615 0 68.0925 12.1012 824 60.8604 420.522 504.317
616 0 69.0694 11.988 828 60.5966 420.333 505.627
617 0 71.0401 11.6272 826 61.4225 420.959 505.01
618 0 73.1263 11.0767 810 62.1173 420.04 503.19
619 0 76.047 11.94 908 60.9504 420.149 504.347
620 0 77.0478 10.5908 816 62.9436 420.24 501.909
621 0 82.1311 12.5896 1034 59.8772 420.115 499.699
622 0 85.1899 12.5602 1070 59.9813 420.566 499.321
623 0 85.1935 10.9398 932 61.9742 419.968 499.368
624 1 45.0275 10.2382 461 60.7722 419.516 516.549
625 0 47.0466 10.6065 499 60.0782 419.637 518.134
626 0 47.0316 10.9713 516 59.6434 419.114 517.31
627 0 49.0402 10.4404 512 61.791 419.893 513.965
628 0 51.046 11.5386 589 60.0934 420.328 514.314
629 0 52.047 11.6241 605 60.2661 420.327 511.99
630 0 55.1139 11.1769 616 60.2841 420.433 512.976
631 0 56.0384 10.4036 583 60.0412 419.743 514.053
632 0 57.0478 9.72869 555 61.4036 419.373 511.998
633 0 60.1186 11.4441 688 59.1424 419.951 511.481
634 0 61.0727 11.6255 710 59.7521 419.306 509.975
635 0 62.1216 11.9443 742 60.2601 419.767 507.919
636 0 67.0463 13.1402 881 58.7196 420.516 506.136
637 0 66.1514 12.29 813 60.2497 421.089 504.273
638 0 69.0341 12.3852 855 60.0257 420.747 505.868
639 0 69.0689 10.8877 752 61.9255 420.509 503.267
640 0 73.1036 11.9009 870 60.3184 420.038 502.002
641 0 78.0445 12.621 985 59.9685 420.162 500.574
642 0 77.0278 11.1908 862 62.0093 419.227 500.958
643 0 81.0811 13.6283 1105 59.0199 419.343 498.736
644 0 83.0978 13.6586 1135 59.2467 418.911 496.145
645 0 86.1498 13.3024 1146 59.6562 418.591 495.395
646 0 88.112 12.6089 1111 60.1485 419.449 498.023
647 0 88.0785 10.4793 923 63.7757 420.067 495.388
648 1 42.0589 11.4126 480 62.1417 419.042 517.694
649 0 43.0819 12.6735 546 60.3608 419.181 518.227
650 0 45.0849 12.4654 562 61.0231 419.879 517.603
651 0 48.073 12.481 600 61.765 419.882 515.043
652 0 47.0769 11.9804 564 62.7199 419.934 515.424
653 0 50.074 12.5215 627 61.8517 419.088 513.907
654 0 51.1073 11.7791 602 63.2691 419.85 513.11
655 0 53.138 12.3264 655 62.684 419.977 512.621
656 0 54.0419 11.8797 642 63.2944 419.995 512.907
657 0 56.0377 12.67 710 62.4521 420.128 510.675
658 0 57.0592 12.6711 723 62.2877 419.852 512.27
659 0 58.0615 11.6773 678 63.9027 419.556 509.609
660 0 60.0432 11.9914 720 63.6125 420.431 509.035
661 0 63.0485 13.561 855 61.6538 420.281 507.339
662 0 64.1156 13.3665 857 61.8658 420.081 503.594
663 0 67.1276 12.8263 861 62.1545 419.407 506.355
664 0 71.3941 13.8107 986 60.4067 419.516 504.173
665 0 73.0607 12.7018 928 61.8728 420.197 502.571
666 0 75.106 12.8219 963 62.1267 419.95 501.424
667 0 73.081 12.6161 922 62.6887 419.632 500.088
668 0 78.0593 13.1567 1027 61.5482 419.451 499.957
669 0 82.1197 14.966 1229 59.105 419.385 497.458
670 0 84.1009 13.1984 1110 61.1685 419.745 499.641
671 0 86.1744 14.3894 1240 59.9766 419.419 498.374
672 0 89.1281 14.3614 1280 60.3461 419.403 493.005
673 1 43.1033 11.2752 486 61.9444 419.667 517.858
674 0 43.0772 10.9571 472 63.1144 420.138 517.5
675 0 45.0465 13.4528 606 60.8762 419.908 514.655
676 0 46.0657 11.4402 527 61.833 419.67 517.469
677 0 48.0576 13.7751 662 60.0347 419.582 513.82
678 0 51.0284 11.1507 569 63.1371 419.608 512.077
679 0 52.0292 13.7615 716 60.5559 419.552 510.077
680 0 54.0355 12.3807 669 61.4529 418.761 512.873
681 0 53.0828 12.829 681 62.4581 419.308 509.673
682 0 57.0429 12.2189 697 62.3615 419.588 511.511
683 0 59.0127 13.2683 783 61.5172 420.318 509.701
684 0 60.0516 12.8556 772 61.6075 420.189 510.72
685 0 62.0411 12.524 777 62.5483 419.411 509.532
686 0 65.0491 12.7903 832 62.6046 419.752 506.859
687 0 64.051 12.1934 781 63.4891 419.503 507.694
688 0 68.0642 13.8399 942 61.8185 419.374 507.679
689 0 71.0319 13.7262 975 61.601 419.801 505.446
690 0 75.1436 14.0265 1054 61.5171 419.435 503.326
691 0 76.1054 11.8914 905 63.8707 419.575 503.582
692 0 80.1459 13.2508 1062 61.7147 420.318 503.737
693 0 80.0527 12.9665 1038 63.0366 419.624 501.354
694 1 40.0653 13.9772 560 60.5518 419.564 519.911
695 0 40.0903 12.7462 511 60.8904 420.358 521.419
696 0 41.0796 12.1715 500 62.192 419.986 520.53
697 0 45.1609 11.5587 522 62.0498 420.052 519.948
698 0 43.0409 12.7321 548 62.812 420.133 515.385
699 0 45.0449 13.1425 592 61.6706 419.696 515.514
700 0 48.0812 11.9797 576 61.9792 420.181 516.227
701 0 49.0934 12.8734 632 60.8528 420.134 516.606
702 0 51.0878 14.4457 738 59.3482 420.184 516.098
703 0 50.0951 12.8755 645 61.6233 420.043 515.298
704 0 54.0985 13.3091 720 60.7069 420.14 513.332
705 0 55.1659 12.689 700 61.5243 420.391 513.883
706 0 54.0567 11.5619 625 63.632 420.803 512.83
707 0 59.0437 12.9057 762 61.4685 420.836 512.211
708 0 59.1504 11.1242 658 64.114 420.772 512.892
709 0 59.15 10.9045 645 65.3411 420.291 506.416
710 0 63.1739 12.9326 817 63.4823 420.465 508.875
711 0 63.1547 12.2873 776 49.4085 419.651 513.284
712 0 65.038 12.0545 784 65.8916 419.682 507.393
713 0 67.0534 11.2746 756 67.0397 420.275 506.595
714 0 71.0567 11.4838 816 67.0686 420.042 506.232
715 0 73.05 12.4298 908 66.1189 420.308 507.383
716 0 78.0848 12.8194 1001 65.953 420.168 503.492
717 0 79.1097 12.2741 971 67.1936 420.823 504.488
718 0 81.0677 13.0261 1056 66.9858 420.411 502.892
719 1 44.0316 12.3093 542 65.7657 419.937 522.205
720 0 44.0824 12.4313 548 67.7135 419.777 519.845
721 0 48.0306 12.2214 587 67.5997 420.17 517.492
722 0 51.167 13.3094 681 66.4758 418.922 516.219
723 0 51.0805 12.7642 652 67.2638 419.431 517.515
724 0 51.0895 13.3295 681 68.1204 419.966 512.953
725 0 56.0696 14.2501 799 65.6283 420.049 514.991
726 0 55.2398 12.6358 698 68.914 420.261 514.265
727 0 57.1111 12.2393 699 70.0186 419.389 513.223
728 0 61.0403 13.3518 815 68.4 419.269 511.399
729 0 59.1831 13.0105 770 69.4831 419.032 511.16
730 0 64.1016 13.1822 845 68.6142 419.525 511.013
731 0 67.1097 13.2619 890 68.5989 418.456 510.113
732 0 68.075 15.2038 1035 67.4686 419.19 506.898
733 0 72.1232 14.392 1038 67.7659 419.302 506.953
734 0 71.1301 13.3558 950 69.8926 419.264 504.653
735 0 75.1527 13.2264 994 69.338 419.718 505.496
736 0 76.0951 12.8392 977 70.2784 420.049 504.908
737 0 80.201 13.5784 1089 68.3664 419.559 504.714
738 0 84.1011 14.328 1205 67.3859 419.255 500.294
739 0 87.1519 13.4019 1168 69.3579 419.118 498.712
740 1 48.093 12.5798 605 68.8231 419.306 519.562
741 0 47.0416 12.1807 573 69.1396 419.447 520.248
742 0 49.029 12.4824 612 69.4869 419.314 518.583
743 0 50.2233 12.7431 640 69.6438 419.134 516.295
744 0 53.1466 13.5098 718 68.4387 419.205 514.361
745 0 54.0538 13.0611 706 69.4688 419.276 514.167
746 0 56.0897 12.8009 718 69.1978 418.967 514.519
747 0 53.0461 12.5551 666 71.7372 418.689 511.228
748 0 58.0683 13.553 787 69.033 418.78 513.288
749 0 61.0354 14.1885 866 68.336 418.615 510.359
750 0 63.0836 14.8533 937 67.2785 419.229 510.38
751 0 64.0482 12.6936 813 70.5006 418.833 509.884
752 0 65.0573 13.2499 862 69.7784 418.723 509.404
753 0 66.0881 13.6636 903 69.9269 419.278 504.856
754 0 71.0935 12.9407 920 69.7141 418.766 507.167
755 0 73.0938 13.3117 973 69.2436 418.96 506.217
756 0 76.0656 13.2254 1006 69.2117 419.264 504.007
757 0 77.0918 12.5046 964 70.8807 419.232 502.75
758 0 80.0716 13.5004 1081 69.2507 419.934 502.262
759 0 83.0547 14.7854 1228 67.2443 419.514 499.156
760 0 83.1238 13.8348 1150 68.5357 419.428 498.815
761 0 87.1138 13.0175 1134 69.1834 419.571 498.242
762 0 90.0915 12.7093 1145 69.8358 419.521 495.039
763 0 93.1114 12.4582 1160 70.3983 418.545 492.213
764 1 46.0647 10.9629 505 70.8693 419.236 517.687
765 0 48.1312 11.2193 540 71.1574 419.033 515.313
766 0 51.1161 12.3249 630 68.5667 420.149 514.957
767 0 51.0286 11.2094 572 70.4371 419.33 515.009
768 0 56.0881 13.7284 770 66.4104 418.782 513.291
769 0 55.0597 14.0393 773 66.1811 418.627 512.798
770 0 57.039 11.6236 663 68.181 418.087 513.964
771 0 58.0482 11.9211 692 69.0751 419.285 509.708
772 0 61.0798 13.3432 815 66.6638 418.81 510.439
773 0 62.229 12.2933 765 68.0824 418.903 509.61
774 0 65.0851 11.8614 772 68.8964 418.575 507.091
775 0 69.1535 11.7131 810 68.3914 419.409 507.872
776 0 69.0722 12.0743 834 67.94 419.271 506.211
777 0 73.1576 12.808 937 66.9424 418.649 505.781
778 0 77.0952 13.3601 1030 66.1699 418.499 503.832
779 0 80.104 13.5324 1084 65.6928 418.492 503.061
780 0 80.112 13.6684 1095 66.5352 418.237 502.121
781 0 83.2239 14.1185 1175 66.143 419.062 497.649
782 0 84.1414 11.5757 974 69.2248 418.994 499.232
783 0 90.1193 13.4045 1208 65.957 419.177 499.221
784 0 91.0816 12.2528 1116 68.1254 419.357 495.842
785 0 97.0983 14.4905 1407 64.2274 418.645 494.414
786 1 49.1752 13.279 653 64.8101 418.487 517.06
787 0 50.0515 10.669 534 67.5749 418.311 517.425
788 0 52.0721 12.1562 633 66.4471 418.496 516.724
789 0 53.1029 10.4326 554 69.5397 418.105 513.859
790 0 56.0757 12.6258 708 66.7599 418.655 512.418
791 0 60.1826 12.4455 749 66.2844 418.511 511.641
792 0 59.1324 12.379 732 66.7541 418.357 512.015
793 0 61.0816 11.7056 715 67.1874 419.201 512.102
794 0 61.0572 12.6603 773 66.2199 419.515 510.04
795 0 66.0871 12.8164 847 65.7804 419.25 507.365
796 0 70.1666 13.7815 967 64.4871 418.464 508.295
797 0 72.0568 13.6836 986 64.8986 418.756 506.995
798 0 73.1917 13.1026 959 65.7039 418.685 506.307
799 0 75.0962 13.8223 1038 64.5385 419.423 505.058
800 0 78.0878 14.2916 1116 63.7339 418.915 501.928
801 0 82.0989 12.4362 1021 66.3193 419.132 500.478
802 0 85.1841 13.195 1124 65.1673 418.907 500.627
803 0 86.1757 13.3332 1149 65.4178 419.261 499.173
804 0 90.1894 13.1057 1182 65.5618 419.086 496.003
805 0 94.2293 12.6288 1190 65.658 418.771 496.239
806 0 95.1675 13.555 1290 64.7357 418.598 495.276
807 0 99.1286 12.8923 1278 65.3701 419.063 493.932
808 0 104.202 13.3011 1386 64.6659 418.905 491.765
809 1 55.1104 12.5203 690 64.3522 420.206 514.758
810 0 55.0887 12.4345 685 64.2555 419.711 515.041
811 0 57.1931 13.026 745 64.9423 420.102 512.078
812 0 56.1556 12.0202 675 67.083 419.659 509.502
813 0 59.2304 13.2027 782 63.9757 418.894 514.934
814 0 62.1086 13.3154 827 65.3289 419.467 510.054
815 0 63.1879 11.6161 734 67.3134 419.208 512.046
816 0 67.1146 14.2741 958 64.5574 419.304 509.352
817 0 69.1822 13.6451 944 65.3581 418.734 508.613
818 0 71.1934 14.0603 1001 65.1139 419.187 506.914
819 0 73.0467 13.0601 954 66.6845 418.657 506.195
820 0 80.0818 13.5112 1082 64.7237 418.974 506.486
821 0 79.1071 13.526 1070 65.6421 418.851 505.384
822 0 82.0332 13.8602 1137 65.9472 419.055 503.077
823 0 85.158 13.7274 1169 67.1292 419.083 498.755
824 0 88.1065 12.2692 1081 69.1693 419.113 498.09
825 0 92.3212 13.6913 1264 67.341 419.652 496.703
826 0 96.1182 13.9516 1341 67.343 419.272 495.78
827 0 98.1162 12.5056 1227 69.2347 419.369 498.139
828 0 102.223 13.9792 1429 67.8628 418.628 494.071
829 1 54.0838 11.3897 616 68.5227 418.498 519.255
830 0 52.0576 11.833 616 70.3312 418.714 516.8
831 0 55.0782 13.2539 730 68.8178 419.829 516.663
832 0 55.1421 12.5675 693 70.9177 418.629 513.356
833 0 61.1152 13.3191 814 68.3526 419.063 513.441
834 0 60.0995 12.446 748 70.2687 418.89 514.341
835 0 64.1189 12.8043 821 69.3605 418.762 512.686
836 0 66.048 12.7937 845 69.8178 418.832 511.186
837 0 68.1861 13.4631 918 68.3889 418.594 511.692
838 0 70.1955 13.6618 959 68.5558 418.124 509.07
839 0 72.1491 15.066 1087 66.3855 418.532 509.029
840 0 75.0738 13.1471 987 69.0669 418.689 506.555
841 0 77.1497 13.6229 1051 68.2398 418.828 507.121
842 0 81.1755 14.598 1185 67.0025 419.006 505.696
843 0 82.1633 13.2541 1089 68.7796 418.227 504.302
844 0 86.0979 13.9841 1204 67.8422 417.923 501.381
845 0 87.1085 13.6267 1187 68.4979 418.998 498.217
846 0 90.1539 13.3549 1204 69.2458 419.189 497.411
847 0 92.1656 14.3329 1321 67.9856 418.644 496.277
848 0 96.2164 14.0724 1354 67.1861 418.852 499.627
849 0 100.259 13.2058 1324 68.0219 418.843 499.037
850 0 103.112 13.335 1375 68.5724 418.92 492.893
851 1 51.0261 12.4446 635 69.1528 418.159 516.22
852 0 52.0246 11.4369 595 69.9277 418.75 517.477
853 0 56.0843 10.4307 585 70.0718 418.643 517.402
854 0 57.103 10.5774 604 71.0182 418.238 515.77
855 0 57.0256 12.8363 732 68.0874 418.381 514.291
856 0 61.1309 12.6941 776 68.2925 418.193 512.05
857 0 62.0807 14.755 916 65.7598 419.153 511.64
858 0 64.1875 13.3827 859 67.4575 418.847 512.459
859 0 68.1675 13.6722 932 66.5923 418.738 510.72
860 0 69.0292 14.0665 971 67.1607 418.783 507.747
861 0 71.0863 12.8436 913 70.0142 418.288 509.525
862 0 76.2168 13.8683 1057 68.1079 417.816 506.796
863 0 78.1452 14.921 1166 67.0978 418.356 506.413
864 0 80.2496 14.2555 1144 67.9712 418.748 503.905
865 0 84.1804 13.3404 1123 68.9955 418.98 503.421
866 0 83.1344 12.9068 1073 70.192 419.22 502.996
867 0 89.1156 13.5667 1209 68.2043 418.659 499.667
868 0 90.156 13.7983 1244 69.8497 418.49 500.55
869 0 93.0949 14.5658 1356 68.4875 419.586 498.886
870 0 96.1383 14.6664 1410 67.6879 418.524 500.148
871 0 98.238 13.5386 1330 69.7293 418.808 494.801
872 0 100.232 13.8379 1387 69.496 418.363 492.682
873 0 104.143 13.0494 1359 70.2185 418.695 494.327
874 0 107.132 13.5441 1451 69.459 418.595 491.499
875 0 110.267 15.9612 1760 66.4034 418.138 490.708
876 1 60.0753 13.2001 793 68.9193 417.962 514.834
877 0 59.1091 13.9742 826 67.8741 418.324 514.597
878 0 57.06 11.3039 645 71.7612 417.806 513.375
879 0 65.0874 13.1976 859 67.8871 417.745 513.149
880 0 63.1686 12.1896 770 70.3701 418.174 511.855
881 0 68.1824 14.1825 967 67.0631 417.856 512.039
882 0 69.0675 13.0452 901 68.6415 418.322 510.104
883 0 70.2351 15.3484 1078 65.9638 418.032 508.475
884 0 74.1693 14.4669 1073 66.972 417.421 507.052
885 0 75.17 13.9018 1045 67.0785 418.392 509.094
886 0 78.1967 13.4149 1049 68.1239 419.471 506.749
887 0 79.091 12.4161 982 68.9827 418.608 506.655
888 0 82.2844 13.1738 1084 68.4852 418.842 503.022
889 0 87.053 14.1178 1229 66.6168 419.174 501.893
890 0 89.1223 14.5642 1298 65.9869 417.643 500.163
891 0 89.1452 13.5173 1205 67.6747 418.241 496.768
892 0 94.0543 15.4698 1455 64.8426 418.307 494.655
893 0 96.2657 13.5978 1309 66.9022 418.692 494.937
894 0 100.087 12.609 1262 67.7647 418.002 491.063
895 0 103.137 13.6226 1405 66.3025 418.528 491.695
896 1 52.1907 12.5118 653 66.0046 418.688 516.727
897 0 51.0358 12.5794 642 67.176 418.695 514.125
898 0 57.1513 13.753 786 65.1959 418.737 514.48
899 0 58.1847 13.5946 791 65.5297 418.307 514.451
900 0 61.171 14.5167 888 64.4167 418.874 512.486
901 0 61.0452 13.5309 826 65.9516 418.43 511.653
902 0 64.0581 12.3482 791 66.6283 419.362 512.818
903 0 66.3196 13.8119 916 64.5175 418.62 511.787
904 0 66.1034 13.5243 894 65.5984 418.866 511.357
905 0 69.1282 13.6269 942 64.9278 418.643 510.669
906 0 71.0634 12.4959 888 66.8232 419.087 507.903
907 0 74.1992 13.4638 999 64.3934 418.983 509.218
908 0 76.0597 12.4639 948 66.019 419.006 508.016
909 0 76.1887 14.9629 1140 64.593 419.511 504.679
910 0 79.1839 12.351 978 67.0869 419.537 504.65
911 0 81.1929 13.6711 1110 66.4126 420.423 502.601
912 0 84.1405 14.2381 1198 65.1469 420.817 506.436
913 0 87.1032 14.0064 1220 65.3943 420.461 502.61
914 0 90.1023 13.2849 1197 66.406 419.772 500.409
915 0 91.2256 12.5842 1148 67.1829 419.861 500.965
916 0 95.1794 14.1312 1345 65.3405 420.001 498.897
917 0 97.1822 13.8914 1350 66.1378 420.155 495.006
918 0 98.1009 13.1293 1288 66.9317 419.53 497.922
919 0 101.144 12.4674 1261 67.8929 418.96 494.546
920 0 105.284 14.0192 1476 66.7873 419.018 492.86
921 0 108.213 15.1183 1636 65.8417 419.042 491.935
922 0 112.243 13.8272 1552 67.2887 419.002 490.784
923 0 113.259 13.8179 1565 67.4639 418.235 490.961
924 0 117.176 12.7927 1499 68.7932 418.498 487.443
925 0 120.462 13.2656 1598 69.0957 418.528 482.593
926 0 125.172 13.4934 1689 68.865 418.335 482.047
927 0 127.328 13.6419 1737 69.5953 418.576 479.686
928 0 134.371 13.7828 1852 69.2538 418.855 477.998
929 0 139.242 14.6149 2035 68.9145 418.871 476.643
930 0 140.454 13.9547 1960 70.551 418.938 475.999
931 0 147.307 16.2382 2392 67.9009 419.332 474.425
932 0 150.487 13.1108 1973 72.7694 419.164 471.669
933 0 153.366 13.8493 2124 72.5047 418.872 468.542
934 0 159.209 14.4339 2298 72.0748 418.932 468.258
935 1 81.1356 11.6841 948 70.5928 419.564 506.077
936 0 83.2121 12.3059 1024 70.3135 419.733 505.092
937 0 84.281 11.2006 944 71.6017 418.971 504.159
938 0 89.12 14.0372 1251 69.4053 418.573 501.005
939 0 90.2597 12.453 1124 70.1379 418.784 503.194
940 0 94.4578 13.1911 1246 70.0514 419.102 498.241
941 0 98.374 13.4487 1323 69.1285 418.116 499.605
942 0 101.169 13.8876 1405 69.2961 418.562 497.99
943 0 101.137 12.0728 1221 71.5553 419.104 496.677
944 1 57.1535 14.3998 823 67.6622 419.44 516.774
945 0 56.0762 13.0715 733 70.0709 419.274 517.183
946 0 59.49 11.8844 707 71.5219 419.584 515.864
947 0 62.0924 14.108 876 69.2089 419.539 513.167
948 0 63.3293 13.0587 827 70.3216 419.365 515.012
949 0 67.3034 14.5609 980 68.6612 418.938 512.668
950 0 67.267 14.1972 955 70.1277 419.237 510.6
951 0 69.2498 14.0073 970 70.7897 420.039 510.163
952 0 73.3203 14.0616 1031 69.8186 419.37 510.694
953 0 72.1826 11.7064 845 73.9124 419.45 509.839
954 0 76.3155 12.6187 963 72.3801 419.594 508.69
955 0 78.1664 13.5224 1057 71.5875 419.792 507.623
956 0 81.3445 14.2972 1163 70.9097 418.86 506.043
957 0 82.4218 14.7534 1216 71.097 419.402 503.169
958 0 83.1513 14.0828 1171 72.2468 418.598 504.769
959 0 87.1277 13.968 1217 72.7707 419.125 500.365
960 0 90.2784 12.4725 1126 73.5142 420.071 504.149
961 0 93.1863 13.7681 1283 72.855 420.527 500.44
962 0 95.2411 14.437 1375 72.7673 420.265 497.687
963 0 97.1115 12.3981 1204 74.3962 419.6 500.968
964 0 99.2456 13.522 1342 73.5604 419.808 497.197
965 0 99.1663 12.4437 1234 75.3525 419.592 497.622
966 0 103.418 12.9765 1342 74.8703 419.567 494.523
967 0 104.301 13.298 1387 74.9575 419.637 491.9
968 0 108.297 13.6845 1482 74.6572 419.669 490.219
969 0 112.357 13.92 1564 73.9469 419.655 489.624
970 0 105.159 9.24311 972 70.0113 420.208 483.58
971 0 106.297 11.0822 1178 67.7139 419.701 479.649
972 0 105.207 9.09638 957 68.7544 419.123 476.613
973 0 99.1128 6.00326 595 77.1025 419.097 461.756
974 1 72.0791 9.76705 704 74.9361 419.338 461.996
975 1 94.1607 9.11208 858 73.0175 419.428 461.217
976 1 67.0658 12.9723 870 73.377 418.823 458.501
977 0 70.0792 13.0852 917 73.614 419.216 457.745
978 0 70.067 12.117 849 75.8386 419.625 456.247
979 0 73.0892 13.7366 1004 73.5388 419.651 454.617
980 0 75.1162 13.0198 978 73.8926 419.793 456.299
981 0 77.0639 14.754 1137 72.4872 419.005 454.038
