time division length width area intensity CMx CMy
0 0 41.0405 10.112 415 67.7374 125.487 514.135
1 0 41.0653 11.6644 479 65.5908 124.858 514.578
2 0 42.0382 12.6314 531 64.0678 125.403 513.81
3 0 44.0539 12.9614 571 63.3012 125.105 514.686
4 0 43.0199 12.0642 519 64.975 124.314 515.071
5 0 42.0923 9.76425 411 69.983 123.382 513.397
6 0 45.0781 10.9366 493 67.1481 124.28 515.99
7 0 48.0783 12.2093 587 65.7513 124.302 514.608
8 0 46.0609 11.4414 527 68.3871 124.235 514.127
9 0 46.0525 11.8995 548 68.2792 123.883 514.029
10 0 49.0651 12.5548 616 66.3198 123.711 513.662
11 0 50.0189 13.275 664 65.7259 122.863 512.943
12 0 51.0488 12.1061 618 67.1181 123.523 513.626
13 0 51.0338 12.4035 633 66.9889 123.833 514.014
14 0 51.0552 11.8695 606 68.1139 123.267 514.952
15 0 52.121 12.5094 652 68.1886 123.727 513.136
16 0 57.1029 12.8365 733 66.221 124.518 514.423
17 0 56.0868 13.0156 730 67.7808 123.329 512.23
18 0 57.039 13.2541 756 67.5238 123.484 511.382
19 0 59.1154 12.8562 760 67.5092 123.596 511.218
20 0 60.0331 12.3598 742 68.9474 123.403 509.472
21 0 61.0596 13.8062 843 66.8102 123.336 508.782
22 0 63.0564 13.5593 855 67.0842 123.193 508.848
23 0 63.0958 13.5667 856 67.8528 122.873 507.889
24 0 65.0492 12.283 799 69.6558 123.173 507.148
25 0 67.1407 12.228 821 69.296 123.002 506.918
26 0 71.0458 12.6397 898 68.8196 123.46 505.879
27 0 71.1628 13.4059 954 68.608 122.81 504.717
28 0 74.0354 12.9668 960 68.901 123.412 504.901
29 0 77.0461 13.2258 1019 68.5633 124.494 504.363
30 1 38.0945 11.0515 421 71.6746 124.321 520.572
31 0 41.0114 13.484 553 68.7975 124.3 519.105
32 0 41.0163 11.0444 453 71.649 124.305 519.876
33 0 43.0152 11.647 501 71.1996 123.956 518.918
34 0 43.0325 13.3155 573 69.5358 123.089 516.937
35 0 44.253 11.8862 526 71.8973 123.918 516.553
36 0 47.0512 13.8998 654 67.9113 124.511 516.063
37 0 47.0518 11.1792 526 72.6616 124.2 514.939
38 0 49.0591 12.9436 635 69.2677 124.6 517.228
39 0 49.0806 12.3267 605 70.9488 124.712 516.841
40 0 52.027 13.3008 692 69.6185 125.354 515.062
41 0 54.0497 13.6726 739 69.2382 124.74 514.938
42 0 53.1015 11.7322 623 72.9615 124.156 513.899
43 0 55.0867 13.0158 717 72.1241 124.609 510.363
44 0 57.0568 12.7592 728 73.4835 124.379 509.832
45 0 58.0695 12.6056 732 72.515 124.72 512.352
46 0 59.0391 12.0937 714 73.7899 124.65 511.924
47 0 62.1136 13.5558 842 72.5083 124.438 509.702
48 0 65.0608 14.2021 924 72.092 124.424 507.182
49 0 67.0425 13.7226 920 73.0326 124.961 509.279
50 0 68.0508 11.8147 804 76.1654 124.563 508.131
51 0 70.0445 15.0618 1055 72.3583 124.699 506.469
52 0 72.0466 13.0471 940 74.9957 124.91 504.59
53 0 73.1114 13.1307 960 76.2198 124.93 503.605
54 0 74.089 12.9439 959 77.1919 125.311 501.885
55 0 79.1217 13.2075 1045 76.0718 124.628 502.682
56 0 81.066 13.0758 1060 76.9934 124.692 501.16
57 0 82.0998 11.9489 981 79.4281 125.448 500.528
58 0 84.081 12.821 1078 77.7616 126.327 500.73
59 0 85.0545 13.0622 1111 78.3663 125.292 499.085
60 0 88.1263 13.4353 1184 78.2964 125.623 496.032
61 0 92.0666 12.4258 1144 79.1486 125.87 495.433
62 0 94.0917 14.1883 1335 76.5184 124.873 495.871
63 0 96.2876 12.6081 1214 79.1853 124.757 494.301
64 0 100.089 14.3872 1440 76.7458 125.442 490.598
65 0 103.079 13.0774 1348 79.4362 126.088 488.349
66 1 56.0643 12.2716 688 78.5392 125.74 512.651
67 0 56.0671 12.3424 692 79.5477 126.14 510.712
68 0 58.0353 12.6475 734 79.7044 125.331 510.061
69 0 59.0448 13.0748 772 79.6516 124.885 508.776
70 0 62.0221 12.9631 804 79.3284 125.056 508.474
71 0 66.0522 13.8981 918 78.5076 124.575 505.8
72 0 67.1589 13.952 937 78.3703 124.951 506.489
73 0 69.1164 12.7032 878 80.9317 124.714 504.921
74 0 71.0413 12.908 917 80.9095 124.763 504.675
75 0 73.1249 12.6496 925 81.1805 125.65 504.307
76 0 77.0384 13.8762 1069 79.9598 125.734 501.494
77 0 78.0569 12.9009 1007 82.0566 124.989 499.998
78 0 80.0836 13.3361 1068 81.692 125.72 500.116
79 0 83.1304 12.4984 1039 83.4023 125.734 497.502
80 1 45.0385 12.7447 574 79.9251 125.368 516.735
81 0 43.0339 11.7117 504 83.3115 125.137 516.817
82 0 47.101 11.486 541 82.3882 125.763 516.359
83 0 48.0988 12.2248 588 82.1735 125.566 514.736
84 0 49.041 12.3978 608 82.3947 125.275 513.548
85 0 51.0272 12.8559 656 80.3994 125.77 514.665
86 0 53.0198 13.0329 691 80.0391 126.214 512.37
87 0 55.0752 12.0744 665 81.1113 125.992 511.723
88 0 57.0864 12.2271 698 80.6261 125.927 509.808
89 0 57.0288 12.0465 687 80.6739 125.898 510.442
90 0 58.0864 13.1872 766 79.6658 126.189 508.044
91 0 62.0525 12.3122 764 80.534 125.908 507.614
92 0 64.0853 13.248 849 78.2179 125.842 507.578
93 0 66.0637 12.2155 807 78.8278 125.125 509.595
94 0 67.0856 12.5213 840 80.1667 124.785 503.224
95 0 69.0493 12.8459 887 78.9887 124.842 503.999
96 0 73.0907 13.0933 957 77.9509 124.856 503.145
97 0 73.1302 12.7034 929 79.7998 125.249 499.89
98 0 77.0959 13.5027 1041 78.4015 125.122 499.158
99 0 80.0411 13.8054 1105 76.5348 124.82 500.357
100 0 82.0439 13.1515 1079 78.456 125.14 497.843
101 1 43.0121 10.9039 469 79.1855 125.539 517.382
102 0 43.0253 11.2492 484 79.1302 125.426 516.264
103 0 43.023 11.0639 476 80.6513 125.227 514.895
104 0 47.0721 12.8526 605 76.6711 125.451 515.086
105 0 47.0773 12.5963 593 77.1636 126.231 514.277
106 0 48.0707 12.9601 623 77.557 124.907 512.53
107 0 50.0505 11.4884 575 79.527 125.475 512.13
108 0 53.0491 13.1765 699 68.7768 125.329 512.206
109 0 52.0469 11.4896 598 78.7458 125.196 510.182
110 0 54.099 13.3829 724 75.9309 125.604 507.457
111 0 56.0335 13.0993 734 75.8174 125.083 508.034
112 0 58.0923 12.4974 726 76.8815 125.459 506.35
113 0 60.0441 12.9904 780 76.2436 125.362 505.091
114 0 61.0122 13.1941 805 75.3491 125.188 505.278
115 0 64.0964 12.9024 827 76 125.967 504.677
116 0 66.0221 14.0407 927 74.4444 125.785 502.273
117 0 69.0879 12.6361 873 76.4559 125.49 502.651
118 0 71.0716 13.2683 943 75.4624 125.638 500.976
119 0 75.0556 14.4293 1083 73.482 125.342 499.424
120 0 77.0744 13.2599 1022 74.6546 125.177 499.342
121 0 77.0952 12.6208 973 76.8561 125.202 497.169
122 0 81.078 12.3461 1001 77.0939 125.298 497.462
123 0 83.0412 13.6318 1132 74.7756 125.422 496.996
124 0 85.0347 13.2416 1126 76.1261 125.369 495.054
125 0 88.0642 13.899 1224 75.1479 124.311 491.94
126 0 89.1679 12.0671 1076 78.8578 124.01 489.848
127 0 94.1899 13.4622 1268 75.4976 124.511 489.516
128 1 45.0363 12.39 558 74.3369 126.102 513.943
129 0 46.0543 11.6384 536 76.4888 126.067 512.172
130 0 48.038 12.3444 593 74.3541 125.206 511.676
131 0 50.0158 12.9359 647 73.085 124.818 509.292
132 0 51.0426 13.0479 666 72.3498 125.195 510.52
133 0 54.0357 13.7132 741 70.9622 125.502 509.07
134 0 54.0136 12.1636 657 73.8508 125.522 509.263
135 0 57.1138 13.2542 757 70.9406 125.69 508.366
136 0 60.0642 12.3201 740 71.4216 125.551 507.693
137 0 60.0606 13.1201 788 70.9188 125.363 505.463
138 0 62.0357 13.3633 829 70.7841 125.043 503.23
139 0 62.0665 11.4393 710 74.4014 125.185 503.796
140 0 66.08 12.0611 797 72.8996 125.764 503.98
141 0 69.0655 12.6402 873 72.0458 125.584 502.228
142 0 70.1342 12.8326 900 72.2 125.966 500.361
143 0 72.0941 12.6363 911 72.7585 125.146 498.061
144 0 74.0516 13.5716 1005 70.8637 125.845 498.56
145 0 78.0748 12.6545 988 72.6781 125.425 495.545
146 0 77.0564 12.3157 949 73.6502 125.43 494.298
147 0 82.0526 13.3207 1093 71.8307 124.918 495.035
148 0 85.1196 13.064 1112 72.1655 125.127 494.594
149 1 45.0244 10.3055 464 72.6379 124.737 514.72
150 0 45.0173 10.4182 469 73.8465 125.546 513.486
151 0 44.0475 10.7611 474 73.2468 124.973 513.266
152 0 47.122 12.2448 577 70.9879 125.227 512.18
153 0 48.1694 12.29 592 71.2247 124.943 511.299
154 0 51.1603 13.2916 680 68.6853 125.704 511.832
155 0 51.0902 12.566 642 70.3801 125.522 510.174
156 0 52.1062 11.8412 617 71.1361 125.935 510.927
157 0 54.1407 12.8554 696 69.6782 124.736 507.914
158 0 55.1494 10.8251 597 72.3685 125.444 509.348
159 0 57.1332 13.2672 758 68.967 125.135 506.679
160 0 58.1237 11.4239 664 71.9608 125.071 506.434
161 0 60.1669 11.6675 702 71.8148 125.127 505.906
162 0 62.2294 13.6752 851 68.4571 125.137 504.271
163 0 62.1111 11.0286 685 72.2467 125.384 503.244
164 0 65.0672 12.464 811 69.8175 124.625 503.268
165 0 66.0976 12.2546 810 70.2457 125.716 502.469
166 0 70.0751 13.2857 931 68.2578 125.734 501.441
167 0 73.1177 12.5961 921 69.3236 125.066 497.617
168 0 73.0803 10.9195 798 71.985 125.487 499.175
169 0 75.0338 11.0484 829 71.0555 124.949 496.973
170 0 79.0966 11.9474 945 69.71 125.495 497.042
171 1 38.0142 10.6539 405 70.7802 125.052 513.652
172 0 43.0522 9.98788 430 68.793 125.491 516.735
173 0 43.0558 11.3341 488 68.6762 125.082 514.34
174 0 45.1387 12.1847 550 67.8964 125.625 513.367
175 0 46.043 12.4666 574 67.3571 125.037 512.052
176 0 47.1342 11.1172 524 70.0859 125.084 510.802
177 0 47.0414 12.5846 592 68.3851 124.765 511.106
178 0 50.0841 11.8201 592 69.0017 125.157 509.698
179 0 51.092 11.9588 611 68.1146 126.133 511.452
180 0 52.059 11.6214 605 69.5091 126.147 509.417
181 0 55.0871 12.1263 668 68.3293 126.254 508.515
182 0 56.1021 13.7072 769 66.645 125.904 506.166
183 0 58.0556 11.6096 674 68.9421 125.384 508.217
184 0 59.1097 13.4834 797 66.6274 124.997 507.253
185 0 60.0246 13.3945 804 67.0622 124.478 506.313
186 0 61.0553 12.0219 734 69.2398 123.929 505.684
187 0 63.0289 12.4705 786 68.3359 123.925 503.637
188 0 65.0868 12.4296 809 68.1409 123.439 504.837
189 0 68.0334 13.5375 921 66.9403 123.871 502.1
190 0 70.0297 12.6661 887 67.9143 123.372 502.478
191 0 73.0416 12.5819 919 68.099 123.002 502.337
192 0 72.0274 11.6206 837 70.9737 123.392 500.56
193 0 75.1139 11.396 856 70.6437 123.324 502.24
194 1 40.0192 9.67037 387 71.5375 123.282 519.959
195 0 40.0644 10.2335 410 71.361 122.38 518.917
196 0 44.0802 12.3638 545 68.0917 123.215 518.196
197 0 43.0397 11.3616 489 71.0389 123.812 517.585
198 0 46.0516 10.814 498 70.7811 123.373 518.458
199 0 46.0256 11.0373 508 71.4291 122.409 518.911
200 0 47.0482 11.9239 561 70.2692 121.966 517.506
201 0 50.0221 11.7748 589 70.1341 122.593 516.91
202 0 51.0241 11.132 568 71.3046 121.977 516.974
203 0 53.0275 12.2201 648 68.9522 121.514 516.156
204 0 54.0917 12.183 659 69.2989 121.602 515.754
205 0 56.0604 11.7017 656 69.9543 121.427 514.93
206 0 57.1066 10.7518 614 71.1384 121.217 515.016
207 0 58.0506 11.3866 661 69.7428 122.159 514.554
208 0 60.0128 11.2643 676 69.5917 121.925 513.891
209 0 63.027 12.1377 765 65.6157 121.949 517.102
210 0 65.0362 11.532 750 67.2387 121.524 513.955
211 0 67.0782 12.0009 805 65.6944 121.882 511.25
212 0 69.0765 12.1604 840 65.7238 121.615 509.486
213 0 72.1118 11.5792 835 65.2407 120.812 510.083
214 0 74.1566 11.2195 832 66.0685 120.909 508.287
215 0 76.1898 10.7495 819 67.0781 120.667 504.893
216 0 76.1268 9.77316 744 68.3978 120.863 506.23
217 0 79.0436 12.2591 969 65.2642 120.202 504.538
218 1 41.0392 10.9895 451 64.6984 120.109 523.317
219 0 42.0296 11.4443 481 63.817 120.96 521.694
220 0 42.0572 10.6997 450 65.3178 120.24 521.436
221 0 44.0089 10.8842 479 64.6534 119.906 520.463
222 0 44.0499 11.5778 510 64.3726 120.722 519.3
223 0 46.1531 12.5019 577 62.8319 120.475 517.943
224 0 48.0497 9.53179 458 66.1638 120.035 518.369
225 0 49.0603 13.5548 665 62.2842 119.197 516.138
226 0 48.1142 10.5374 507 65.9014 119.779 516.882
227 0 52.1357 10.1274 528 65.5057 119.106 515.799
228 0 53.1147 12.6707 673 62.9064 120.183 513.499
229 0 56.1092 11.9945 673 62.2496 120.273 514.403
230 0 55.2895 11.7201 648 63.6343 119.985 511.537
231 0 56.1324 9.21036 517 65.8414 120.151 513.201
232 0 59.0786 11.527 681 62.8987 120.537 510.717
233 0 61.078 11.9683 731 62.6484 120.32 508.767
234 0 63.0384 11.0726 698 63.9642 119.821 508.116
235 0 65.068 11.2805 734 63.9891 120.104 506.3
236 0 67.0928 11.5661 776 63.6946 120.402 506.057
237 0 69.0455 12.4411 859 62.6903 119.952 503.476
238 0 71.0927 11.914 847 63.327 120.506 503.211
239 0 71.0669 11.8621 843 64.4543 120.45 499.388
240 0 75.0597 12.6433 949 63.3172 120.725 499.112
241 0 79.1366 12.1309 960 63.9115 120.692 499.822
242 0 81.1713 13.4161 1089 62.3848 120.803 497.306
243 0 84.068 12.6683 1065 63.0507 120.274 496.19
244 0 84.2405 12.9629 1092 63.9139 119.95 494.011
245 0 85.0401 10.9713 933 66.4845 120.77 493.659
246 0 91.1614 12.1433 1107 65.1292 121.277 491.792
247 1 48.1247 10.2234 492 67.4085 120.681 514.693
248 0 49.0519 11.0291 541 66.6137 121.081 513.333
249 0 48.0495 11.3216 544 67.3456 121.616 512.09
250 0 51.032 11.385 581 66.7969 121.258 513.861
251 0 51.0579 10.4783 535 68.7551 120.738 514.278
252 0 55.071 11.3308 624 66.9599 120.692 513.905
253 0 57.0871 11.7014 668 66.5988 120.644 511.877
254 0 58.0543 12.6089 732 65.4891 121.227 510.975
255 0 59.1987 11.453 678 67.0737 120.785 512.119
256 0 60.0752 12.9671 779 65.4762 120.768 508.676
257 0 63.0513 11.9902 756 65.7209 120.954 509.179
258 0 63.0416 11.2783 711 67.2968 120.918 509.293
259 0 65.1373 11.2839 735 66.7129 120.614 509.468
260 0 66.0579 12.6253 834 64.7698 120.447 509.464
261 0 70.2662 12.0826 849 65.192 120.509 509.205
262 0 70.0446 10.6646 747 67.7149 120.578 507.186
263 0 75.0551 12.1644 913 65.4217 121.299 506.59
264 0 75.1761 11.626 874 66.3638 120.606 506.939
265 0 77.1371 11.3823 878 67.9579 120.237 503.096
266 0 81.0908 12.1469 985 66.1787 119.876 504.724
267 0 84.109 12.9713 1091 65.2841 119.873 501.734
268 0 85.1893 12.8889 1098 66.3069 119.75 499.791
269 0 87.1456 12.416 1082 66.9473 119.826 502.209
270 0 90.1147 13.4162 1209 66.2051 119.948 500.366
271 1 47.0374 12.3731 582 67.5859 119.907 519.641
272 0 50.0186 12.0355 602 68.1163 119.944 519.867
273 0 50.0218 11.2551 563 69.9005 119.806 519.162
274 0 50.0222 12.5544 628 68.2404 120.083 518.694
275 0 54.0333 10.3455 559 70.4848 119.42 517.792
276 0 56.0335 10.7079 600 69.6517 119.578 516.518
277 0 55.0204 11.0141 606 70.3977 119.584 514.88
278 0 59.0271 11.9098 703 68.2233 119.767 515.356
279 0 58.0825 11.8108 686 69.3746 119.743 513.493
280 0 62.069 12.76 792 67.1439 120.352 515.294
281 0 65.0597 13.234 861 66.1591 119.643 512.013
282 0 67.062 13.1371 881 66.689 119.27 511.257
283 0 68.0324 13.229 900 66.7144 119.68 508.489
284 0 70.0697 12.3877 868 67.4194 119.318 507.873
285 0 73.0448 12.3212 900 66.4911 118.562 509.697
286 0 73.0552 12.1963 891 68.1324 119.104 505.532
287 0 76.1564 13.2622 1010 66.4218 118.895 504.892
288 0 81.1555 13.2585 1076 65.6199 119.295 504.665
289 0 81.0381 13.0803 1060 66.5745 119.081 502.564
290 0 85.0499 12.475 1061 66.6946 119.004 502.806
291 0 89.102 13.1984 1176 65.8308 119.178 502.157
292 0 90.0486 12.6598 1140 67.2649 119.09 499.328
293 1 48.0442 11.0107 529 68.3478 119.335 520.992
294 0 48.0271 12.2014 586 68.0068 119.596 518.334
295 0 51.0162 11.5257 588 68.6769 119.537 518.944
296 0 52.1038 11.669 608 68.1447 119.015 519.23
297 0 54.0194 12.2549 662 68.1843 118.609 515.961
298 0 54.0118 11.6641 630 69.6952 118.868 514.592
299 0 56.0155 11.4433 641 70.0998 118.919 514.565
300 0 58.067 11.2112 651 69.7665 119.553 513.916
301 0 61.0592 12.1685 743 68 118.965 511.191
302 0 60.042 11.5086 691 69.3821 118.706 510.77
303 0 64.1062 12.3701 793 67.6873 118.468 509.788
304 0 64.0413 12.5544 804 67.1082 117.835 508.67
305 0 67.0606 12.4514 835 66.8168 117.663 510.836
306 0 68.0794 12.3826 843 67.6868 117.837 507.558
307 0 71.0383 13.5983 966 66.1625 117.638 506.893
308 0 72.0393 11.9796 863 68.8158 118.725 506.083
309 0 75.0674 12.7219 955 67.7937 118.441 501.848
310 0 77.128 13.4063 1034 66.5435 117.734 503.941
311 0 79.0898 13.1623 1041 66.9971 118.393 504.467
312 0 82.1249 13.2238 1086 67.4779 117.687 500.093
313 0 86.1297 13.5029 1163 66.2666 117.059 501.025
314 0 87.0832 12.0115 1046 68.8891 118.01 501.662
315 0 89.0698 12.8775 1147 68.4516 117.815 497.872
316 0 91.1005 12.9308 1178 68.7122 117.938 497.23
317 0 96.1167 13.8894 1335 67.6599 118.297 493.742
318 1 52.0502 13.1604 685 66.7577 118.353 516.521
319 0 54.0639 12.4852 675 68.7482 118.745 514.133
320 0 55.0369 11.9374 657 69.3577 118.447 514.212
321 0 57.1003 12.9947 742 67.7129 117.801 514.371
322 0 59.0542 11.8705 701 69.0642 118.081 512.429
323 0 59.0621 11.0392 652 70.3635 117.725 513.589
324 0 61.0779 11.6081 709 69.536 118.35 510.839
325 0 64.049 11.663 747 69.2878 118.09 510.485
326 0 66.0473 13.1875 871 67.0023 118.967 509.179
327 0 65.0714 11.3107 736 71.3682 118.886 506.992
328 0 70.1093 13.3649 937 67.318 119.22 508.26
329 0 71.0464 12.344 877 69.7001 118.616 506.684
330 0 73.1008 12.0655 882 70.0272 117.983 504.788
331 0 76.1197 13.5445 1031 67.1891 118.009 506.416
332 0 77.0197 13.3992 1032 68.8605 118.538 503.104
333 0 81.093 12.5288 1016 69.2569 118.978 502.879
334 0 85.1603 12.588 1072 68.9515 119.102 502.653
335 0 86.046 13.5393 1165 68.036 118.071 499.604
336 0 87.0732 11.5535 1006 71.5427 118.305 498.909
337 1 42.0701 11.1481 469 69.5245 118.435 520.996
338 0 43.1978 11.2506 486 69.8724 118.846 520.451
339 0 45.0941 12.7068 573 68.4974 118.997 517.829
340 0 48.1162 11.3268 545 69.2807 119.229 518.78
341 0 48.1297 12.3209 593 69.0388 118.069 516.578
342 0 48.1296 11.4275 550 71.2927 118.68 515.595
343 0 50.0851 11.9197 597 70.0285 118.714 514.427
344 0 51.0731 12.3744 632 68.9098 118.582 514.636
345 0 52.051 11.6809 608 70.2878 119.02 514.625
346 0 52.0318 11.6083 604 70.9868 118.993 514
347 0 55.0588 11.8964 655 69.3298 118.669 514.944
348 0 57.0917 11.718 669 69.4903 118.42 514.463
349 0 58.1135 12.51 727 68.7056 118.527 509.605
350 0 59.0515 12.1589 718 69.4638 118.319 509.166
351 0 61.0427 12.1718 743 68.9502 118.7 510.705
352 0 65.1461 12.1419 791 68.507 118.209 509.458
353 0 67.0278 13.3377 894 67.0246 118.547 507.496
354 0 68.2017 13.3134 908 66.9482 118.729 507.324
355 0 69.0717 12.6535 874 68.0378 119.611 507.034
356 0 70.117 11.2098 786 70.1349 119.173 505.991
357 0 74.1685 12.9974 964 67.7998 119.228 504.797
358 0 77.2404 12.8819 995 67.3166 118.883 502.391
359 1 38.1122 10.3117 393 68.2748 118.59 521.275
360 0 39.0186 9.86708 385 68.5299 119.296 522.086
361 0 38.0169 11.7053 445 66.9798 118.721 520.802
362 0 42.0503 10.0832 424 68.0637 118.606 520.953
363 0 43.1351 12.2406 528 65.3182 118.597 519.214
364 0 44.0277 11.788 519 66.659 118.711 518.262
365 0 46.1469 11.5717 534 66.6255 119.198 516.605
366 0 46.0958 10.6083 489 69.4969 119.37 516.932
367 0 48.0218 11.4531 550 67.3273 118.115 516.393
368 0 51.1344 12.4965 639 65.7058 118.629 514.158
369 0 51.0685 11.7489 600 66.9367 118.803 513.865
370 0 52.0883 12.978 676 64.605 118.697 514.287
371 0 55.105 11.3783 627 66.7496 118.691 513.249
372 0 56.2334 13.1061 737 64.6472 118.274 512.573
373 0 57.1241 12.114 692 65.672 118.788 511.014
374 0 59.1167 11.2828 667 66.4243 119.18 512.357
375 0 60.0626 12.0041 721 65.871 119.168 507.043
376 0 62.0888 12.4982 776 65.1559 119.432 509.303
377 0 62.0498 9.50848 590 69.1441 118.941 508.039
378 0 64.0778 10.9554 702 67.6311 119.054 506.843
379 0 68.0321 11.3476 772 66.93 118.264 505.972
380 0 69.1631 11.509 796 66.8379 118.216 504.922
381 0 72.079 9.73932 702 68.5185 118.038 505.499
382 0 74.1165 12.1835 903 65.691 117.972 502.711
383 0 77.1308 11.863 915 66.165 118.515 500.844
384 0 77.1153 10.7372 828 68.2198 118.508 499.386
385 0 78.2354 10.1233 792 69.3737 119.234 495.092
386 0 86.2533 11.8836 1025 65.0351 118.712 502.161
387 0 88.3154 10.8362 957 67.4713 118.285 497.494
388 1 46.0709 10.028 462 67.2424 118.712 519.476
389 0 48.027 11.8683 570 65.3386 118.66 516.579
390 0 49.1167 11.8086 580 66.5155 119.507 514.379
391 0 50.097 10.7591 539 67.9332 120.122 516.202
392 0 55.0759 12.855 708 64.8122 119.739 513.657
393 0 56.0657 13.2523 743 64.7039 119.339 513.565
394 0 57.179 11.875 679 66.3873 118.904 513.44
395 0 56.1238 12.4903 701 66.4023 118.802 514.047
396 0 58.0564 11.5922 673 67.529 118.979 512.339
397 0 60.07 12.2191 734 65.8937 118.696 514.222
398 0 63.2221 12.8594 813 65.6052 119.151 510.402
399 0 64.0708 12.0492 772 66.7979 119.268 511.001
400 0 65.0531 13.3429 868 65.5369 119.056 510.031
401 0 67.0959 13.1454 882 65.3617 119.172 506.999
402 0 68.1617 12.5584 856 66.7407 119.343 507.199
403 0 68.0445 11.4778 781 68.2663 120.085 504.617
404 0 74.0768 12.0011 889 66.6884 120.384 505.938
405 0 74.1643 11.3262 840 67.6548 120.352 506.248
406 0 77.1805 12.3088 950 66.8874 119.835 502.706
407 0 80.1653 11.0147 883 67.8347 120.412 502.647
408 1 44.0359 10.3098 454 66.9537 119.738 519.694
409 0 44.0672 10.0074 441 69.0386 119.435 517.549
410 0 46.0554 12.0941 557 65.9928 118.786 516.801
411 0 48.2836 11.391 550 66.3855 118.524 517.7
412 0 49.049 11.9676 587 66.1124 118.63 516.043
413 0 52.1712 11.6923 610 65.823 119.089 516.761
414 0 51.1799 12.0555 617 66.987 119.083 513.206
415 0 54.1056 12.5495 679 66.0324 118.822 513.651
416 0 57.0494 13.8477 790 63.7734 118.641 514.552
417 0 56.1158 11.8327 664 67.7229 119.14 511.003
418 0 58.0371 12.8883 748 66.1471 119.274 511.303
419 0 59.1342 10.8567 642 68.8271 118.36 512.025
420 0 64.0499 12.7401 816 65.4105 117.909 510.993
421 0 65.1193 12.9608 844 64.955 118.027 510.314
422 0 66.1024 11.104 734 67.7466 118.817 505.714
423 0 69.1579 12.3485 854 65.8466 118.965 505.665
424 0 71.1125 11.9107 847 65.8701 118.806 504.458
425 0 73.137 12.6201 923 64.4225 118.564 504.426
426 0 74.129 12.5862 933 65.4673 118.645 501.088
427 0 79.1469 12.2557 970 65.0423 118.681 500.763
428 0 81.026 12.1936 988 64.9049 119.144 500.02
429 0 85.0903 12.7159 1082 63.6627 118.552 497.892
430 0 86.1958 13.2025 1138 63.0483 118.934 498.412
431 0 88.0658 11.8888 1047 65.2827 118.451 493.769
432 1 42.0742 12.0739 508 63.1988 118.724 518.785
433 0 44.046 10.1939 449 65.1114 118.305 517.806
434 0 47.0476 12.1792 573 64.1588 119.424 514.921
435 0 47.0993 11.1679 526 65.6654 119.764 514.859
436 0 49.0155 11.9146 584 63.9418 119.277 515.601
437 0 52.0755 11.5601 602 64.8007 119.487 515.701
438 0 51.0357 11.9916 612 64.5 118.993 512.199
439 0 52.0454 11.3747 592 65.5203 118.552 512.465
440 0 53.034 11.7472 623 64.8989 118.178 514.777
441 0 55.1037 11.9411 658 64.8556 118.638 512.67
442 0 59.036 12.738 752 63.637 118.863 511.005
443 0 59.1117 12.6709 749 64.2176 119.344 511.188
444 0 63.1256 12.8157 809 63.5241 118.949 508.963
445 0 63.1171 11.2331 709 65.9915 119.293 510.559
446 0 65.0644 11.8037 768 65.1068 119.22 510.316
447 0 67.0261 11.8909 797 65.4504 118.54 507.08
448 0 70.0829 12.2997 862 64.8573 118.601 503.906
449 0 74.0848 10.8254 802 65.6571 118.53 506.746
450 0 77.0668 10.8218 834 65.8813 118.941 503.156
451 0 80.1554 11.4278 916 65.0852 118.348 504.245
452 0 83.0364 11.1879 929 66.0075 118.75 502.323
453 0 83.1191 11.4053 948 66.3038 118.833 500.743
454 1 41.0321 10.7721 442 65.6652 118.595 517.903
455 0 45.0398 10.8571 489 64.0777 119.427 521.425
456 0 43.0417 11.1055 478 65.5105 119.023 519.841
457 0 47.1143 11.7374 553 64.2459 118.759 519.562
458 0 49.1536 11.576 569 64.4605 119.049 517.61
459 0 49.1526 11.2914 555 65.2667 119.342 517.541
460 0 50.2027 11.095 557 65.9605 118.449 517.217
461 0 51.1071 11.2705 576 65.8004 118.118 515.773
462 0 54.1791 12.551 680 64.3647 118.088 512.3
463 0 56.1863 13.4908 758 62.4578 117.616 511.451
464 0 55.1012 10.635 586 66.6587 117.951 511.259
465 0 57.0984 11.4364 653 65.3093 118.453 511.531
466 0 62.0953 12.7385 791 62.9077 118.284 510.555
467 0 63.0794 12.841 810 62.6938 117.642 510.827
468 0 63.1449 10.7055 676 65.9556 118.966 508.133
469 0 64.1309 10.1667 652 66.2991 118.445 506.287
470 0 69.1 11.3025 781 64.3969 118.029 507.145
471 0 72.0885 12.9563 934 61.7538 118.171 508.337
472 0 74.1129 13.7358 1018 61.4106 118.297 502.556
473 0 76.0924 12.774 972 62.3642 118.079 502.687
474 0 78.1191 12.3017 961 63.2237 118.861 501.388
475 0 79.2008 12.0832 957 63.2748 118.953 500.632
476 0 83.1263 11.5006 956 63.5722 118.058 500.816
477 0 86.0793 12.047 1037 62.8293 117.771 500.455
478 1 42.097 10.5471 444 62.8694 118.142 521.261
479 0 43.0452 11.9177 513 61.3392 118.46 519.63
480 0 45.1253 10.1052 456 62.9254 118.257 518.533
481 0 47.2372 11.6434 550 61.1455 118.136 518.413
482 0 47.0892 12.2321 576 60.7795 118.083 518.321
483 0 49.1035 12.6264 620 60.2823 118.335 517.508
484 0 51.2679 11.2936 579 61.905 118.535 515.326
485 0 51.0371 10.9332 558 62.7097 118.043 515.102
486 0 52.1204 12.2025 636 61.3475 118.668 514.16
487 0 52.1122 11.5712 603 62.4328 118.36 512.76
488 0 56.0539 11.6673 654 61.4725 118.815 513.436
489 0 59.1398 12.2422 724 59.9724 118.851 513.039
490 0 57.0582 11.8125 674 61.4228 118.794 512.758
491 0 59.0714 11.5792 684 62.1082 119.009 508.667
492 0 64.174 12.7933 821 59.6821 118.158 507.686
493 0 64.0924 11.0309 707 62.2914 118.56 508.487
494 0 65.1789 12.9336 843 60.3891 118.944 505.138
495 0 68.1561 12.4274 847 61.2172 118.947 507
496 0 71.1262 12.7239 905 61.0243 118.392 505.571
497 0 73.2719 12.6788 929 61.1615 118.546 505.663
498 0 76.0583 14.0813 1071 59.7619 118.106 503.511
499 0 78.0688 12.1559 949 62.2908 118.713 505.114
500 0 80.0749 13.35 1069 61.4687 118.925 503.716
501 0 80.0618 12.6028 1009 63.334 119.059 501.56
502 0 86.1391 12.2476 1055 63.7962 118.652 498.878
503 1 42.08 10.2899 433 65.2471 119.129 519.813
504 0 45.0154 12.1958 549 63.6667 118.891 518.787
505 0 48.0314 12.8874 619 62.8126 118.822 517.501
506 0 47.03 12.0987 569 64.7698 118.763 516.807
507 0 50.0598 11.8059 591 64.599 118.491 516.971
508 0 51.0176 12.2703 626 64.6182 118.663 514.974
509 0 52.0805 12.6343 658 64.5334 118.451 515.12
510 0 54.1148 13.0463 706 63.7394 117.979 513.581
511 0 55.034 11.7927 649 65.5208 118.079 514.439
512 0 57.0492 11.6917 667 65.91 118.408 512.229
513 0 58.0419 13.6626 793 63.9987 118.03 511.883
514 0 62.0528 13.0051 807 64.1227 118.281 511.983
515 0 62.214 12.5856 783 65.2401 118.098 512.522
516 0 63.0832 12.8719 812 65.4421 117.479 511.927
517 0 66.1379 13.3207 881 64.9308 117.478 510.545
518 0 68.0676 13.1634 896 66.1406 117.933 507.65
519 0 70.0744 12.9577 908 66.0782 117.916 508.794
520 0 74.1295 14.9468 1108 63.4756 117.431 507.125
521 0 74.1759 13.1444 975 66.6103 118.011 506.648
522 0 78.0534 13.337 1041 66.6311 118.085 503.923
523 0 80.0858 15.7706 1263 63.578 117.747 502.349
524 0 85.0748 13.9642 1188 65.3897 117.436 504.444
525 0 86.1767 14.3774 1239 65.7627 117.561 500.477
526 1 46.0232 12.7762 588 66.415 117.827 521.429
527 0 45.0206 11.1283 501 69.6966 118.369 521.719
528 0 45.0982 11.3308 511 71.2524 117.759 520.329
529 0 49.1159 12.0531 592 68.7855 118.005 520.676
530 0 48.0511 11.904 572 70.3199 117.54 519.92
531 0 50.1432 13.8005 692 67.9624 117.712 517.579
532 0 52.0499 12.3727 644 69.6025 117.217 517.688
533 0 57.1286 15.4213 881 63.9274 117.444 518.229
534 0 57.2103 13.966 799 66.4718 117.272 515.996
535 0 57.1222 13.7775 787 67.0064 117.494 516.943
536 0 60.1121 12.5599 755 67.4066 117.38 515.223
537 0 62.0522 14.5523 903 64.9945 118.315 513.715
538 0 62.1194 13.1682 818 67.4914 118.062 511.37
539 0 64.1011 13.3383 855 66.6328 118.516 512.743
540 0 67.0458 14.6318 981 65.8797 118.544 509.594
541 0 69.1848 14.8732 1029 65.24 117.169 508.636
542 0 73.0837 15.0375 1099 64.6897 118.393 507.485
543 0 74.2257 14.2134 1055 65.4948 117.962 508.873
544 0 75.1668 13.7029 1030 66.8146 118.108 506.896
545 0 76.1011 12.1549 925 69.1643 117.549 504.311
546 0 79.1018 13.2108 1045 67.6842 117.576 505.445
547 0 82.0829 13.3889 1099 67.0027 117.662 503.769
548 1 44.0913 13.8803 612 66.0784 118.062 519.193
549 0 47.0752 11.8746 559 68.127 117.717 520.977
550 0 49.1131 13.6216 669 66.5321 117.868 518.695
551 0 50.0227 12.8142 641 67.9922 117.108 516.967
552 0 51.1466 11.3399 580 69.7914 117.379 517.866
553 0 53.1172 13.2161 702 66.9416 118.591 518.046
554 0 55.1059 13.3198 734 67.1553 117.95 515.852
555 0 57.0829 13.2439 756 66.828 117.897 514.95
556 0 56.0681 13.0377 731 67.8851 117.888 514.334
557 0 61.1012 14.4514 883 64.7123 117.608 514.194
558 0 59.0638 12.6812 749 67.8692 117.724 513.097
559 0 61.0548 12.5461 766 67.2898 116.94 511.718
560 0 65.0833 12.6453 823 66.8068 117.753 510.723
561 0 66.1518 13.3481 883 66.3726 118.136 510.762
562 0 69.0421 13.919 961 65.9542 118.26 506.739
563 0 72.1034 13.4668 971 66.0721 118.132 508.39
564 0 74.1111 14.1544 1049 65.1602 117.624 506.566
565 0 77.2167 13.9607 1078 64.9657 117.245 504.919
566 0 79.0415 12.6516 1000 67.035 117.442 504.818
567 0 82.1193 11.9704 983 67.997 117.56 502.937
568 0 83.1663 12.6614 1053 67.5499 117.68 501.388
569 0 88.1704 13.9616 1231 65.6141 117.089 499.345
570 1 42.0659 11.3869 479 67.7891 116.933 521.457
571 0 44.0676 10.3477 456 69.4254 116.921 520.414
572 0 44.0527 11.2139 494 69.4514 117.348 519.368
573 0 46.0466 13.5515 624 66.4215 117.436 519.244
574 0 49.028 12.1563 596 67.3473 117.589 519.918
575 0 50.0829 12.0001 601 68.1098 117.799 517.409
576 0 50.0429 10.551 528 70.8826 117.021 516.881
577 0 54.0376 13.9717 755 65.8119 117.662 515.036
578 0 54.0414 14.1373 764 66.5838 118.453 512.995
579 0 53.0713 11.9274 633 70.0158 118.518 513.354
580 0 59.0493 14.5472 859 64.8731 118.906 514.222
581 0 59.0489 12.8537 759 67.0619 118.831 514.346
582 0 61.0381 13.4178 819 66.2759 118.525 512.687
583 0 63.156 12.6354 798 67.688 119.054 510.437
584 0 65.2189 12.5884 821 67.7795 118.058 508.632
585 0 67.0594 12.3622 829 68.7503 118.422 507.291
586 0 69.1541 12.9855 898 68.4543 118.488 505.902
587 0 72.0751 13.5969 980 67.5796 117.947 504.02
588 0 75.0548 13.4568 1010 67.5525 118.097 502.834
589 0 79.1581 12.734 1008 67.8204 117.908 504.808
590 0 80.0683 12.864 1030 68.7582 117.108 502.182
591 0 84.0522 12.8967 1084 68.8044 117.453 501.554
592 0 84.0616 11.8841 999 71.026 117.304 499.66
593 0 89.1099 13.5226 1205 68.7502 117.349 497.132
594 1 46.0919 10.7828 497 72.006 117.67 516.4
595 0 50.0337 11.7721 589 69.7131 117.681 517.688
596 0 52.1064 12.5513 654 69.3945 118.463 516.511
597 0 55.0702 12.6747 698 69.2321 117.431 514.65
598 0 54.0395 11.8617 641 71.3651 118.178 514.031
599 0 57.0189 13.9603 796 68.3002 117.813 511.833
600 0 58.1049 13.9231 809 68.4141 117.466 510.454
601 0 59.119 12.6863 750 70.4253 118.673 510.571
602 0 61.0545 11.3178 691 72.1476 118.554 510.889
603 0 64.0928 14.9627 959 66.9844 118.779 509.291
604 0 65.247 13.1347 857 69.1108 118.343 507.489
605 0 67.0796 13.2529 889 69.4499 118.722 506.371
606 0 69.1446 14.3034 989 67.8817 118.756 505.52
607 0 73.0749 14.0814 1029 68.0904 118.554 504.481
608 0 72.0321 12.7582 919 70.9032 118.129 500.816
609 0 74.1145 12.6966 941 70.407 118.317 503.028
610 0 79.1009 14.5005 1147 67.8579 118.363 501.338
611 0 81.0744 13.0374 1057 70.0322 118.28 499.265
612 1 40.0153 10.1211 405 71.9284 118.726 519.516
613 0 43.0622 10.6126 457 70.6171 118.735 520.941
614 0 44.023 12.7206 560 70.2554 118.952 518.682
615 0 44.0639 12.2549 540 71.1778 119.302 518.767
616 0 47.0596 12.4735 587 70.7257 118.927 517.395
617 0 47.0293 11.95 562 71.2117 119.683 519.575
618 0 49.0677 11.3109 555 72.3874 118.665 516.47
619 0 51.1893 13.5185 692 69.3902 118.938 515.919
620 0 53.1196 14.232 756 68.6032 118.997 514.823
621 0 54.0392 12.75 689 69.9594 118.716 513.74
622 0 54.2596 12.2743 666 71.1171 119.287 514.192
623 0 59.1429 13.0193 770 69.2286 118.632 512.153
624 0 60.0809 11.8174 710 70.7704 118.158 510.223
625 0 62.0231 13.6562 847 68.3684 118.162 510.727
626 0 64.2582 13.3991 861 68.2834 117.67 509.833
627 0 66.1845 13.689 906 68.0817 118.071 506.982
628 0 66.0845 13.3465 882 68.8492 118.433 507.542
629 0 70.0778 12.6574 887 69.5468 118.49 507.596
630 0 71.0735 13.1695 936 68.6635 118.642 506.677
631 0 74.0288 12.6572 937 69.6393 118.282 504.253
632 0 77.1752 12.6725 978 69.2117 117.812 501.954
633 0 79.0932 12.7571 1009 69.6313 118.322 501.231
634 1 39.0441 12.3962 484 67.6674 117.75 521.112
635 0 41.1619 10.2279 421 69.7577 118.081 520.836
636 0 43.0654 11.2155 483 69.5238 118.822 518.7
637 0 43.0901 11.2555 485 69.4268 119.559 518.986
638 0 45.1045 11.817 533 68.4991 119.235 518.315
639 0 48.0881 11.9572 575 68.5252 118.937 517.108
640 0 48.0723 12.4396 598 67.1405 118.304 515.826
641 0 51.0987 12.5835 643 66.8678 118.608 516.275
642 0 51.0959 11.6056 593 68.5346 118.18 516.245
643 0 53.0414 11.4062 605 68.6645 118.322 514.362
644 0 54.0562 12.5795 680 67.5544 117.791 513.791
645 0 54.0417 12.0092 649 68.5424 117.558 512.367
646 0 58.0929 12.9448 752 66.7806 118.238 511.259
647 0 58.075 12.1739 707 68.4852 118.784 510.487
648 0 61.0218 12.5365 765 67.3621 117.711 508.686
649 0 64.0833 13.0923 839 65.789 117.988 508.518
650 0 67.0841 12.8048 859 66.2456 118.539 507.736
651 0 68.1199 11.5238 785 68.358 118.51 507.042
652 0 71.1868 11.9404 850 67.6447 118.613 505.382
653 0 72.0882 13.2754 957 65.3804 117.775 504.463
654 0 74.1463 12.1247 899 67.3971 118.463 503.753
655 1 38.051 10.7487 409 67.7922 118.738 520.406
656 0 40.0314 12.0655 483 65.7702 118.509 520.164
657 0 41.0954 11.9478 491 66.7088 118.868 518.34
658 0 44.1478 13.1603 581 64.4682 118.578 518.077
659 0 44.0972 11.9055 525 65.96 118.2 518.272
660 0 46.0635 12.613 581 65.2117 119.057 518.279
661 0 47.1406 11.2854 532 67.0883 119.002 516.637
662 0 47.0262 11.7594 553 67.1103 118.758 515.754
663 0 51.0982 11.8791 607 65.9934 118.105 516.278
664 0 53.1179 13.5171 718 64.5153 118.421 513.092
665 0 54.0351 12.5104 676 65.9675 118.97 514.037
666 0 55.0586 12.0599 664 66.9202 118.759 513.73
667 0 55.0834 11.5643 637 67.7331 118.327 513.506
668 0 58.0751 11.709 680 67.5676 118.306 511.8
669 0 58.0821 12.9128 750 66.296 118.061 509.488
670 0 62.1452 11.1835 695 67.459 118.537 510.875
671 0 64.1876 12.775 820 65.461 118.071 509.148
672 0 64.0959 11.6388 746 67.3231 118.126 508.547
673 0 66.1126 12.8569 850 65.5459 118.278 507.082
674 0 67.0567 12.8399 861 65.6156 118.595 506.295
675 0 69.049 13.4687 930 64.9559 118.413 505.013
676 0 72.037 10.4252 751 68.0626 118.282 506.704
677 0 74.1421 12.004 890 66.4034 117.982 503.257
678 0 79.055 11.9664 946 66.0655 118.107 502.63
679 0 79.1189 12.8162 1014 65.5286 117.99 498.518
680 0 81.1558 12.8149 1040 65.7923 117.096 497.943
681 0 83.219 11.1753 930 68.4591 117.575 497.081
682 1 42.083 10.9545 461 66.6486 118.141 519.18
683 0 42.1005 10.0474 423 68.3546 118.645 517.553
684 0 45.1622 11.0048 497 67 118.604 517.221
685 0 46.1107 12.0579 556 66.0827 117.892 516.665
686 0 48.0788 13.7899 663 63.736 118.145 515.661
687 0 46.1156 11.7097 540 67.8185 118.013 514.991
688 0 49.0647 11.9638 587 67.2692 117.964 515.465
689 0 52.0682 12.0611 628 67.2261 118.266 512.978
690 0 51.0902 11.8418 605 67.6331 117.826 513.022
691 0 54.1161 11.2351 608 67.6349 117.901 513.66
692 0 57.1024 12.3112 703 65.9018 118.733 510.885
693 0 57.0528 12.5147 714 65.9552 117.933 509.387
694 0 60.0375 13.4749 809 63.9419 117.79 509.672
695 0 61.0282 10.7819 658 66.5562 118.606 510.318
696 0 63.1247 11.9763 756 66.0185 118.348 507.581
697 0 67.0865 12.4913 838 64.6659 118.447 506.483
698 0 70.0892 13.9964 981 62.6738 118.718 505.015
699 0 71.1279 10.7131 762 66.4003 117.963 505.403
700 0 73.0994 13.037 953 63.3641 118.624 504.07
701 0 75.0852 10.3882 780 66.7359 118.614 504.456
702 0 78.0642 13.5017 1054 63.2173 118.479 501.11
703 0 80.0824 14.3103 1146 62.6876 118.492 498.621
704 0 81.0919 12.7263 1032 64.6492 118.551 498.894
705 1 40.0715 9.50801 381 67.0394 119.186 520.37
706 0 42.0458 10.988 462 66.4416 119.656 518.271
707 0 43.1117 9.90449 427 68.0328 119.443 517.272
708 0 48.0912 11.8525 570 64.7088 119.512 515.788
709 0 48.1034 11.4545 551 64.8149 118.944 515.717
710 0 50.0338 13.8107 691 62.8119 119.069 514.847
711 0 53.0754 13.754 730 48.6781 118.482 515.026
712 0 53.0774 13.6405 724 64.0539 118.268 512.149
713 0 56.0802 11.9828 672 65.372 118.723 513.262
714 0 56.1319 12.239 687 65.2387 118.611 513.635
715 0 57.093 11.9629 683 66.492 118.857 511.987
716 0 60.0421 14.2733 857 63.4364 118.718 509.627
717 0 62.0233 12.2535 760 65.925 119.52 511.417
718 0 65.0927 12.6282 822 64.8163 118.989 510.406
719 0 66.0733 12.9553 856 65.5572 118.514 506.893
720 0 69.0934 12.7074 878 65.2563 118.269 508.134
721 0 70.1454 13.6859 960 64.8396 118.678 502.495
722 0 72.059 12.7396 918 65.7004 117.267 504.106
723 0 73.0394 13.4585 983 65.7416 117.762 499.798
724 0 78.0836 12.2177 954 66.0524 118.258 501.69
725 0 80.1282 13.9402 1117 64.2337 118.418 500.024
726 0 81.0887 11.8512 961 67.4142 118.563 499.235
727 0 84.0625 12.6454 1063 66.46 117.823 498.829
728 1 42.0266 13.2535 557 65.9605 117.715 515.596
729 0 44.1172 11.1974 494 67.0445 117.393 516.962
730 0 46.1645 11.4374 528 68.0038 118.074 515.956
731 0 49.1353 12.8014 629 65.8156 116.935 516.129
732 0 50.0208 14.7339 737 63.7612 117.585 513.301
733 0 52.0637 12.9457 674 66.1944 117.647 512.644
734 0 53.0764 11.3798 604 67.7897 117.824 511.99
735 0 54.102 11.4044 617 67.0794 118.128 514.157
736 0 57.0405 14.0777 803 64.391 118.437 511.242
737 0 56.1078 12.4225 697 66.8278 118.001 511.333
738 0 60.0536 12.7553 766 65.6775 117.783 509.397
739 0 61.1869 12.9113 790 66.0152 117.457 507.446
740 0 62.0914 11.2254 697 68.7131 117.753 509.215
741 0 66.0723 12.8193 847 65.693 117.868 507.659
742 0 68.0651 14.1629 964 64.3527 117.749 505.058
743 0 70.1337 14.9286 1047 63.0812 117.629 504.076
744 0 72.1573 14.1081 1018 63.942 117.661 505.144
745 0 75.1024 12.7959 961 65.6504 117.771 504.222
746 0 78.1239 12.8898 1007 65.293 117.371 503.561
747 0 78.1331 13.5538 1059 65.4344 117.082 499.733
748 0 84.1736 12.8781 1084 65.8275 117.317 499.26
749 0 84.1153 12.1738 1024 67.1416 116.925 495.865
750 0 89.071 12.9672 1155 66.1818 117.534 493.748
751 1 43.0739 11.6776 503 66.3062 117.338 517.688
752 0 44.0429 12.4651 549 65.4098 117.064 517.974
753 0 46.0349 11.4261 526 66.9126 117.69 517.492
754 0 48.0515 11.6125 558 67.414 117.305 513.953
755 0 49.1127 10.9951 540 67.7222 117.361 513.369
756 0 51.0436 12.1269 619 65.6624 117.756 513.987
757 0 52.1061 12.4745 650 65.7431 117.472 511.003
758 0 52.0907 11.8255 616 65.8133 118.239 512.847
759 0 56.0175 13.6921 767 62.7458 117.923 510.408
760 0 57.117 14.6016 834 61.693 117.875 507.82
761 0 59.0519 12.362 730 64.4521 118.023 507.889
762 0 61.1192 15.5598 951 59.9243 118.18 510.146
763 0 63.1292 13.7496 868 62.2869 117.001 509.377
764 0 67.1116 11.9055 799 64.6658 117.676 507.686
765 0 67.0895 13.3106 893 63.5901 117.474 504.909
766 0 67.0231 13.7415 921 63.6298 118.616 503.901
767 0 71.0635 11.8204 840 64.6857 117.78 505.545
768 0 74.1069 11.8882 881 65.0511 117.207 503.998
769 0 74.0471 13.2753 983 63.5605 116.897 503.511
770 0 78.0737 11.9118 930 65.4817 116.476 501.813
771 0 81.0806 13.3201 1080 63.8333 117.76 501.42
772 0 85.1061 12.9485 1102 64.9428 117.212 497.505
773 0 85.1323 11.5702 985 66.6721 117.35 498.199
774 1 43.0685 11.9577 515 65.0447 117.122 517.759
775 0 44.0387 12.103 533 65.3452 118.032 519.113
776 0 47.0308 12.3323 580 64.2983 118.05 517.926
777 0 48.226 11.7364 566 65.0954 117.376 518.422
778 0 49.0521 12.2115 599 65.2321 117.105 515.536
779 0 51.0313 12.4238 634 64.6514 116.972 512.771
780 0 53.1606 11.8697 631 65.2203 116.64 512.558
781 0 53.1415 13.2853 706 63.2974 117.599 513.234
782 0 56.0336 12.0285 674 63.9629 117.635 513.507
783 0 57.1166 11.3452 648 64.713 117.718 511.98
784 0 59.2204 11.1279 659 64.9772 117.973 511.284
785 0 63.1299 11.611 733 63.7694 117.291 508.832
786 0 64.0441 12.5226 802 63.5549 116.931 507.166
787 0 66.1129 11.6619 771 64.1453 116.66 507.728
788 0 69.115 13.1954 912 62.4035 116.82 505.895
789 0 69.1552 12.5949 871 63.8921 116.537 504.805
790 0 71.0723 10.4119 740 66.4986 116.954 501.75
791 0 75.2286 12.3224 927 63.8436 116.893 501.395
792 0 78.1196 12.3145 962 63.5437 116.798 500.004
793 1 39.1289 10.5549 413 64.2591 117.429 520.538
794 0 42.1403 10.9634 462 63.4654 117.643 517.247
795 0 41.0317 10.5528 433 64.3534 117.418 518.402
796 0 44.1355 10.8076 477 63.7505 116.317 519.568
797 0 48.0702 11.8577 570 62.7649 116.861 516.349
798 0 47.064 12.0049 565 62.8319 116.77 516.533
799 0 50.0986 11.2378 563 63.2771 117.524 516.169
800 0 50.0428 13.1088 656 61.1037 117.021 513.316
801 0 54.1567 12.4638 675 61.7674 117.239 513.415
802 0 53.0636 12.3625 656 62.4192 117 513.651
803 0 54.2132 11.7868 639 62.7762 117.346 512.227
804 0 57.0734 11.8093 674 62.5 117.123 511.681
805 0 60.1855 12.9101 777 60.6963 116.864 511.208
806 0 62.4007 12.1793 760 61.0408 116.805 511.505
807 0 64.158 11.6899 750 62.168 117.149 507.687
808 0 64.1549 11.2852 724 63.1257 117.156 508.435
809 0 67.1121 12.0992 812 62.2771 118.469 506.51
810 0 70.1153 13.4065 940 60.0298 117.902 506.903
811 0 69.0918 13.5182 934 61.2323 118.258 504.794
812 0 73.135 13.1538 962 61.1944 117.921 504.618
813 0 74.1237 10.9682 813 63.9053 117.162 504.052
814 0 78.126 12.1086 946 62.9841 117.638 503.436
815 0 80.1039 12.746 1021 62.8149 117.527 500.89
816 0 83.2636 11.986 998 63.6162 117.601 500.877
817 0 85.1316 11.4528 975 64.719 117.096 499.83
818 1 47.0649 10.6024 499 64.6132 117.735 519.457
819 0 45.0601 12.095 545 64.178 117.272 518.294
820 0 50.1122 11.7137 587 64.1516 117.513 515.601
821 0 51.0936 14.3267 732 60.6325 117.292 515.99
822 0 52.0377 10.992 572 65.2552 117.547 515.037
823 0 54.1353 12.1178 656 63.7973 117.508 514.777
824 0 58.147 13.4315 781 63.3995 117.581 512.391
825 0 59.0642 11.2759 666 65.6922 118.117 513.532
826 0 59.1154 12.0442 712 65.3553 117.799 509.541
827 0 62.08 12.0167 746 64.9732 117.976 511.35
828 0 62.1397 11.2971 702 65.8533 117.274 511.332
829 0 64.0643 11.6758 748 65.4438 116.852 510.773
830 0 69.1901 12.5885 871 64.3433 117.255 508.134
831 0 70.0487 12.1201 849 64.4947 118.272 508.543
832 0 72.303 12.5998 911 64.0055 117.066 507.115
833 0 76.2248 12.0696 920 64.3348 117.567 506.062
834 0 81.2644 11.7641 956 63.7186 117.483 505.899
835 0 81.28 12.3154 1001 63.6713 117.201 502.126
836 0 87.2036 12.9926 1133 63.0653 117.286 501.394
837 1 43.1443 10.7083 462 65.1645 117.164 521.998
838 0 42.0518 11.0578 465 64.8258 116.671 522.972
839 0 46.0429 14.0304 646 62.2074 117.138 519.624
840 0 46.0379 11.143 513 65.308 117.226 520.698
841 0 48.0357 13.3442 641 63.7722 117.363 518.454
842 0 49.0913 12.4258 610 64.8049 117.492 518.248
843 0 51.0675 12.6891 648 64.0478 116.731 517.668
844 0 51.0971 12.486 638 65.0219 116.569 516.387
845 0 53.1456 11.8919 632 64.8972 117.646 516.267
846 0 56.1327 12.5061 702 64.6966 117.725 512.578
847 0 58.0892 12.4464 723 64.603 117.248 510.672
848 0 58.135 11.5421 671 64.8748 117.247 514.177
849 0 62.1462 12.6315 785 62.9796 117.395 513.141
850 0 63.0698 11.6855 737 64.3881 117.438 511.707
851 0 65.0548 12.3281 802 63.5062 116.589 510.236
852 0 66.0375 13.6135 899 62.5072 116.964 507.498
853 0 66.0494 11.0069 727 65.3535 116.913 507.846
854 0 70.1152 12.4795 875 63.648 116.489 504.67
855 0 72.0584 13.267 956 62.2312 116.593 503.187
856 0 74.0403 14.168 1049 60.9266 116.458 504.209
857 0 77.2495 11.7671 909 63.4698 117.354 501.232
858 0 80.1758 12.9091 1035 61.9565 117.024 500.459
859 1 42.0321 9.61169 404 65.3267 117.099 520.678
860 0 45.0172 11.3068 509 63.3811 117.224 520.2
861 0 43.1368 11.3824 491 65.2729 116.768 520.941
862 0 46.1184 12.9233 596 63.3725 116.331 520.409
863 0 47.0538 11.37 535 65.4598 116.757 519.396
864 0 47.1723 9.81509 463 67.8726 117.194 518.16
865 0 53.0469 13.6106 722 62.4515 117.432 517.468
866 0 53.1124 13.0102 691 63.8408 117.541 514.754
867 0 54.2071 11.8435 642 65.5779 116.994 513.174
868 0 55.0444 13.0985 721 64.8405 116.806 512.107
869 0 56.0416 11.4379 641 66.5242 117.945 513.998
870 0 57.0493 13.1115 748 64.5936 116.838 512.837
871 0 61.2138 12.4808 764 65.3076 117.073 509.622
872 0 63.1596 15.2788 965 61.5233 116.82 511.819
873 0 64.0728 11.8459 759 66.3729 117.125 509.452
874 0 65.0366 12.8697 837 64.7861 116.992 509.968
875 0 68.0732 13.0742 890 64.7326 116.524 508.51
876 0 72.0626 13.6687 985 63.8497 116.206 507.863
877 0 73.13 12.5256 916 65.0666 116.75 508.111
878 0 74.0866 12.7283 943 65.2789 116.069 503.416
879 0 79.0634 14.4947 1146 62.9834 115.986 501.892
880 0 83.2592 12.4311 1035 65.3672 116.392 504.281
881 0 85.074 13.8468 1178 64.3234 116.07 500.561
882 0 88.0782 14.1579 1247 63.6937 116.593 499.619
883 0 92.1448 14.5098 1337 63.3523 116.221 499.55
884 1 47.1165 11.1002 523 68.0038 115.895 518.931
885 0 50.0474 12.708 636 66.3569 116.774 518.341
886 0 52.0341 12.6263 657 66.7306 118.009 517.791
887 0 53.1343 12.4778 663 67.0302 116.92 516.265
888 0 58.2196 13.9815 814 63.6671 117.301 517.072
889 0 56.091 14.9222 837 64.0143 117.535 514.189
890 0 58.1735 13.6832 796 65.8204 116.052 513.041
891 0 61.0842 12.802 782 66.4233 116.761 512.156
892 0 63.0338 11.8825 749 67.5674 116.716 511.019
893 0 66.2076 13.1103 868 65.5853 117.116 510.419
894 0 67.1315 13.1682 884 65.5498 116.498 508.736
895 0 68.0788 14.0279 955 64.5372 116.977 508.158
896 0 69.0704 13.5948 939 65.491 117.068 507.22
897 0 73.0432 12.431 908 66.4405 116.972 506.187
898 0 75.1705 12.6246 949 65.7302 116.918 507.449
899 0 78.1609 14.5469 1137 64.3333 116.61 502.596
900 0 81.0888 13.775 1117 65.1799 116.994 502.091
901 0 83.0953 15.043 1250 63.7784 116.71 499.478
902 0 84.064 13.1804 1108 66.1318 117.718 502.187
903 1 46.063 11.2672 519 68.0732 117.231 517.464
904 0 45.0322 11.5251 519 67.9576 117.43 519.859
905 0 46.0693 12.8719 593 67.8111 117.155 517.484
906 0 49.109 12.3603 607 68.8929 117.568 517.761
907 0 51.0993 13.8554 708 66.2938 117.395 517.571
908 0 53.1266 13.1008 696 67.7313 117.355 517.444
909 0 53.0544 12.7982 679 69.2533 117.947 516.411
910 0 57.0565 12.3211 703 69.202 117.999 516.185
911 0 56.0622 13.5564 760 68.8947 118.832 515.591
912 0 58.1834 14.1621 824 68.4454 119.097 515.143
913 0 59.15 14.049 831 68.1962 118.863 512.876
914 0 63.3169 13.3614 846 68.0686 118.238 513.881
915 0 61.0244 11.9952 732 70.526 118.286 514.31
916 0 65.1785 13.3633 871 69.023 118.48 511.744
917 0 68.132 13.1363 895 69.4402 118.609 510.696
918 0 70.2807 12.507 879 69.851 118.006 510.798
919 0 72.1794 13.5634 979 68.9346 117.363 507.704
920 0 77.1177 12.4226 958 69.4478 117.492 510.304
921 0 75.1429 14.3992 1082 68.3161 117.493 505.711
922 0 79.1048 13.0207 1030 69.335 117.463 507.449
923 1 40.0325 13.2642 531 68.5744 116.853 524.448
924 0 42.038 11.4182 480 71.1208 117.031 522.96
925 0 42.0743 12.9533 545 69.9853 117.066 521.853
926 0 45.1565 12.1577 549 70.3479 116.834 522.461
927 0 46.1312 11.4673 529 72.4896 117.053 520.386
928 0 47.0977 13.1429 619 71.0937 117.402 520.003
929 0 49.0651 13.8184 678 70.326 117.468 518.881
930 0 50.1975 12.8492 645 71.7581 117.588 519.245
931 0 50.0806 12.8393 643 72.395 117.717 520.156
932 0 52.1398 13.3871 698 72.639 117.766 515.875
933 0 54.1185 13.5628 734 72.1635 117.46 515.88
934 0 59.0838 14.2002 839 70.2598 117.422 516.555
935 0 57.1803 12.4518 712 73.4101 117.989 516.093
936 0 58.0834 13.4462 781 72.6517 118.119 514.981
937 0 60.1648 12.1832 733 74.1473 117.207 513.231
938 0 61.073 11.5272 704 75.4062 116.884 513.168
939 0 65.0934 12.6587 824 73.1772 117.109 512.095
940 0 67.0816 12.8649 863 72.7659 117.497 510.012
941 0 69.0747 13.9849 966 71.6077 116.583 508.641
942 0 70.0872 12.5415 879 74.0705 116.845 507.807
943 0 72.326 12.3607 894 73.2763 117.436 508.494
944 1 41.3615 12.427 514 72.6187 117.778 522.58
945 0 42.0348 11.7522 494 74.2591 117.494 521.644
946 0 42.0582 13.6953 576 70.9306 117.87 523.038
947 0 44.3942 13.3576 593 72.1686 117.744 520.486
948 0 45.2356 12.6449 572 72.6154 117.486 521.124
949 0 47.1021 13.8423 652 71.1932 117.115 518.302
950 0 48.0468 11.8842 571 73.6077 117.613 517.884
951 0 50.2148 11.5105 578 74.6851 118.166 516.974
952 0 53.2469 13.4843 718 71.1894 117.542 516.96
953 0 54.1373 13.3919 725 72.0248 117.622 514.884
954 0 55.1657 14.0305 774 71.1292 117.773 513.624
955 0 57.1132 13.4645 769 71.6957 118.078 513.302
956 0 59.2396 15.3107 907 69.2161 117.174 513.061
957 0 61.1253 14.3476 877 70.3193 117.702 509.954
958 0 60.0784 13.2993 799 72.1126 116.93 511.787
959 0 64.1889 16.3112 1047 67.8118 117.435 509.651
960 0 67.0675 14.3587 963 69.974 118.286 508.876
961 0 68.1138 14.9015 1015 69.8355 118.814 507.721
962 0 71.101 13.7269 976 71.1783 118.671 505.418
963 0 75.3555 13.6287 1027 70.5433 117.949 504.705
964 0 75.1158 12.7137 955 72.1309 118.051 505.177
965 0 78.162 14.0222 1096 70.6734 117.966 502.296
966 0 80.0891 13.1354 1052 71.3831 117.856 503.388
967 0 84.1154 13.529 1138 71.0202 117.996 499.393
968 0 86.1607 14.0435 1210 70.7149 118.087 499.041
969 1 45.036 13.2561 597 71.6784 118.089 519.673
970 0 46.1421 13.0683 603 71.8275 118.647 519.332
971 0 46.1434 12.7862 590 73.039 118.163 517.053
972 0 48.0743 11.711 563 73.6714 117.707 516.231
973 0 50.0656 13.3026 666 71.4144 117.637 516.638
974 0 51.257 13.2275 678 70.708 117.885 516.748
975 0 56.1046 14.1521 794 68.7683 118.195 514.67
976 0 55.0725 12.1839 671 71.4605 117.452 513.414
977 0 57.1965 13.6372 780 69.6513 117.803 513.017
978 0 60.2128 11.9576 720 71.4556 118.144 512.51
979 0 60.3348 13.2262 798 69.9135 118.273 511.842
980 0 63.2425 13.3613 845 68.8639 118.359 510.116
981 0 65.103 15.1452 986 66.858 117.662 508.626
982 0 67.0305 12.5913 844 69.3946 117.31 506.78
983 0 72.2904 13.8746 1003 67.1904 117.556 507.284
984 0 74.1461 13.5139 1002 67.4441 117.8 505.075
985 0 74.1618 13.12 973 68.6639 118.042 502.516
986 0 76.0959 12.6419 962 68.9667 117.72 501.475
987 0 79.2474 12.8206 1016 68.4636 117.651 502.358
988 0 81.1358 13.5329 1098 68.0647 117.427 498.579
989 0 85.2302 13.5046 1151 67.1043 117.833 501.201
990 0 85.2884 13.3547 1139 67.7471 117.692 500.318
991 0 90.287 12.0172 1085 69.2018 118.303 497.233
992 0 92.2781 12.2673 1132 68.8339 118.339 497.632
993 0 95.329 13.7104 1307 66.9625 118.033 492.908
994 0 97.2494 13.0489 1269 68.0433 118.117 493.071
995 1 51.0735 11.8457 605 54.8116 116.911 517.299
996 0 49.3981 11.1745 552 70.1576 116.81 514.491
997 0 53.4784 13.2577 709 67.0832 117.102 512.629
998 0 54.2236 13.6472 740 67.0919 117.481 512.324
999 0 56.3239 13.9905 788 66.5977 117.242 512.774
1000 0 57.0918 13.6622 780 66.6987 117.441 511.43
1001 0 58.0649 12.9855 754 67.561 117.883 510.622
1002 0 63.4177 13.9393 884 65.6086 116.893 510.399
1003 0 64.5003 13.6123 878 66.2574 117.066 508.263
1004 0 67.2808 13.4808 907 66.1069 117.168 506.394
1005 0 67.2515 13.1893 887 66.8388 117.186 507.8
1006 0 71.2019 13.0334 928 67.1562 117.259 504.573
1007 0 74.1444 12.9072 957 67.1421 117.253 505.111
1008 0 75.1334 13.7755 1035 66.1382 116.992 504.386
1009 0 77.2141 14.1425 1092 65.3938 117.152 505.255
1010 0 80.1268 13.0169 1043 67.4008 117.169 500.962
1011 0 83.1693 14.0076 1165 66.2953 117.201 499.623
1012 0 85.3856 13.5971 1161 66.6985 117.296 497.41
1013 0 88.2005 12.8684 1135 67.415 116.989 495.885
1014 0 91.1989 13.4322 1225 66.5404 116.989 496.744
1015 1 47.0757 14.4448 680 65.0559 116.793 517.054
1016 0 48.1045 13.4914 649 65.9076 116.834 518.977
1017 0 51.1353 13.3372 682 65.9047 117.249 517.977
1018 0 51.2807 12.7923 656 67.4604 116.462 514.03
1019 0 52.0962 12.1506 633 67.7994 117.234 513.381
1020 0 55.2665 13.8963 768 66.03 116.397 512.318
1021 0 56.0423 12.8118 718 67.6504 115.897 511.567
1022 0 59.1842 13.6523 808 65.6485 116.192 513.38
1023 0 62.233 13.1442 818 66.368 117.306 508.367
1024 0 62.1034 13.1072 814 66.9373 116.651 506.601
1025 0 66.079 15.0426 994 64.2797 116.394 509.138
1026 0 68.0944 13.3051 906 66.617 116.593 509.937
1027 0 71.1315 12.6807 902 67.9124 116.249 505.899
1028 0 73.1254 13.2102 966 67.0787 116.34 507.518
1029 0 76.1433 13.7504 1047 67.0678 116.812 505.51
1030 0 80.2821 14.1626 1137 66.423 116.494 504.846
1031 0 83.2254 13.9501 1161 67.4711 116.493 502.721
1032 0 86.2261 13.7429 1185 67.0987 117.062 503.516
1033 0 87.1124 13.408 1168 68.851 116.465 498.69
1034 0 92.1133 15.1335 1394 65.3508 116.801 501.268
1035 1 47.0445 12.9664 610 66.7688 115.887 522.456
1036 0 49.2091 14.0421 691 67.0695 116.045 519.654
1037 0 51.1068 12.8946 659 67.7269 116.272 518.657
1038 0 52.0409 12.3941 645 68.6171 116.053 519.978
1039 0 53.1288 13.9849 743 67.7833 116.128 516.728
1040 0 55.1206 15.1123 833 66.2809 116.006 516.916
1041 0 58.1248 14.5377 845 67.4544 116.095 515.198
1042 0 58.2425 13.8559 807 67.9108 115.929 515.402
1043 0 61.0355 13.8444 845 66.7669 115.832 517.535
1044 0 64.0605 13.7058 878 67.6298 116.006 513.494
1045 0 66.1405 13.7888 912 67.2895 115.711 514.571
1046 0 67.1043 13.248 889 68.1845 115.837 511.494
1047 0 73.225 14.8173 1085 65.6415 116.297 510.683
1048 0 75.2303 14.2363 1071 65.6779 116.394 510.029
1049 0 76.215 14.341 1093 65.8179 115.628 507.231
1050 0 80.2026 14.1517 1135 66.1877 115.262 505.615
1051 0 80.2368 14.8685 1193 65.5331 115.394 504.981
1052 0 85.2262 14.6786 1251 65.8058 115.91 502.201
1053 0 88.0658 15.0796 1328 65.4104 115.56 503.271
1054 0 90.258 13.1401 1186 67.4806 115.461 502.405
1055 0 92.106 14.3639 1323 66.6833 115.853 499.44
1056 1 46.2052 13.6348 630 66.2651 115.562 523.154
1057 0 47.0332 13.5861 639 66.4679 114.574 522.685
1058 0 49.0436 12.8049 628 67.7818 114.758 520.799
1059 0 51.0695 14.0397 717 66.47 115.278 519.349
1060 0 52.2753 14.0984 737 66.7788 114.649 518.547
1061 0 53.0924 13.3164 707 68.0127 115.979 519.591
1062 0 54.1288 13.8743 751 67.8122 116.634 518.831
1063 0 57.1272 14.4415 825 65.9927 116.617 519.135
1064 0 60.0594 13.6365 819 66.8205 115.507 517.121
1065 0 59.1594 13.5735 803 67.6438 116.975 518.239
1066 0 63.0995 14.073 888 66.8863 116.411 515.216
1067 0 63.08 13.4115 846 68.2222 116.407 513.057
1068 0 67.1672 14.382 966 66.646 116.186 512.776
1069 0 70.1041 14.0363 984 66.5376 116.243 512.189
1070 0 72.0633 13.2522 955 68.1581 115.571 510.689
1071 0 73.1529 13.0002 951 68.7971 116.835 510.608
1072 0 77.0901 13.348 1029 67.9699 116.947 508.355
1073 0 80.2003 14.2892 1146 66.4721 116.62 506.257
1074 0 83.0707 14.0483 1167 66.5707 117.045 508.326
1075 0 86.1495 13.8132 1190 66.8866 116.844 506.902
1076 0 88.1136 16.2177 1429 63.9524 116.285 503.866
1077 1 42.0339 12.1806 512 69.2695 116.42 524.424
1078 0 42.1044 12.2553 516 69.4264 116.824 523.351
1079 0 46.0746 13.6084 627 66.6858 116.758 525.196
1080 0 45.1267 12.6311 570 69.7298 117.316 522.932
1081 0 47.0731 11.9814 564 69.9574 116.878 520.507
1082 0 50.126 13.8252 693 66.6681 116.57 521.713
1083 0 53.1315 13.156 699 67.8956 116.602 520.366
1084 0 53.2063 13.8518 737 66.7056 116.802 520.357
1085 0 56.0841 14.1751 795 66.0327 116.458 518.298
1086 0 57.0452 13.4981 770 66.5377 116.349 517.887
1087 0 59.1985 14.0544 832 66.2007 116.488 515.434
1088 0 62.2033 13.9864 870 66.0598 116.872 515.953
1089 0 63.0682 14.7935 933 64.8596 117.064 513.584
1090 0 63.1488 13.001 821 67.7856 117.382 514.133
1091 0 68.1619 13.776 939 66.5879 116.638 513.408
1092 0 69.0761 14.8966 1029 65.1477 117.093 512.175
1093 0 73.2087 13.2498 970 66.332 116.887 510.553
1094 0 76.1893 15.514 1182 63.4619 116.886 509.135
1095 0 77.4117 14.1839 1098 65.296 116.411 506.408
1096 0 80.1318 15.5993 1250 63.5608 116.71 505.037
1097 0 82.2104 13.5871 1117 65.7126 116.466 506.186
1098 0 85.2923 13.5299 1154 65.6222 116.244 504.478
1099 0 88.3096 14.3246 1265 64.4933 117.391 501.749
1100 1 46.0549 14.2004 654 64.1391 117.327 522.055
1101 0 47.147 13.1716 621 65.4493 117.261 520.974
1102 0 49.1972 12.6023 620 67.0661 117.427 516.998
1103 0 51.3322 13.3834 687 65.5458 116.785 516.983
1104 0 55.2787 14.1284 781 64.0179 116.937 517.033
1105 0 56.0657 13.1631 738 65.0244 116.383 516.356
1106 0 59.1311 14.1888 839 63.3016 117.104 514.728
1107 0 58.2387 14.3204 834 63.4017 117.266 515.812
1108 0 60.1882 14.2387 857 63.7806 117.684 514.436
1109 0 61.1746 11.9167 729 66.2016 117.248 513.458
1110 0 65.1546 12.5394 817 64.6854 116.613 510.339
1111 0 67.1453 13.1953 886 64.6287 116.919 508.868
1112 0 70.2513 11.8574 833 65.4538 116.737 508.084
1113 0 74.2366 14.3326 1064 51.8083 115.908 511.064
1114 0 75.2178 12.0583 907 64.6031 116.824 507.207
1115 0 79.1994 13.6365 1080 62.4185 116.881 505.997
1116 0 81.0947 12.6396 1025 63.1493 117.009 506.455
1117 0 84.2104 14.5469 1225 61.849 117.053 501.197
1118 0 86.1223 12.2384 1054 64.5939 117.083 503.602
1119 1 45.0665 11.8048 532 64.6786 116.966 521.064
1120 0 47.1223 11.9689 564 64.8883 117.394 520.461
1121 0 50.2128 13.3631 671 63.6542 117.431 520.484
1122 0 54.0732 12.9454 700 64.1257 117.359 517.954
1123 0 55.0524 12.1157 667 64.4873 117.184 519.85
1124 0 54.0569 12.9308 699 64.9413 117.134 516.346
1125 0 55.1463 12.2946 678 65.8569 117.083 514.518
1126 0 59.245 14.2122 842 62.8183 117.056 515.846
1127 0 60.1548 11.8528 713 65.6438 117.844 513.353
1128 0 62.0949 13.5438 841 64.4625 117.744 510.864
1129 0 66.0614 14.4714 956 62.8776 117.255 510.229
1130 0 67.259 11.4186 768 66.3255 117.233 510.215
1131 0 68.1043 13.0976 892 65.2511 117.339 507.285
1132 0 72.2905 12.6296 913 65.4414 117.48 508.469
1133 0 73.1149 12.6924 928 65.0905 117.967 507.112
1134 0 76.1611 14.6794 1118 62.4177 117.462 505.902
1135 0 81.1409 13.6183 1105 63.1104 116.857 504.74
1136 0 83.1217 12.4396 1034 64.6402 116.762 501.035
1137 0 85.0737 14.4581 1230 62.0642 117.031 501.406
1138 1 41.0965 11.0472 454 66.4471 117.533 520.082
1139 0 46.0543 12.3333 568 64.5018 117.282 518.137
1140 0 45.0339 12.4795 562 65.8167 117.548 516.995
1141 0 47.1296 12.3489 582 64.7457 117.445 518.988
1142 0 49.0234 12.851 630 64.8254 118.603 516.064
1143 0 50.0771 13.6789 685 63.0569 117.232 515.712
1144 0 53.1803 14.385 765 62.0052 117.541 514.682
1145 0 53.0802 13.8281 734 63.9251 117.899 513.974
1146 0 56.1051 12.334 692 64.5607 117.579 515.302
1147 0 56.1214 12.5442 704 65.2415 117.472 512.034
1148 0 58.0329 12.2 708 65.9096 117.672 509.932
1149 0 62.1879 12.1085 753 66.4648 118 509.871
1150 0 62.0513 12.7959 794 65.9736 117.6 508.975
1151 0 64.0339 13.2586 849 65.3286 117.504 508.823
1152 0 68.1654 13.878 946 63.9937 117.567 507.973
1153 0 69.1448 13.3054 920 65.3794 117.093 505.608
1154 0 73.0355 14.3766 1050 63.88 117.91 505.65
1155 0 75.0599 13.7224 1030 64.4126 117.826 507.164
1156 0 79.0527 13.2443 1047 65.2225 117.526 502.206
1157 0 79.0527 13.2317 1046 142.601 116.496 502.025
1158 0 81.0701 12.3843 1004 67.3456 117.492 498.921
1159 0 86.0901 12.3824 1066 67.44 117.477 498.286
1160 1 46.0622 11.1371 513 67.5906 117.487 519.908
1161 0 50.0328 13.2513 663 64.5701 116.952 519.477
1162 0 51.0716 13.4909 689 65.1161 116.951 517.321
1163 0 52.033 12.4921 650 66.9308 116.582 516.231
1164 0 53.0172 12.7129 674 66.589 117.049 517.059
1165 0 55.0631 15.4187 849 63.3899 117.481 515.061
1166 0 57.0885 15.0118 857 63.1575 116.964 515.21
1167 0 59.0552 14.8675 878 64.0581 116.735 513.576
1168 0 60.1001 13.1281 789 65.9531 116.815 513.436
1169 0 63.0967 13.8676 875 65.616 118.045 510.351
1170 0 65.0897 13.7963 898 65.2684 117.596 509.955
1171 0 65.1571 14.3039 932 65.3476 117.332 507.572
1172 0 70.0719 14.1141 989 63.9848 117.616 510.303
1173 0 71.0601 13.0453 927 66.3937 117.454 506.907
1174 0 72.124 12.6172 910 67.2011 116.876 505.215
1175 0 75.15 14.5309 1092 63.522 117.7 507.807
1176 0 78.1956 13.0186 1018 65.3762 116.443 506.284
1177 0 81.1048 13.3038 1079 65.3336 117.768 504.775
1178 0 83.0454 13.5709 1127 65.3505 118.185 502.822
1179 1 44.1524 11.8 521 67.7063 117.787 518.589
1180 0 46.105 12.1028 558 66.8244 117.946 521.638
1181 0 50.1346 12.7058 637 65.8885 117.878 517.604
1182 0 49.1526 13.3258 655 65.7328 117.499 517.501
1183 0 49.0983 12.0167 590 67.4763 117.505 517.341
1184 0 51.0288 13.8941 709 64.4951 117.546 517.636
1185 0 53.1302 12.7046 675 66.2415 117.076 514.662
1186 0 55.0906 13.7047 755 64.3563 117.629 514.148
1187 0 56.0365 13.0986 734 65.1185 117.516 513.796
1188 0 59.0788 12.0856 714 65.5966 117.207 513.644
1189 0 60.1746 12.2311 736 66.7337 118.125 511.431
1190 0 63.0404 13.1503 829 64.5271 117.186 512.347
1191 0 64.1938 13.0231 836 65.5287 116.73 509.886
1192 0 63.0882 11.8723 749 67.5728 118.112 508.02
1193 0 68.1889 13.9612 952 64.6943 117.834 505.334
1194 0 70.1685 12.5555 881 66.6141 116.97 503.688
1195 0 74.2321 14.5355 1079 63.5273 117.275 506.015
1196 0 75.0653 14.1344 1061 64.8369 116.886 504.031
1197 0 78.1678 13.1128 1025 66.3688 117.117 501.487
1198 0 82.2026 14.2696 1173 64.2404 116.549 503.403
1199 1 42.0802 14.0446 591 63.7953 117.091 521.257
1200 0 42.0182 14.3747 604 64.2517 117.121 519.887
1201 0 43.0664 11.2849 486 67.7387 117.074 520.195
1202 0 45.1884 12.4368 562 66.5676 116.826 520.854
1203 0 46.0714 12.8713 593 66.6459 116.901 518.806
1204 0 47.0948 13.1649 620 67.0806 117.245 516.64
1205 0 47.0416 11.4367 538 69.7677 117.398 516.671
1206 0 51.0298 14.5013 740 65.1919 117.561 515.019
1207 0 49.0538 11.8237 580 70 117.15 515.616
1208 0 53.2565 12.637 673 67.7489 116.856 514.944
1209 0 54.0585 13.9848 756 66.3148 117.152 515.614
1210 0 55.135 13.875 765 66.9085 116.609 511.766
1211 0 56.1581 13.0524 733 68.3356 116.593 509.224
1212 0 59.1004 13.4179 793 67.9067 116.652 511.351
1213 0 61.1816 12.6672 775 68.7058 117.354 509.439
1214 0 64.1414 13.7976 885 66.522 117.149 510.356
1215 0 66.1172 13.7786 911 66.2547 116.258 509.918
1216 0 67.2665 13.112 882 67.4444 117.644 508.433
1217 0 68.1179 13.5941 926 67.1534 117.238 508.525
1218 0 73.1268 14.1535 1035 65.971 117.007 505.599
1219 0 76.1811 12.6278 962 68.0416 116.792 503.794
1220 0 81.0854 14.3059 1160 65.7466 117.078 503.863
1221 1 40.052 12.0593 483 68.1222 117.565 520.453
1222 0 42.0568 13.3391 561 66.2317 117.178 522.235
1223 0 43.0365 12.5707 541 68.3641 117.002 519.501
1224 0 45.0198 12.5722 566 68.4099 117.625 519.774
1225 0 46.0592 12.7445 587 68.891 117.48 518.973
1226 0 46.0293 13.6869 630 68.3556 117.4 517.651
1227 0 48.0182 12.7452 612 69.549 117.861 517.922
1228 0 49.161 15.0729 741 67.0891 117.517 515.897
1229 0 52.3352 12.7448 667 69.5127 117.615 516.154
1230 0 53.0244 13.2958 705 69.6241 117.62 516.152
1231 0 54.0409 13.9894 756 68.6151 117.037 514.374
1232 0 55.0664 14.0376 773 68.3545 118.131 515.202
1233 0 55.0952 14.2118 783 68.8851 117.807 513.34
1234 0 57.0891 12.6469 722 71.2105 117.902 511.344
1235 0 59.0906 14.1478 836 69.1579 117.482 511.17
1236 0 62.0308 12.3326 765 71.7948 117.136 511.244
1237 0 64.0377 12.9455 829 70.9831 117.385 509.164
1238 0 67.0542 13.0939 878 70.4362 118.018 508.481
1239 0 68.2225 13.9104 949 69.5111 117.551 506.472
1240 0 72.1484 13.8465 999 69.1161 117.756 508.126
1241 0 73.1014 15.157 1108 67.7572 118.316 507.365
1242 0 72.0733 13.6111 981 70.9021 117.2 506.596
1243 0 76.0715 13.9868 1064 69.6739 117.723 503.73
1244 0 79.0683 14.8985 1178 69.0569 117.671 499.469
1245 0 83.0589 14.0382 1166 69.8165 118.359 499.714
1246 0 84.2178 14.4506 1217 69.0723 118.108 500.27
1247 0 85.2551 13.5945 1159 70.6739 118.44 497.867
1248 0 88.1 13.4506 1185 71.0506 118.228 498.801
1249 0 91.1444 13.3853 1220 71.4762 118.35 493.33
1250 0 94.0575 12.6731 1192 72.2726 117.639 494.634
1251 1 43.0425 11.9185 513 72.078 118.368 517.77
1252 0 44.0893 12.0891 533 72.6304 118.011 517.336
1253 0 46.1159 11.818 545 72.1119 117.741 517.376
1254 0 49.0503 12.5381 615 71.6016 117.766 514.166
1255 0 50.0638 12.2044 611 71.8543 118.052 515.625
1256 0 51.0588 14.0426 717 69.5941 118.01 514.167
1257 0 54.2094 13.7799 747 68.4659 117.98 513.545
1258 0 55.1816 14.1533 781 68.6773 117.745 512.965
1259 0 56.1655 13.1575 739 70.4898 118.003 511.367
1260 0 58.1322 12.6264 734 70.5177 118.52 512.215
1261 0 61.1504 13.4423 822 68.854 118.139 511.512
1262 0 62.0635 12.8095 795 70.1572 118.345 508.457
1263 0 65.0734 14.2608 928 67.6789 118.761 509.371
1264 0 65.2736 13.2519 865 69.222 118.768 508.272
1265 0 70.1527 13.9695 980 68.1878 118.05 505.561
1266 0 70.1749 13.4236 942 69.4437 118.003 503.434
1267 0 72.1294 12.0478 869 71.1795 117.133 503.356
1268 0 71.0542 11.9768 851 72.651 117.526 504.388
1269 0 76.114 13.5455 1031 70.4045 117.647 500.738
1270 0 77.1361 12.4715 962 72.2256 117.416 499.554
1271 0 81.0853 14.0839 1142 69.0499 118.028 498.458
1272 1 40.0965 11.2479 451 71.4013 117.789 519.84
1273 0 39.0091 13.6635 533 68.9456 117.698 518.092
1274 0 42.0292 13.2289 556 68.196 117.795 520.252
1275 0 43.2296 11.9131 515 70.6641 117.025 519.606
1276 0 44.0301 11.6057 511 71.4521 117.354 515.427
1277 0 44.0163 12.7453 561 69.303 118.087 520.246
1278 0 48.0189 13.8071 663 67.1478 117.937 519.089
1279 0 49.0321 12.7671 626 69.1693 117.537 517.123
1280 0 51.1481 12.5518 642 69.3894 117.364 516.385
1281 0 52.0605 14.3871 749 67.3191 118.765 514.378
1282 0 54.0851 12.129 656 70.0137 118.113 513.651
1283 0 56.1002 12.9411 726 68.4353 117.8 512.386
1284 0 57.0645 13.1956 753 68.5405 117.684 511.329
1285 0 60.0522 12.3559 742 68.938 118.206 511.329
1286 0 59.0969 12.1157 716 69.8701 117.522 510.655
1287 0 64.1351 12.4581 799 68.9787 116.93 507.322
1288 0 65.1738 13.3643 871 68.1435 117.416 506.676
1289 0 69.0975 13.4303 928 67.6013 117.37 508.654
1290 0 71.1076 14.5695 1036 66.2925 117.953 507.275
1291 0 73.1495 13.3835 979 67.9346 117.588 506.914
1292 0 74.1935 14.7048 1091 66.8121 117.404 505.311
1293 0 79.1236 14.1045 1116 67.1461 117.48 504.64
1294 0 80.1518 14.2854 1145 67.1231 117.904 503.591
1295 0 82.0582 14.3069 1174 67.2112 117.411 502.794
1296 0 83.0778 13.2045 1097 69.618 117.027 498.912
1297 0 87.1352 13.9553 1216 67.9885 117.894 501.287
1298 0 88.1692 13.8824 1224 67.9175 117.6 501.891
1299 0 93.1427 15.7178 1464 65.6776 117.523 498.21
1300 0 93.0561 13.3468 1242 68.876 117.208 498.667
1301 0 98.102 13.5369 1328 68.5489 118.407 495.369
1302 0 100.289 14.3086 1435 68.0885 118.522 494.883
1303 0 103.332 13.3937 1384 69.5751 117.689 491.783
1304 0 106.117 13.7302 1457 69.0281 117.511 492.086
1305 1 49.1015 12.3214 605 70.4231 117.288 519.195
1306 0 50.0388 14.3289 717 68.788 117.789 518.096
1307 0 53.074 13.321 707 69.5361 117.839 518.82
1308 0 54.1416 12.5412 679 72.1414 117.169 515.323
1309 0 57.0756 13.2631 757 70.1995 117.852 515.971
1310 0 59.2743 13.7328 814 70.0172 117.699 513.638
1311 0 61.1179 14.5457 889 68.8403 117.678 513.871
1312 0 63.1767 13.4385 849 71.0942 117.879 512.317
1313 0 63.1174 13.6412 861 71.4948 117.433 510.749
1314 0 65.1838 13.485 879 71.6974 116.896 509.572
1315 0 66.1648 13.5873 899 72.1791 116.998 508.37
1316 0 68.0785 12.1771 829 74.0024 117.416 509.124
1317 0 73.2294 14.0244 1027 70.4732 117.963 506.796
1318 0 73.104 14.3221 1047 70.3009 116.976 504.791
1319 0 77.3212 13.1141 1014 71.1923 116.539 505.494
1320 0 77.3852 12.2633 949 72.6786 116.571 504.688
1321 0 81.0786 14.6401 1187 69.2266 116.502 504.313
1322 0 84.1507 14.2126 1196 69.689 116.784 500.36
1323 0 87.2055 14.7124 1283 69.0896 116.631 499.626
1324 0 89.1934 13.5997 1213 70.4798 117.59 500.176
1325 1 43.2667 14.1679 613 68.8956 117.685 520.422
1326 0 43.0424 12.8943 555 71.0504 117.182 521.132
1327 0 44.1039 13.6723 603 70.3897 116.637 518.413
1328 0 47.0733 12.3425 581 70.4458 116.601 517.256
1329 0 48.147 13.0226 627 69.6587 117.461 518.887
1330 0 48.0531 11.0503 531 72.8569 117.058 517.686
1331 0 49.0453 11.1937 549 72.439 117.027 517.038
1332 0 55.1664 12.9064 712 69.5309 116.817 515.625
1333 0 53.1237 11.7085 622 71.8923 117.207 513.432
1334 0 57.1511 13.9455 797 68.3852 117.404 514.019
1335 0 57.0323 12.8173 731 70.6484 117.494 512.743
1336 0 60.1084 12.6272 759 69.5837 117.563 513.116
1337 0 63.2952 11.5807 733 69.9522 116.718 512.836
1338 0 63.1077 12.0746 762 70.6995 116.79 510.559
1339 0 66.0884 13.6786 904 69.2942 116.753 507.636
1340 0 68.1237 11.5966 790 71.5418 116.965 507.595
1341 0 71.0863 11.4087 811 71.4599 116.983 504.432
1342 0 74.1001 12.2267 906 70.8852 117.342 505.326
1343 0 76.1183 14.0308 1068 68.7219 116.708 503.772
1344 0 82.0921 13.1316 1078 68.4694 116.91 505.806
1345 0 82.0832 11.8051 969 71.3932 116.981 503.843
1346 1 44.0887 14.0852 621 69.4992 116.895 520.412
1347 0 45.2649 12.7693 578 70.7768 116.668 519.858
1348 0 47.0869 13.2733 625 68.5072 116.688 522.04
1349 0 48.0203 12.932 621 70.0966 117.525 519.913
1350 0 49.2595 13.1142 646 69.5402 117.133 519.802
1351 0 49.102 11.9344 586 72.2065 117.172 518.258
1352 0 54.0815 13.6831 740 68.6703 117.026 518.149
1353 0 55.2722 13.1712 728 69.1992 117.791 517.534
1354 0 54.147 12.1521 658 71.6459 117.609 515.52
1355 0 59.1002 13.4687 796 68.6734 117.178 514.219
1356 0 59.1658 13.1157 776 69.2152 117.374 515.144
1357 0 61.1898 12.8126 784 69.8546 117.468 513.204
1358 0 63.108 12.6925 801 70.367 116.744 510.167
1359 0 67.103 14.2766 958 67.3914 117.091 511.111
1360 0 70.1413 11.9045 835 69.4192 117.447 511.619
1361 0 72.0761 13.9991 1009 67.4688 117.45 508.837
1362 0 74.1133 13.8707 1028 68.143 117.14 505.964
1363 0 74.0751 12.7033 941 70.0733 117.523 503.796
1364 0 78.1125 13.1477 1027 69.0769 117.325 504.637
1365 0 80.2044 12.6427 1014 69.4783 117.525 503.065
1366 0 84.0788 14.9978 1261 66.3172 117.771 502.897
1367 0 88.34 14.2291 1257 67.856 118.274 500.153
1368 0 89.1099 13.7022 1221 69.0278 118.279 498.422
1369 0 94.1752 12.6997 1196 69.8044 118.183 497.87
1370 0 95.29 13.7685 1312 69.2736 117.465 496.139
1371 1 47.1118 12.8842 607 69.7117 117.12 517.661
1372 0 50.2472 14.5879 733 67.7654 117.063 517.677
1373 0 51.0653 14.3933 735 68.5102 117.747 517.234
1374 0 54.4233 13.689 745 68.3852 117.897 518.793
1375 0 54.258 12.4959 678 71.0885 117.291 514.034
1376 0 56.2092 12.9338 727 70.2215 117.362 514.32
1377 0 57.2921 13.1955 756 69.7235 117.267 514.229
1378 0 58.25 13.4077 781 69.5787 116.548 513.061
1379 0 61.2308 13.8492 848 68.7417 117.046 513.157
1380 0 64.2159 13.7505 883 68.983 116.869 512.025
1381 0 65.1214 10.442 680 73.5765 116.859 510.343
1382 0 68.104 13.1417 895 70.4369 117.201 508.314
1383 0 71.1502 13.3801 952 70.0252 116.929 506.118
1384 0 75.1634 14.0494 1056 68.3419 116.627 508.15
1385 0 73.1884 13.5814 994 70.2827 117.16 504.248
1386 0 76.1281 12.9913 989 70.725 117.574 503.202
1387 0 81.4072 12.763 1039 70.4206 117.616 504.273
1388 0 83.2556 13.4886 1123 69.3366 117.347 503.449
1389 0 84.3934 13.2001 1114 70.5242 117.254 498.473
1390 0 87.2425 13.365 1166 69.6835 116.847 501.716
1391 0 91.2165 13.6708 1247 69.081 116.918 498.203
1392 1 46.2426 13.5373 626 68.3994 116.423 521.054
1393 0 49.0898 11.2854 554 70.8664 116.581 520.634
1394 0 48.2568 12.6407 610 70.2066 116.284 519.751
1395 0 49.358 11.3457 560 71.5232 116.377 517.868
1396 0 51.1546 13.3126 681 69.8913 116.651 515.46
1397 0 56.2612 13.9528 785 67.9694 117.566 517.512
1398 0 59.2034 14.1039 835 67.5293 117.345 514.926
1399 0 58.3132 13.2046 770 70.0091 117.021 512.434
1400 0 59.1598 15.0778 892 67.4036 116.832 514.498
1401 0 62.2499 14.5061 903 67.9026 117.124 513.759
1402 0 62.4497 12.6342 789 71.1597 117.243 511.587
1403 0 64.1417 14.1562 908 69.1256 116.503 509.044
1404 0 69.3168 12.8829 893 69.6327 116.682 510.619
1405 0 71.2493 13.2633 945 68.9386 116.805 511.166
1406 0 74.1358 14.959 1109 66.9432 116.614 505.256
1407 0 76.2143 13.2652 1011 69.0574 116.571 506.86
1408 0 78.271 13.6449 1068 68.9878 116.325 503.283
1409 0 80.2353 13.2984 1067 68.9803 116.59 505.665
1410 0 82.1302 14.1483 1162 68.4036 117.593 502.766
1411 0 86.3158 14.3659 1240 67.9419 117.733 501.081
1412 1 43.1677 12.4399 537 69.8827 117.197 522.283
1413 0 42.1888 10.6189 448 73.192 116.993 520.962
1414 0 45.0955 11.0876 500 72.106 116.502 520.394
1415 0 47.2028 12.9441 611 69.5074 116.812 518.823
1416 0 48.2285 12.6481 610 70.6705 116.839 518.805
1417 0 49.2477 12.2848 605 70.9719 117.511 518.536
1418 0 53.1694 12.7329 677 69.9498 117.263 518.991
1419 0 52.2286 13.326 696 70.0302 117.618 515.813
1420 0 56.3188 14.1516 797 68.0351 116.955 515.011
1421 0 54.0845 11.7039 633 72.8088 116.758 514.221
1422 0 59.2459 14.2795 846 68.169 117.026 512.961
1423 0 58.3518 11.9791 699 71.5236 117.571 512.734
1424 0 62.1419 14.9979 932 66.5944 117.088 514.323
1425 0 62.1701 11.8224 735 72.2667 116.52 511.83
1426 0 67.3007 13.5957 915 68.7421 117.572 512.518
1427 0 69.1968 15.1886 1051 67.1075 117.602 511.677
1428 0 70.274 14.1304 993 68.8358 116.976 509.238
1429 0 69.1811 13.5586 938 70.1844 117.058 508.743
1430 0 74.2197 13.5139 1003 69.4237 117.56 506.67
1431 0 79.3223 14.6869 1165 67.2086 116.952 508.814
1432 0 78.2399 12.7684 999 71.0711 116.813 505.279
1433 0 80.269 12.7197 1021 71.2693 117.139 503.58
1434 0 85.243 13.4674 1148 69.6324 117.284 503.658
1435 0 88.2851 13.8189 1220 69.1213 117.216 501.998
1436 0 89.3202 14.8679 1328 67.8765 116.922 501.022
1437 1 48.1869 13.0533 629 68.0874 117.366 522.734
1438 0 49.1932 12.1765 599 71.025 116.75 519.342
1439 0 52.1606 13.2284 690 69.1159 116.599 519.006
1440 0 53.2223 12.6263 672 69.4732 117.155 519.387
1441 0 53.1129 12.4264 660 70.7803 116.621 517.582
1442 0 55.1882 12.557 693 70.8773 117.219 515.492
1443 0 57.3314 13.9888 802 68.1771 117.069 516.201
1444 0 58.2845 12.5591 732 70.2801 116.922 514.63
1445 0 63.3354 12.1259 768 70.362 116.958 513.497
1446 0 62.2322 12.7265 792 70.0972 116.745 512.602
1447 0 65.2177 14.0146 914 68.5624 116.982 509.987
1448 0 66.2481 12.574 833 70.383 116.472 510.688
1449 0 70.2349 13.1274 922 68.4967 117.653 511.675
1450 0 72.2413 13.9671 1009 67.9415 117.074 510.145
1451 0 74.1768 13.7644 1021 68.6474 117.832 506.905
1452 0 77.2095 12.6927 980 69.8429 117.524 505.994
1453 0 81.2272 15.2904 1242 64.789 117.704 508.923
1454 0 82.3344 14.3561 1182 66.8579 117.625 504.63
1455 0 86.3053 14.2981 1234 66.8744 117.441 503.235
1456 1 46.1394 12.7223 587 66.787 117.877 522.356
1457 0 47.1782 11.5308 544 67.6232 118.09 521.665
1458 0 48.4204 12.7219 616 66.7484 117.448 520.932
1459 0 50.1655 13.6149 683 65.5051 117.794 520.141
1460 0 50.2256 11.5081 578 69.436 117.863 517.247
1461 0 53.3094 13.5811 724 66.3412 117.968 517.876
1462 0 55.2163 12.5869 695 67.6892 117.512 518.768
1463 0 57.3258 13.746 788 66.5863 117.199 517.044
1464 0 58.1282 13.6767 795 67.078 117.116 514.152
1465 0 62.3206 13.0936 816 67.288 117.993 515.396
1466 0 62.1953 12.8145 797 67.2986 117.412 513.464
1467 0 65.3106 13.8569 905 65.9116 117.455 512.491
1468 0 68.1427 12.3124 839 67.0346 117.217 512.421
1469 0 67.2233 13.8345 930 65.6172 117.075 512.653
1470 0 71.2829 13.8883 990 65.2404 117.004 510.37
1471 0 72.2475 15.0455 1087 64.104 117.918 509.339
1472 0 75.2831 12.194 918 67.8693 117.854 506.958
1473 0 77.3107 12.9219 999 65.7978 118.564 509.313
1474 0 81.136 14.2354 1155 64.4909 117.36 504.566
1475 0 82.2282 13.1099 1078 66.0891 117.554 502.906
1476 1 47.1955 10.8273 511 67.0176 116.757 521.873
1477 0 48.3841 11.4914 556 65.8579 117.153 519.755
1478 0 50.2211 12.1662 611 65.2946 117.327 518.707
1479 0 52.2022 12.8922 673 63.2452 117.334 521.868
1480 0 50.1826 12.7335 639 65.5243 117.077 516.678
1481 0 55.095 14.7563 813 62.6777 117.802 516.887
1482 0 56.1288 12.5782 706 65.2068 117.312 518
1483 0 56.1764 13.3152 748 65.1725 117.1 515.464
1484 0 58.1275 13.7973 802 64.5524 117.279 516.146
1485 0 59.2144 13.8649 821 65.4348 117.667 512.562
1486 0 61.2729 12.3382 756 66.8426 116.827 512.808
1487 0 62.3314 13.0753 815 66.6037 116.517 512.618
1488 0 66.1204 13.5662 897 65.8818 117.128 512.396
1489 0 67.2719 14.4488 972 65.0329 117.494 512.891
1490 0 70.3617 12.8337 903 66.7353 117.564 510.204
1491 0 74.2336 15.3704 1141 63.5776 117.319 510.763
1492 0 74.2502 12.606 936 67.9038 117.293 509.378
1493 0 77.232 14.6571 1132 65.6917 116.809 506.426
1494 0 78.3172 14.1604 1109 67.2723 116.841 502.818
1495 0 80.1351 13.2401 1061 68.8275 116.335 504.435
1496 0 83.4397 13.7944 1151 68.1086 116.291 502.349
1497 0 84.264 12.9949 1095 69.8667 117.544 502.523
1498 0 88.2249 12.0714 1065 70.1728 116.787 501.475
1499 0 89.1518 15.0754 1344 67.4665 117.016 499.955
1500 0 97.3062 14.6137 1422 67.7011 117 497.242
1501 0 99.1839 14.1555 1404 68.6026 117.035 496.507
1502 1 50.2707 9.28971 467 74.3019 117.587 518.334
1503 0 54.4158 12.9558 705 70.3418 117.109 513.906
1504 0 56.2477 11.5738 651 72.2012 116.717 513.728
1505 0 57.4646 12.5642 722 71.0429 117.165 513.356
1506 0 61.2698 13.8078 846 68.2565 117.519 514.641
1507 0 61.1423 12.8716 787 70.3164 117.149 513.348
1508 0 64.1825 13.6953 879 68.3527 116.733 513.556
1509 0 66.3899 13.0893 869 69.3774 116.352 511.203
1510 0 67.2932 13.1366 884 70.0204 117.118 508.985
1511 0 68.3514 13.6793 935 69.2021 116.643 508.966
1512 0 74.2911 14.7259 1094 66.9141 116.786 507.532
1513 0 73.3636 13.1673 966 69.913 117.26 504.01
1514 0 77.3636 12.3055 952 70.4968 117.421 505.07
1515 0 79.0874 13.8455 1095 68.9863 117.151 501.452
1516 0 83.3813 13.7321 1145 68.5712 117.089 500.933
1517 0 86.3313 13.6451 1178 68.202 117.346 503.415
1518 0 88.5547 12.975 1149 69.9626 116.28 496.685
1519 0 91.177 13.1722 1201 69.4255 116.384 494.396
1520 0 93.2548 13.4685 1256 68.7261 116.154 496.086
1521 1 46.3339 11.0718 513 71.6062 116.589 518.191
1522 0 48.1302 10.1392 488 73.1332 116.658 516.553
1523 0 50.313 10.3949 523 71.9828 116.625 516.954
1524 0 53.2079 11.5396 614 70.7638 116.757 514.715
1525 0 52.255 13.0322 681 68.7812 116.952 516.347
1526 0 55.0843 10.2752 566 71.8657 116.928 513.456
1527 0 56.1104 12.9388 726 69.2631 117.227 512.289
1528 0 60.4031 13.8403 836 66.5132 116.435 513.038
1529 0 62.2616 13.7163 854 66.8993 116.374 512.451
1530 0 61.2298 12.8369 786 68.6845 116.036 511.777
1531 0 64.2779 12.1659 782 69.1995 116.295 510.551
1532 0 64.3268 13.2293 851 67.9624 115.845 509.859
1533 0 69.2429 11.7268 812 69.8485 116.659 505.105
1534 0 70.2298 12.1031 850 68.8306 116.558 504.211
1535 0 74.2327 14.4007 1069 65.9167 116.933 504.197
1536 0 77.276 15.1276 1169 64.7297 116.927 503.95
1537 0 80.1964 14.1278 1133 65.955 116.34 502.468
1538 0 82.3392 13.2136 1088 67.3897 116.789 500.336
1539 0 85.1742 12.8325 1093 68.1409 116.718 499.605
1540 0 86.2117 12.5737 1084 68.3303 116.451 498.691
1541 0 90.2137 13.6897 1235 66.6437 116.391 498.725
1542 0 93.2251 13.226 1233 67.1517 116.244 498.582
1543 0 96.495 14.3945 1389 65.55 116.456 497.041
1544 1 54.1635 13.4592 729 67.4033 115.665 517.798
1545 0 55.1639 12.2 673 69.0342 115.828 515.6
1546 0 57.1707 15.5499 889 65.4151 117.27 513.739
1547 0 59.1436 13.6617 808 67.448 116.108 513.178
1548 0 61.1227 13.7101 838 66.5155 116.406 513.535
1549 0 63.1818 12.8835 814 67.9263 117.075 509.59
1550 0 65.3265 13.93 910 65.5396 116.754 512.985
1551 0 68.1516 12.5162 853 66.8007 116.945 512.096
1552 0 69.2788 13.6694 947 65.868 116.8 508.652
1553 0 73.1635 15.0622 1102 64.0626 117.354 507.274
1554 0 74.3125 13.8335 1028 64.8103 117.193 507.12
1555 0 77.2233 13.9595 1078 65.3265 116.862 505.151
1556 0 80.1447 14.2243 1140 64.8035 116.796 504.389
1557 0 84.2285 12.9647 1092 65.8672 116.614 501.761
1558 0 84.1908 12.8399 1081 66.654 116.567 499.345
1559 0 88.4938 14.9841 1326 63.7632 117.438 502.262
1560 0 92.3337 15.0758 1392 63.9397 116.782 497.959
1561 0 91.2592 12.5905 1149 67.4238 116.486 498.928
1562 0 95.3867 12.5699 1199 67.4604 116.725 495.412
1563 0 100.405 14.6208 1468 64.8999 117.455 493.82
1564 1 56.2039 13.0062 731 66.1081 117.167 514.598
1565 0 55.3765 10.3112 571 70.4921 116.937 512.492
1566 0 57.2552 12.6975 727 67.3948 117.088 512.593
1567 0 59.2627 14.326 849 65.1402 116.894 512.376
1568 0 59.2176 12.7496 755 67.6026 117.184 509.309
1569 0 64.3364 14.6418 942 64.0658 117.299 508.847
1570 0 65.3089 12.5404 819 66.1136 117.17 510.083
1571 0 67.2816 12.3214 829 66.725 116.527 506.819
1572 0 69.3762 13.3475 926 64.7235 117.413 509.427
1573 0 72.2601 14.0603 1016 63.8878 117.508 506.293
1574 0 76.413 14.2646 1090 63.1899 117.873 504.877
1575 0 77.2983 10.8799 841 67.4507 116.489 503.476
1576 0 78.2543 11.8077 924 66.5703 116.972 503.282
1577 0 83.507 12.6576 1057 65.579 117.079 501.659
1578 0 85.4187 14.0016 1196 64.5067 117.482 501.365
1579 0 88.3355 13.4148 1185 65.6084 117.179 495.779
1580 0 94.3379 14.6495 1382 63.492 116.331 498.008
1581 0 93.3652 14.2987 1335 65.585 116.208 495.305
1582 0 94.311 13.1162 1237 67.1431 116.772 493.1
1583 0 101.374 13.6031 1379 65.6338 116.607 494.054
1584 0 103.418 13.634 1410 65.7667 116.335 490.362
1585 0 105.497 12.3985 1308 67.6399 116.2 491.091
1586 1 54.3515 12.9711 705 65.7206 116.248 514.674
1587 0 54.2776 12.3992 673 67.8692 116.706 512.273
1588 0 59.4915 13.3969 797 65.5119 116.194 514.275
1589 0 61.2878 11.9763 734 67.2575 115.541 511.454
1590 0 62.5033 12.6233 789 67.2725 116.847 508.238
1591 0 66.5586 12.4251 827 65.9323 117.045 511.32
1592 0 65.2758 13.2668 866 65.9215 116.428 508.894
1593 0 67.7382 13.3012 901 66.3596 116.391 508.728
1594 0 67.4121 12.431 838 67.6325 116.124 507.099
1595 0 71.4131 13.639 974 65.0791 116.651 506.008
1596 0 76.4065 12.7214 972 66.0545 115.76 503.719
1597 0 78.3127 14.4421 1131 64.45 116.126 503.498
1598 0 75.4402 11.6251 877 68.5393 116.515 502.96
1599 0 80.3183 11.2428 903 69.5493 115.955 501.996
1600 0 82.2756 14.9011 1226 65.164 115.565 501.737
1601 0 84.3103 15.2532 1286 64.661 115.943 502.26
1602 0 87.2875 13.2207 1154 67.2851 115.811 500.501
1603 0 90.3338 13.5498 1224 66.8301 115.873 498.249
1604 0 90.1975 15.0226 1355 64.5336 116.292 502.627
1605 0 95.3885 12.1608 1160 68.5543 116.696 496.895
1606 0 96.2219 13.2194 1272 68.1863 116.672 493.346
1607 0 100.36 14.3285 1438 66.3804 116.318 494.414
1608 0 106.536 13.7042 1460 66.6753 115.746 491.168
1609 0 105.419 12.8155 1351 68.393 115.952 492.01
1610 0 107.191 12.529 1343 68.6865 116.599 485.943
1611 0 112.327 13.7812 1548 67.2003 117.397 486.754
1612 1 58.4383 11.9442 698 70.116 116.655 513.324
1613 0 63.391 12.5412 795 68.2277 116.509 513.125
1614 0 65.5751 12.3523 810 67.963 116.316 512.353
1615 0 67.4488 12.6911 856 67.6869 117.486 510.764
1616 0 66.3642 12.3711 821 69.7674 116.613 509.918
1617 0 68.4 14.0643 962 67.684 116.625 508.541
1618 0 73.6628 13.5618 999 67.4665 116.8 508.239
1619 0 74.3629 12.9769 965 68.5637 116.371 506.481
1620 0 76.4927 13.766 1053 68.2317 116.785 505.466
1621 0 78.318 14.7603 1156 66.8806 116.235 505.042
1622 0 84.3962 14.5741 1230 67.1114 116.914 502.378
1623 0 85.3384 14.1671 1209 68.1704 116.782 500.996
1624 0 90.3739 15.7125 1420 65.6437 116.72 501.184
1625 0 91.561 14.788 1354 67.4106 116.614 499.965
1626 0 93.3998 13.4154 1253 69.6536 116.364 496.227
1627 0 96.4909 14.7268 1421 67.905 116.415 499.131
1628 0 99.4505 12.8003 1273 70.901 116.339 496.716
1629 0 103.447 11.8224 1223 72.0008 116.221 493.275
1630 0 107.618 16.6051 1787 65.6088 116.17 493.44
1631 1 61.4246 13.5776 834 68.0384 116.655 515.454
1632 0 62.4504 12.4419 777 70.5264 116.121 513.093
1633 0 63.5297 12.9074 820 70.15 115.104 513.524
1634 0 65.383 13.1991 863 69.6616 115.749 512.239
1635 0 67.5026 14.3106 966 68.5973 116.009 511.168
1636 0 70.5018 13.0919 923 69.9133 116.153 510.78
1637 0 71.3943 13.5165 965 69.4829 115.993 511.323
1638 0 73.3594 12.3093 903 71.3411 116.629 508.079
1639 0 75.3171 13.4763 1015 70.7212 116.56 506.611
1640 0 79.4668 13.1879 1048 71.2471 116.556 503.635
1641 0 80.433 12.2089 982 72.3992 117.206 504.158
1642 0 84.5759 14.5077 1227 69.7245 116.469 501.929
1643 0 86.4875 12.892 1115 71.7417 115.391 500.638
1644 0 92.6583 13.0911 1213 70.601 116.138 499.753
1645 0 92.4432 12.7213 1176 71.6182 116.156 499.319
1646 0 95.6251 12.1307 1160 71.8534 116.441 498.377
1647 0 97.6097 14.2609 1392 70.2845 116.778 495.908
1648 0 101.453 12.8434 1303 71.3377 115.962 496.438
1649 0 102.625 12.3654 1269 73.2545 116.701 492.879
1650 0 107.489 13.2199 1421 71.4968 116.453 491.791
1651 0 111.51 12.1065 1350 73.3304 116.68 489.121
1652 0 110.385 12.1394 1340 74.3575 116.452 487.798
1653 0 115.619 11.7974 1364 74.1019 116.377 486.938
1654 1 62.5374 12.3926 775 72.7974 116.68 510.2
1655 0 64.5164 12.5704 811 73.1924 116.302 510.173
1656 0 70.423 12.7515 898 70.6414 116.316 512.072
1657 0 67.3752 12.423 837 73.8315 115.563 507.545
1658 0 73.3586 13.7271 1007 70.4856 116.123 509.799
1659 0 75.5118 12.3954 936 72.187 115.917 506.888
1660 0 77.4921 14.9951 1162 69.463 116.896 505.026
1661 0 77.4305 13.9609 1081 70.5402 115.863 505.972
1662 0 83.5148 13.339 1114 70.5916 115.966 505.555
1663 0 84.5777 11.9535 1011 73.2127 116.628 503.658
1664 0 86.4863 13.5166 1169 70.8871 116.295 503.593
1665 0 89.3954 13.5242 1209 70.727 115.953 500.418
1666 0 90.3075 12.5128 1130 73.1823 116.786 494.718
1667 0 94.292 13.1294 1238 71.9782 117.347 496.407
1668 0 98.2677 13.9313 1369 70.9109 117.148 495.302
1669 0 98.2722 12.4959 1228 72.4943 116.931 491.345
1670 0 106.413 14.4062 1533 69.0111 117.217 495.963
1671 0 106.461 13.1691 1402 71.918 117.273 490.203
1672 0 111.206 14.01 1558 69.6893 116.75 490.262
1673 1 56.3288 12.143 684 71.8421 117.041 513.73
1674 0 56.258 11.4473 644 73.1087 116.547 513.489
1675 0 58.3853 12.2291 714 72.6471 116.996 513.136
1676 0 64.5406 12.3178 795 71.8189 116.753 511.366
1677 0 66.6825 13.9167 928 69.3481 116.986 512.852
1678 0 68.3817 13.7171 938 69.7836 117.083 509.985
1679 0 70.4561 12.5184 882 71.4184 117.244 508.595
1680 0 69.4295 11.292 784 73.3559 116.969 508.186
1681 0 72.5663 13.2293 960 70.8875 116.789 506.421
1682 0 73.4486 12.5258 920 71.9065 116.928 505.845
1683 0 77.5249 14.318 1110 69.4369 116.844 504.595
1684 0 81.4107 13.5117 1100 69.6464 116.99 506.386
1685 0 85.6929 15.5205 1330 67.0632 116.844 503.058
1686 0 85.4528 13.7503 1175 70.2792 116.465 501.427
1687 0 88.3752 14.4611 1278 69.8208 116.523 499.734
1688 0 92.3948 12.9769 1199 71.2102 116.622 499.611
1689 0 94.6273 13.0829 1238 71.664 116.708 495.641
1690 0 96.5083 14.1024 1361 70.5298 116.716 494.254
1691 0 102.453 14.5725 1493 69.5666 116.078 493.532
1692 0 103.636 14.6859 1522 69.5197 116.469 487.737
1693 0 107.415 15.6589 1682 68.2646 116.276 490.039
1694 0 112.561 15.4228 1736 68.0156 116.539 490.08
1695 0 114.343 13.8794 1587 71.0554 117.024 484.579
1696 0 117.491 14.2224 1671 70.3274 116.52 483.153
1697 0 121.5 13.3827 1626 71.6599 117.172 484.455
1698 0 123.362 13.9265 1718 70.6915 116.197 483.509
1699 0 129.575 14.5629 1887 69.5034 116.698 482.005
1700 0 133.451 14.3274 1912 70.4681 116.641 477.878
1701 0 136.563 14.2425 1945 70.7861 116.369 477.969
1702 0 140.383 14.5531 2043 70.4552 117.096 471.241
1703 1 73.2912 11.1337 816 73.5502 116.415 507.547
1704 0 78.4378 13.5649 1064 70.4981 116.23 506.642
1705 0 79.6081 11.7953 939 72.951 116.357 507.135
1706 0 79.5371 12.9625 1031 72.9651 116.155 503.845
1707 0 82.4502 13.2322 1091 72.2731 116.404 503.353
1708 0 87.5133 14.992 1312 69.4626 116.466 501.979
1709 0 88.8119 12.9825 1153 72.2437 116.433 501.202
1710 0 89.4488 13.0801 1170 72.8607 116.471 498.956
1711 0 91.6379 15.0484 1379 70.5149 117.258 496.249
1712 0 95.7018 14.4093 1379 71.4525 116.579 495.832
1713 0 99.6444 13.1568 1311 72.6026 116.646 494.561
1714 0 101.415 13.5977 1379 71.8332 116.228 495.262
1715 0 104.482 14.5672 1522 70.887 116.119 491.509
1716 0 107.615 15.0536 1620 70.3488 116.741 492.52
1717 0 109.506 13.5791 1487 72.6638 116.802 487.992
1718 0 113.638 13.895 1579 72.0741 117.26 487.209
1719 0 118.482 13.884 1645 71.7775 117.458 485.402
1720 0 119.597 13.37 1599 72.409 116.827 484.305
1721 0 125.422 15.3881 1930 69.786 116.722 482.628
1722 0 130.664 15.1227 1976 69.7981 116.156 480.232
1723 0 133.305 15.3558 2047 70.0166 116.305 477.718
1724 0 136.583 14.0501 1919 71.7718 116.443 476.274
1725 0 143.567 13.8611 1990 71.8161 117.144 477.215
1726 0 147.61 15.1006 2229 70.3706 117.191 472.729
1727 0 152.621 15.6532 2389 69.4843 116.899 470.017
1728 0 155.499 14.701 2286 72.1242 116.395 467.776
1729 0 158.65 13.8733 2201 73.1249 115.681 467.689
1730 0 166.875 15.239 2543 71.1404 116.144 462.226
1731 1 91.4497 14.1717 1296 72.189 116.291 500.552
1732 0 94.5025 15.0049 1418 71.2384 116.154 497.375
1733 0 97.4749 14.732 1436 71.8127 116.025 497.705
1734 0 98.5739 14.3649 1416 72.8806 116.832 494.876
1735 0 103.52 15.0502 1558 71.3562 116.934 495.542
1736 0 104.431 13.09 1367 74.6979 116.322 495.296
1737 0 107.6 14.4238 1552 72.768 115.958 491.418
1738 0 111.79 15.3145 1712 71.5853 115.974 488.657
1739 0 112.439 14.2121 1598 74.2259 116.818 487.867
1740 0 118.563 14.6083 1732 72.9059 116.475 488.923
1741 0 124.525 15.266 1901 71.6365 116.203 487.405
1742 0 127.541 15.6342 1994 71.328 116.969 485.918
1743 0 129.633 14.0242 1818 74.2233 115.865 483.199
1744 0 132.34 14.6593 1940 73.3995 116.891 479.787
1745 0 137.395 14.7676 2029 73.6496 116.436 476.517
1746 0 141.344 15.1616 2143 73.1792 116.072 474.266
1747 0 147.995 15.1221 2238 72.353 116.367 474.327
1748 0 150.538 14.6475 2205 73.7982 116.851 471.602
1749 0 157.532 15.4508 2434 71.9495 116.592 470.581
1750 1 79.4864 13.1595 1046 76.1042 116.226 505.989
1751 0 83.6036 12.5952 1053 77.584 116.272 505.308
1752 0 87.3895 14.4297 1261 74.8612 116.438 504.649
1753 0 87.5351 13.8916 1216 75.472 116.506 504.761
1754 0 91.447 14.205 1299 75.1971 116.768 502.136
1755 0 93.5909 15.3006 1432 73.354 116.632 499.236
1756 0 97.3965 15.709 1530 72.4379 117.098 499.216
1757 0 97.4428 15.1166 1473 74.0258 116.778 498.265
1758 0 99.4811 14.073 1400 75.5279 116.51 495.34
1759 0 99.4862 14.2231 1415 76.0565 116.965 496.708
1760 0 99.5598 14.8353 1477 75.9282 116.782 494.182
1761 0 101.361 14.7789 1498 76.6822 116.382 493.584
1762 0 98.3984 15.0307 1479 77.8188 116.255 492.22
1763 0 105.404 14.6199 1541 75.7255 116.726 495.022
1764 0 99.482 12.2836 1222 82.5393 116.72 494.107
1765 0 101.511 14.5797 1480 78.8155 116.807 493.943
1766 0 101.384 14.3612 1456 79.8173 116.435 492.547
1767 0 104.595 15.4501 1616 78.0421 116.35 493.479
1768 0 107.553 16.5314 1778 74.752 116.439 493.263
1769 0 107.549 17.499 1882 73.5871 116.51 494.404
1770 0 107.479 14.2633 1533 80.7012 116.197 494.049
1771 0 108.592 14.1355 1535 80.6775 116.121 495.388
1772 0 109.65 14.5189 1592 81.6501 116.278 490.644
1773 0 110.719 13.9904 1549 82.2208 116.99 493.372
1774 0 110.538 14.538 1607 80.7386 117.046 491.504
1775 0 110.73 14.7115 1629 82.6562 116.273 489.605
1776 0 112.706 14.7907 1667 82.4973 117.293 488.323
1777 0 114.433 15.1792 1737 81.1232 116.766 488.219
1778 0 114.734 14.904 1710 82.4953 116.454 489.33
1779 0 117.662 15.757 1854 80.5502 117.279 490.194
1780 0 117.51 15.003 1763 82.5905 117.175 484.91
1781 0 123.725 15.2111 1882 80.7056 117.525 485.497
1782 0 124.45 14.4878 1803 82.589 116.926 484.649
1783 0 127.494 14.8007 1887 81.4017 116.87 483.689
1784 0 126.58 14.2756 1807 84.2524 116.62 478.996
1785 0 129.514 14.8324 1921 83.8376 116.606 482.979
1786 0 131.466 14.8404 1951 84.4244 116.734 481.186
1787 0 133.431 16.1957 2161 81.7038 116.699 480.602
1788 0 135.621 14.393 1952 85.1808 116.988 480.661
1789 0 139.659 14.5426 2031 84.4712 117.139 478.807
1790 0 141.501 15.3638 2174 83.7318 117.159 474.323
1791 0 144.773 13.718 1986 87.2543 117.021 476.41
1792 0 142.704 15.01 2142 85.9678 116.67 471.824
1793 0 149.634 14.1746 2121 85.9425 116.788 476.32
1794 0 153.49 14.7241 2260 85.1743 116.148 472.235
1795 0 156.481 14.0528 2199 86.8008 116.976 470.271
1796 0 160.538 14.7255 2364 85.5935 116.194 467.785
1797 0 162.668 14.9753 2436 85.5213 116.878 467.803
1798 0 162.714 14.842 2415 87.0335 116.246 464.43
1799 0 167.554 15.3145 2566 86.5304 116.547 464.482
1800 0 169.401 14.3624 2433 88.5417 116.948 459.603
1801 0 177.61 16.3505 2904 83.72 116.324 458.349
1802 0 180.578 15.1679 2739 85.9639 116.074 456.554
1803 0 186.528 14.6412 2731 86.9301 116.928 453.844
1804 0 191.657 14.6459 2807 86.6145 116.833 453.32
1805 0 194.487 14.2992 2781 87.5444 116.203 449.768
1806 0 200.582 14.9116 2991 85.9539 116.772 449.989
1807 0 204.643 14.0733 2880 87.6153 116.214 449.374
1808 1 149.426 13.1771 1969 90.7506 115.708 474.009
1809 0 152.579 13.5012 2060 90.8587 115.959 473.17
1810 0 156.469 13.0313 2039 91.846 115.736 470.082
1811 0 163.542 12.9631 2120 89.6571 116.86 470.709
1812 0 166.498 14.1323 2353 88.0544 116.712 468.728
1813 0 170.809 13.9805 2388 89.0984 116.631 460.445
1814 0 175.544 13.8427 2430 88.7325 116.805 461.035
1815 0 178.775 13.7268 2454 88.6972 116.657 459.593
1816 0 185.698 13.8343 2569 87.1121 116.512 459.167
1817 0 188.725 13.6177 2570 88.042 116.427 453.435
1818 0 194.625 13.6878 2664 86.6974 116.433 453.71
1819 0 202.731 14.1271 2864 84.8698 116.08 449.515
1820 0 203.53 13.7769 2804 86.7668 116.558 442.782
1821 0 214.522 14.0266 3009 85.0857 115.978 443.311
1822 1 158.408 14.955 2369 84.2731 116.29 470.718
1823 0 156.613 14.0346 2198 87.6652 115.423 464.99
1824 0 164.484 14.6397 2408 86.3048 116.239 465.12
1825 0 163.655 13.4001 2193 88.2713 116.114 467.046
1826 0 167.471 14.707 2463 86.2075 115.88 459.749
1827 0 173.655 14.6325 2541 84.1192 115.741 459.78
1828 0 178.537 15.0109 2680 83.2131 116.39 459.386
1829 0 180.669 15.116 2731 83.1977 115.497 455.011
1830 0 185.711 14.6141 2714 83.2399 115.727 456.041
1831 0 187.671 14.0832 2643 83.5865 116.07 452.92
1832 0 193.623 15.3494 2972 81.1632 116.204 451.759
1833 0 190.555 14.8776 2835 82.9192 115.746 451.485
1834 0 197.782 14.4958 2867 82.9564 115.702 451.827
1835 0 199.722 13.3886 2674 84.537 115.733 448.044
1836 0 201.566 13.1917 2659 84.3501 115.586 442.809
1837 0 201.574 14.491 2921 81.2787 115.822 443.846
1838 0 202.633 15.5404 3149 81.497 116.004 442.851
1839 0 207.758 16.4856 3425 79.5308 114.924 446.255
1840 0 210.724 15.741 3317 79.5333 115.354 448.49
1841 0 213.67 14.4428 3086 81.5493 116.431 444.694
1842 0 216.464 14.0162 3034 81.8461 115.793 442.175
1843 0 218.789 14.1781 3102 81.7937 115.87 436.642
1844 0 223.581 13.5835 3037 82.6042 115.58 433.889
1845 0 226.564 13.5414 3068 83.293 115.948 433.651
1846 0 235.772 15.604 3679 78.1808 115.427 438.606
1847 0 234.611 14.0829 3304 82.4004 115.358 427.863
1848 0 242.624 14.1124 3424 81.8797 116.138 426.171
1849 0 249.598 15.6171 3898 79.8374 115.778 427.997
1850 0 252.662 16.2391 4103 79.3332 115.255 428.539
1851 0 259.493 15.8154 4104 81.2249 115.922 423.401
1852 0 266.61 15.4495 4119 81.4256 115.761 422.423
1853 0 268.664 14.3227 3848 85.0972 116.404 415.635
1854 0 275.677 15.0466 4148 82.9583 115.826 414.577
1855 1 219.772 13.9372 3063 87.0568 115.326 441.211
1856 0 224.777 13.4267 3018 86.9109 115.984 447.134
1857 0 227.596 13.9546 3176 87.7912 115.997 437.431
1858 0 233.639 14.7749 3452 87.0113 115.695 430.398
1859 0 239.78 15.7936 3787 84.8946 115.342 432.107
1860 0 243.621 13.6893 3335 88.8609 115.66 431.994
1861 0 252.05 15.247 3843 86.0986 115.525 424.357
1862 0 257.478 14.945 3848 86.0395 115.381 417.62
1863 0 255.885 14.4596 3700 88.6486 115.968 422.315
1864 0 259.404 15.4701 4013 86.932 116.015 419.413
1865 0 265.528 14.7442 3915 87.3068 115.604 416.151
1866 0 273.608 15.6684 4287 85.0096 116.153 411.269
1867 0 279.935 16.7253 4682 82.8366 115.852 409.409
1868 0 287.861 15.1948 4374 84.5423 115.842 409.855
1869 0 293.598 15.6302 4589 83.2937 115.868 405.744
1870 0 299.922 15.7641 4728 83.2054 115.809 404.73
1871 0 305.748 16.6215 5082 81.6328 116.168 397.607
1872 0 309.519 14.7261 4558 84.529 116.449 392.806
1873 1 326.535 20.1448 6578 73.7229 116.491 377.263
1874 0 322.012 16.2323 5227 81.4274 115.896 385.226
1875 0 332.044 17.8049 5912 78.2453 115.643 380.395
1876 0 335.935 16.6907 5607 80.2939 115.933 379.647
1877 0 344.88 16.4695 5680 80.2611 115.474 374.623
1878 0 352.091 17.4443 6142 78.9088 115.711 368.528
1879 0 360.968 17.0348 6149 79.525 115.834 365.998
1880 0 369.847 18.7158 6922 76.4168 116.587 362.949
1881 0 376.69 19.3315 7282 75.4486 116.141 365.45
1882 0 384.704 16.6544 6407 79.799 116.114 351.441
1883 1 332.692 13.8116 4595 85.7278 116.132 391.635
1884 0 343.261 15.1954 5216 83.4785 115.583 384.61
1885 0 349.008 16.14 5633 82.5537 115.69 379.683
1886 0 351.084 15.0192 5273 86.1483 115.84 377.821
1887 0 357.73 14.6032 5224 87.3197 117.278 374.306
1888 0 366.967 15.4401 5666 85.7277 116.795 366.114
1889 0 375.832 14.9615 5623 86.673 116.402 360.588
1890 1 394.008 15.5251 6117 84.8444 117.136 353.562
1891 1 270.667 14.6896 3976 88.3041 116.04 416.27
1892 0 273.692 16.2592 4450 86.3542 114.74 410.494
1893 0 281.731 16.6152 4681 86.3328 115.373 406.197
1894 0 287.654 14.4757 4164 91.305 115.829 407.474
1895 0 296.96 16.1369 4792 88.1751 115.77 403.891
1896 0 300.79 15.3063 4604 89.9722 115.615 397.963
1897 0 306.845 15.6007 4787 89.1901 116.088 395.92
1898 0 309.626 14.7275 4560 91.9397 115.969 392.302
1899 0 318.865 16.3549 5215 88.3615 116.714 388.03
1900 0 326.862 16.1169 5268 88.5716 117.014 386.038
1901 0 332.768 15.8579 5277 88.7908 116.963 384.778
1902 0 340.032 16.075 5466 89.3546 117.072 379.06
1903 0 341.119 15.7394 5369 90.6627 117.072 373.676
1904 0 345.804 18.0478 6241 86.9117 116.305 367.629
1905 0 355.158 18.7409 6656 84.9312 116.526 366.972
1906 0 362.87 17.6813 6416 87.1764 116.958 364.212
1907 0 372.956 18.3373 6839 85.9263 117.123 362.235
1908 1 317.071 15.476 4907 92.0084 117.044 393.514
1909 0 321.955 15.0984 4861 93.0915 116.436 392.934
1910 0 330.785 15.8804 5253 92.5844 117.026 382.293
1911 0 335.886 16.4907 5539 92.3322 116.649 379.296
1912 0 344.808 16.8064 5795 90.98 116.19 372.891
1913 0 346.795 14.7263 5107 97.1621 116.223 375.283
1914 0 353.728 15.8455 5605 95.1684 116.657 370.542
1915 0 360.091 16.6514 5996 93.7984 116.056 370.174
1916 0 366.144 15.0296 5503 97.4766 116.553 360.686
1917 0 375.171 15.8781 5957 95.029 116.98 363.222
1918 0 406.144 17.4667 7094 91.3239 116.724 342.928
1919 0 406.135 19.3211 7847 87.0951 116.396 340.255
1920 0 407.609 17.188 7006 92.2077 116.639 342.742
1921 0 416.151 16.965 7060 92.5256 116.145 332.791
1922 0 423.926 17.3875 7371 91.4732 116.577 328.955
1923 0 421.726 17.9311 7562 91.2306 117.158 336.935
1924 0 421.641 17.1117 7215 93.2455 117.283 330.357
1925 0 413.704 17.4714 7228 92.3946 117.463 334.422
1926 0 410.872 16.7984 6902 93.8374 116.337 342.842
1927 1 62.6698 13.3717 838 96.9726 115.316 508.984
1928 0 64.541 12.0389 777 99.4981 115.498 509.304
1929 0 63.7623 13.1112 836 98.1543 115.551 508.3
1930 0 65.5154 14.012 918 96.5599 115.33 507.815
1931 0 66.6069 13.3019 886 98.3476 115.779 506.805
1932 0 67.6857 13.3115 901 98.3774 115.935 507.804
1933 0 62.5318 13.5131 845 101.27 116.278 506.438
1934 0 66.82 14.9506 999 96.5676 115.385 508.234
1935 0 63.6142 13.1574 837 102.34 115.487 506.582
1936 0 60.5452 15.3934 932 99.2307 115.518 507.465
1937 0 62.6107 15.2689 956 99.3661 114.857 508.543
1938 0 66.558 16.7223 1113 94.3504 114.29 508.338
1939 0 67.8267 14.9499 1014 97.4142 114.952 508.408
1940 0 69.6618 14.6278 1019 96.4926 113.826 506.315
1941 0 71.833 14.2971 1027 96.3155 114.385 506.94
1942 0 73.8281 15.2923 1129 93.4996 114.303 505.427
1943 0 74.787 15.7514 1178 92.7156 114.445 505.048
1944 0 74.5745 16.8422 1256 90.0979 114.462 505.518
1945 0 76.4656 15.9287 1218 91.7406 113.965 503.89
1946 0 77.5807 15.674 1216 92.7673 113.581 503.46
1947 0 78.6854 14.971 1178 94.2767 114.338 500.267
1948 0 79.7963 14.4994 1157 94.8652 113.484 500.51
1949 0 82.5793 13.7807 1138 95.9236 113.426 499.353
1950 0 82.5697 14.4605 1194 95.5293 113.527 499.948
1951 0 81.762 16.7437 1369 91.7443 112.714 497.879
1952 0 82.8417 14.8597 1231 96.1812 112.314 499.936
1953 0 85.6185 14.6931 1258 96.2901 112.599 497.896
1954 0 87.6934 15.4744 1357 94.6986 112.97 498.515
1955 0 89.8556 16.3707 1471 92.0653 112.349 496.27
1956 0 90.6527 15.9289 1444 93.3068 112.482 493.153
1957 0 93.7459 15.734 1475 93.5586 112.559 494.628
1958 0 93.9953 16.2774 1530 92.4745 112.797 492.141
1959 0 96.086 14.82 1424 96.2416 112.938 493.808
1960 0 97.8166 14.2205 1391 97.0165 113.594 492.586
1961 0 98.7428 15.1606 1497 94.7442 113.411 492.361
1962 0 100.732 14.4045 1451 96.0386 113.819 490.921
1963 0 102.854 14.7199 1514 96.3342 113.767 488.334
1964 0 105.847 14.3982 1524 96.0748 113.593 488.54
1965 1 56.8957 12.5141 712 97.5056 113.537 510.531
1966 0 56.746 13.0053 738 97.7426 113.953 508.587
1967 0 62.8834 13.1672 828 95.2355 114.091 509.094
1968 0 60.8228 13.1036 797 96.4241 114.666 506.59
1969 0 59.6187 12.7812 762 98.0328 114.572 506.945
1970 0 61.887 13.4439 832 94.3305 115.043 508.173
1971 0 62.6406 12.899 808 94.8119 115.126 506.688
1972 0 59.5049 13.4443 800 96.27 115.271 504.191
1973 0 62.1116 13.1054 814 95.9005 114.945 504.077
1974 0 67.9529 13.9067 945 92.9016 114.456 504.145
1975 0 66.7712 14.018 936 92.7222 115.333 501.981
1976 0 65.8509 13.3483 879 93.7315 115.209 504.667
1977 0 67.9447 12.569 854 95.3302 115.615 501.763
1978 0 66.7061 14.0017 934 92.682 115.157 502.695
1979 0 70.7882 14.282 1011 92.277 116.371 501.121
1980 0 72.7842 13.5881 989 93 115.726 500.097
1981 0 70.6982 14.1588 1001 92.3367 116.069 500.787
1982 0 75.138 14.5333 1092 90.7894 116.151 497.868
1983 0 76.7512 14.8793 1142 88.7067 115.019 499.032
1984 0 75.8493 14.0278 1064 91.7876 115.797 498.008
1985 0 76.936 14.7265 1133 90.0644 115.423 496.925
1986 0 80.8674 14.0724 1138 89.6292 116.025 497.518
1987 0 83.0415 14.3422 1191 88.5987 116.592 496.973
1988 0 81.8765 14.0455 1150 89.8261 115.863 494.873
1989 0 83.1718 13.8028 1148 90.7012 115.987 493.888
1990 0 85.9077 15.9241 1368 85.9159 116.506 493.705
1991 0 87.972 14.1522 1245 88.9165 115.975 492.467
1992 0 89.1592 14.6367 1305 88.4552 115.996 491.229
1993 0 91.627 13.6532 1251 88.7114 116.508 491.053
1994 0 95.9354 15.3645 1474 84.156 116.889 490.285
1995 0 96.0585 14.9388 1435 86.0634 117.731 488.369
1996 0 96.0626 15.2921 1469 86.2301 117.273 486.21
1997 0 100.329 14.5321 1458 86.5453 116.223 485.514
1998 0 99.1131 14.9728 1484 87.0984 116.177 485.248
1999 0 100.997 15.1094 1526 86.1003 116.812 485.733
2000 0 102.287 15.2806 1563 86.2271 116.935 487.374
2001 0 105.208 16.111 1695 84.1021 116.851 485.563
2002 0 101.92 13.7951 1406 88.0491 116.636 486.48
2003 0 107.323 14.4238 1548 87.6434 116.227 481.145
2004 0 110.222 15.5686 1716 85.1294 115.563 479.559
2005 0 110.199 14.6826 1618 87.021 116.498 480.126
2006 0 112.119 14.6897 1647 85.7268 116.293 481.14
2007 0 113.787 15.0017 1707 85.7252 116.214 480.308
2008 0 114.839 15.0646 1730 86.4896 116.883 477.406
2009 0 117.292 15.5595 1825 85.2274 116.772 478.567
2010 0 119.102 14.8108 1764 86.3146 116.583 479.177
2011 0 119.802 14.9413 1790 86.3676 115.748 478.079
2012 0 125.048 15.8978 1988 84.2777 115.952 476.11
2013 0 124.999 14.2721 1784 87.5325 115.748 475.021
2014 1 60.9645 13.4997 823 87.9247 115.803 504.19
2015 0 63.1893 13.2143 835 88.5305 115.388 502.613
2016 0 63.1084 15.2912 965 85.6124 115.653 502.592
2017 0 61.7537 15.1084 933 87.6024 115.382 501.934
2018 0 64.1908 12.2915 789 90.398 114.861 503.906
2019 0 68.0471 15.2248 1036 84.9865 114.842 502.941
2020 0 67.9294 16.1638 1098 84.0747 115.068 502.723
2021 0 65.0747 14.3066 931 88.3351 115.724 501.475
2022 0 69.9981 14.7004 1029 86.4082 115.591 500.851
2023 0 70.2392 14.5788 1024 86.0303 115.443 500.4
2024 0 71.9414 14.8454 1068 85.9466 115.783 498.497
2025 0 71.0274 13.6004 966 90.2381 115.858 498.922
2026 0 71.9719 14.7835 1064 88.5883 115.562 497.64
2027 0 70.8591 15.5802 1104 87.038 115.086 498.183
2028 1 154.133 15.824 2439 87.5433 114.808 458.604
2029 0 157.27 16.4812 2592 86.3873 114.913 458.703
2030 0 161.195 15.1183 2437 88.8728 116.133 454.403
2031 0 163.306 15.523 2535 87.1341 116.327 460.211
2032 1 263.314 16.3303 4300 87.3595 114.818 409.228
2033 0 267.96 17.2227 4615 86.4559 115.518 404.241
2034 0 272.127 15.4818 4213 89.3029 115.891 400.416
2035 0 269.65 12.9019 3479 92.4389 115.92 408.058
2036 0 274.239 11.9932 3289 90.7337 114.796 422.255
2037 0 272.829 10.8933 2972 91.9482 114.397 426.81
2038 1 309.199 20.372 6299 79.6233 114.882 374.605
2039 0 310.243 20.9674 6505 80.3626 115.666 375.918
2040 0 314.174 17.9678 5645 85.5277 115.518 380.95
2041 0 316.953 17.8954 5672 86.1178 116.058 377.504
2042 0 324.207 18.4419 5979 85.6558 115.746 370.484
2043 1 263.262 15.8929 4184 89.4089 115.669 414.916
2044 0 265.926 15.1282 4023 91.3637 115.661 410.646
2045 0 268.837 14.0085 3766 93.0576 115.433 414.401
2046 0 275.652 16.1109 4441 91.1972 114.674 404.45
2047 0 279.204 16.3142 4555 91.708 114.996 402.495
2048 0 284.341 15.6538 4451 93.0517 115.339 400.966
2049 0 287.146 16.8451 4837 92.2983 115.212 396.314
2050 0 292.305 15.7165 4594 94.0684 114.906 397.874
2051 0 299.068 18.3604 5491 89.2779 114.993 395.806
2052 0 305.554 17.2244 5263 92.7123 115.285 383.67
2053 1 319.13 22.7306 7254 81.9639 114.177 365.684
2054 0 317.27 19.5732 6210 88.6502 114.498 377.065
2055 0 321.999 18.5467 5972 90.7465 114.893 374.281
2056 0 328.399 18.2552 5995 92.3329 115.09 373.424
2057 0 332.944 18.9641 6314 92.2116 114.412 364.556
2058 0 341.277 18.9494 6467 92.12 114.789 368.026
2059 0 347.3 18.6525 6478 94.176 114.669 360.32
2060 0 356.431 19.3165 6885 96.6274 114.588 359.326
2061 0 363.288 19.6814 7150 96.7134 114.497 350.306
2062 0 371.994 19.6482 7309 97.135 114.409 343.223
2063 0 382.262 20.2374 7736 96.6894 114.749 342.158
2064 0 390.043 19.2517 7509 99.2697 114.466 336.435
2065 1 349.969 14.8185 5186 106.903 114.662 370.688
2066 0 359.674 15.6559 5631 105.764 114.581 365.105
2067 0 362.889 17.3028 6279 104.558 114.685 350.913
2068 0 370.056 15.9895 5917 108.034 115.057 357.068
2069 0 376.471 17.6083 6629 105.736 114.747 350.303
2070 0 383.141 20.1493 7720 100.845 114.737 338.294
2071 0 391.352 19.2052 7516 102.953 114.383 341.268
2072 0 401.161 19.1893 7698 104.085 114.378 332.252
2073 0 413.422 18.8161 7779 104.614 114.964 327.878
2074 0 423.344 17.9074 7581 106.547 114.478 319.15
2075 1 241.897 16.2424 3929 108.452 114.353 418.393
2076 0 247.706 17.4077 4312 106.522 114.315 414.678
2077 0 252.065 15.984 4029 109.728 114.485 413.202
2078 0 257.156 15.9748 4108 110.516 113.746 408.918
2079 0 261.918 15.8561 4153 111.529 114.511 404.166
2080 0 269.075 16.5716 4459 110.226 114.452 403.217
2081 0 274.753 15.9962 4395 111.598 114.453 397.529
2082 0 284.055 16.2468 4615 111.304 114.835 396.139
2083 0 288.02 16.4607 4741 111.131 114.864 395.188
2084 0 296.012 16.7358 4954 110.711 114.839 392.015
2085 0 298.542 16.2691 4857 112.523 114.948 386.867
2086 0 304.921 15.9386 4860 114.095 114.824 381.082
2087 0 313.039 16.2631 5091 109.198 114.229 376.825
2088 1 201.746 20.9124 4219 93.0612 113.706 431.505
2089 0 203.146 22.4862 4568 89.3111 113.202 426.557
2090 0 205.029 21.5726 4423 91.1849 113.782 420.113
2091 0 204.88 21.0904 4321 94.1291 114.005 421.647
2092 0 204.159 21.9241 4476 94.4868 114.175 421.902
2093 0 204.827 22.8632 4683 93.7391 113.971 421.757
2094 0 205.559 21.2931 4377 98.4048 114.025 424.237
2095 0 206.268 20.1776 4162 101.918 114.823 423.377
2096 0 207.715 22.4587 4665 98.367 114.272 419.842
2097 0 205.607 20.7629 4269 104.027 114.58 422.519
2098 0 207.771 19.1798 3985 108.753 115.041 419.752
2099 0 211.612 22.1632 4690 102.845 114.748 420.851
2100 0 214.027 22.5626 4829 102.875 114.501 423.288
