time division length width area intensity CMx CMy
0 0 44.0379 11.808 520 64.6885 362.758 518.529
1 0 45.0544 11.1199 501 65.2495 362.719 518.703
2 0 46.1734 12.2148 564 63.8085 362.119 518.192
3 0 46.1426 12.0062 554 64.7834 361.998 516.014
4 0 49.1004 12.0366 591 63.6193 362.147 517.794
5 0 50.0175 12.0758 604 63.7715 362.353 517.531
6 0 51.0386 13.5192 690 62.313 362.094 518.045
7 0 53.0417 12.2168 648 63.3966 361.117 519.16
8 0 54.086 11.9254 645 63.6899 361.558 519.646
9 0 56.0966 14.4572 811 61.4599 361.359 518.551
10 0 55.0587 13.2404 729 63.1111 361.333 519.251
11 0 58.0772 13.2582 770 64.1221 361.001 516.87
12 0 60.0785 13.3825 804 63.8358 361.048 517.557
13 0 63.0887 14.6302 923 62.6436 361.481 515.042
14 0 60.1964 11.8944 716 67.3673 360.265 514.309
15 0 65.0645 13.7248 893 64.8175 360.368 514.923
16 0 67.0711 14.7754 991 64.3976 360.829 513.7
17 0 67.0971 13.0259 874 67.5652 360.641 511.256
18 0 68.0529 12.9899 884 68.3077 361.228 511.717
19 0 70.027 11.8383 829 69.2292 361.212 514.452
20 0 73.1566 12.9858 950 68.2726 360.9 513.178
21 0 74.0437 12.8708 953 69.8531 360.131 508.402
22 0 77.0767 11.3783 877 70.8951 360.299 510.633
23 0 80.1337 13.8144 1107 68.1888 360.331 508.69
24 0 82.1012 12.5942 1034 70.3153 360.502 508.024
25 1 42.0239 13.6351 573 68.5532 360.468 523.396
26 0 43.109 13.0135 561 69.6364 360.85 523.487
27 0 44.0139 12.4733 549 70.7432 361.215 523.996
28 0 47.0544 13.835 651 68.9416 360.845 522.137
29 0 47.0296 13.3958 630 70.8587 360.911 522.368
30 0 49.0221 12.8718 631 71.3645 361.471 521.59
31 0 52.0806 13.5751 707 69.7652 360.216 521.935
32 0 53.0272 13.3139 706 71.7946 360.752 518.17
33 0 54.0406 12.8607 695 72.3338 361.424 519.033
34 0 58.0335 13.5094 784 70.8546 361.325 517.237
35 0 58.0523 12.8333 745 73.1624 361.847 516.893
36 0 60.0321 12.5766 755 73.2371 361.15 516.742
37 0 61.0559 12.6114 770 74.6078 361.303 515.947
38 0 66.0399 14.037 927 72.3182 361.922 515.3
39 0 66.112 12.1612 804 75.8582 362.163 515.602
40 0 69.0601 13.2638 916 75.4247 361.597 511.951
41 0 71.0956 13.4467 956 74.977 361.497 511.923
42 0 71.0287 12.7554 906 76.9801 361.945 511.476
43 0 74.12 12.8305 951 76.8339 362.238 511.278
44 1 39.0268 12.5555 490 77.2347 362.32 526.863
45 0 41.0524 13.7142 563 76.0195 361.826 525.705
46 0 43.0693 12.5612 541 77.3715 361.477 526.64
47 0 45.0776 13.4213 605 75.924 362.587 525.255
48 0 44.0775 11.8428 522 78.4406 362.987 525.852
49 0 47.0146 12.6769 596 77.0705 361.938 524.94
50 0 47.0877 13.3156 627 77.0478 362.44 523.904
51 0 50.1007 13.0138 652 76.7883 362.331 523.423
52 0 50.0427 12.9889 650 76.6446 362.191 522.388
53 0 53.0297 12.4459 660 77.6727 362.156 520.247
54 0 55.1029 12.2317 674 77.8798 362.206 518.976
55 0 53.0486 13.1766 699 78.402 362.775 518.977
56 0 57.0384 13.2016 753 77.2829 362.272 517.738
57 0 59.0341 12.5182 739 78.9635 362.437 517.023
58 0 60.1119 13.1422 790 77.981 362.111 515.496
59 0 63.1296 11.9754 756 78.2553 363.307 517.167
60 0 65.069 13.5241 880 75.9795 363.59 515.97
61 0 69.0819 13.2017 912 76.0395 363.51 514.19
62 0 70.0197 13.4105 939 76.4111 363.204 513.177
63 0 73.0743 13.151 961 76.5328 363.375 510.345
64 0 75.16 12.8393 965 76.4601 363.125 512.822
65 0 77.0713 14.0519 1083 75.7572 362.632 509.463
66 0 78.0656 12.7329 994 79.4074 362.533 506.548
67 0 80.0741 10.79 864 81.1123 362.486 509.206
68 1 40.0435 11.7872 472 79.8051 362.076 525.222
69 0 41.026 11.7487 482 79.4274 362.479 526.861
70 0 43.0322 12.4093 534 79.9008 363.034 523.298
71 0 44.0676 12.2312 539 79.4026 363.275 524.614
72 0 44.0217 13.1526 579 78.9396 363.2 522.611
73 0 46.0344 12.2517 564 79.2234 362.181 523.918
74 0 49.0236 12.8713 631 77.4422 361.765 524.347
75 0 48.1079 12.0354 579 80.1848 361.815 522.917
76 0 52.0386 13.8743 722 76.626 362.475 521.508
77 0 51.0285 13.1299 670 78.206 362.351 521.83
78 0 54.0723 13.0196 704 77.7685 362.345 520.141
79 0 55.0425 12.6811 698 79.2736 362.218 517.956
80 0 57.0436 12.3765 706 79.2677 362.618 518.698
81 0 61.0585 12.2833 750 78.6933 362.832 518.172
82 0 61.1667 13.4223 821 77.8782 362.92 516.667
83 0 62.0614 12.0526 748 80.9438 363.453 515.877
84 0 64.0481 13.7553 881 78.4313 362.856 515.958
85 0 68.1417 13.7067 934 78.4529 362.469 514.128
86 0 67.0281 12.2784 823 81.6027 363.029 514.803
87 0 70.0859 13.5263 948 80.2257 362.715 509.791
88 0 73.05 14.2094 1038 79.3661 362.333 509.634
89 0 77.0767 13.6228 1050 79.4238 362.27 510.863
90 0 78.0959 13.2529 1035 80.9594 362.488 509.571
91 0 77.2605 12.2184 944 84.9036 362.468 507.016
92 1 39.0171 12.6355 493 82.8824 362.996 525.142
93 0 41.0372 12.0622 495 82 363.046 526.586
94 0 41.0435 11.6949 480 83.3375 363.292 525.648
95 0 43.0209 11.2039 482 83.8154 363.058 525.01
96 0 44.0338 12.5813 554 81.6191 363.325 525.2
97 0 46.02 13.4072 617 79.4587 363.196 524.799
98 0 47.0865 12.1478 572 82.8969 363.047 523.914
99 0 49.0321 12.7263 624 81.3766 362.506 521.582
100 0 51.033 12.0118 613 81.9821 362.677 521.892
101 0 50.0387 12.93 647 83.2705 362.326 518.954
102 0 54.0445 12.6747 685 82.2759 362.866 519.072
103 0 54.0463 13.655 738 82.5718 362.948 516.432
104 0 58.0502 13.0921 760 82.6013 362.843 517.134
105 0 58.0949 12.8066 744 83.8078 362.755 515.094
106 0 62.0537 13.5044 838 81.9296 362.724 513.508
107 0 62.0523 13.3758 830 83.6398 363.046 512.399
108 0 65.0587 14.1872 923 81.0162 362.262 512.871
109 0 68.0373 15.0212 1022 79.1282 362.434 512.442
110 0 68.0569 12.8422 874 84.5904 363.106 511.373
111 0 71.0572 12.5673 893 85.4311 363.105 507.087
112 0 73.0893 13.2714 970 84.267 362.501 505.725
113 0 74.0432 13.6542 1011 84.7844 362.605 504.663
114 0 76.0609 13.3972 1019 84.1639 362.364 505.453
115 1 43.073 12.6761 546 83.011 362.229 522.652
116 0 44.0548 11.1906 493 85.4097 362.801 523.949
117 0 45.0515 12.2083 550 83.9418 363.015 522.755
118 0 46.1 12.7549 588 83.6514 363.294 521.728
119 0 49.075 13.0413 640 82.6469 363.431 519.941
120 0 49.0355 13.0925 642 82.257 363.083 519.749
121 0 51.059 13.8271 706 81.0212 362.292 517.918
122 0 52.1368 14.3852 750 79.9907 362.168 516.164
123 0 53.0541 12.4024 658 83.2508 362.222 516.965
124 0 56.0799 13.142 737 81.0963 361.589 516.718
125 0 58.1524 12.2093 710 81.7324 361.611 516.049
126 0 58.1336 12.5573 730 82.2904 361.852 514.726
127 0 59.0461 12.7019 750 81.736 362.568 513.835
128 0 64.0248 13.0887 838 79.6981 361.332 513.481
129 0 66.0955 13.5108 893 79.0269 362.056 510.651
130 0 68.0864 13.4976 919 78.6387 362.469 510.474
131 0 71.0669 12.6219 897 79.6232 362.469 509.375
132 0 71.1319 12.8915 917 79.0992 362.303 509.182
133 0 74.0986 13.3471 989 78.4833 362.375 505.468
134 0 76.1982 11.7719 897 80.388 362.808 507.632
135 0 79.0463 12.7141 1005 79.4249 362.636 503.532
136 0 83.0928 13.9964 1163 76.4635 363.239 501.643
137 0 86.1087 13.483 1161 76.5116 362.635 501.319
138 0 87.0727 13.8964 1210 76.5653 363.091 498.25
139 0 91.143 13.3965 1221 76.5798 362.757 498.151
140 1 46.0672 12.8942 594 76.3199 362.773 517.944
141 0 47.035 11.7997 555 78.0486 362.613 517.885
142 0 49.1338 12.4965 614 76.1954 363.435 516.855
143 0 51.0805 11.57 591 76.7056 362.629 518.741
144 0 49.0206 12.8109 628 76.4602 362.395 516.306
145 0 51.0301 12.3653 631 76.0301 362.937 515.702
146 0 54.0788 11.927 645 75.4465 362.634 514.329
147 0 57.1087 12.4324 710 74.0972 362.441 514.548
148 0 60.0972 12.4631 749 73.4326 362.343 512.935
149 0 59.0824 12.2371 723 74.6985 362.665 513.318
150 0 62.0651 14.3076 888 70.6306 362.62 512.698
151 0 62.0336 12.2353 759 74.4756 362.97 510.21
152 0 66.0567 12.0503 796 74.3404 361.893 509.984
153 0 67.0489 14.3477 962 70.6362 362.384 507.93
154 0 70.0518 12.7763 895 73.0737 361.985 507.759
155 0 74.0628 13.9881 1036 70.445 362.598 506.014
156 0 74.0518 13.9902 1036 70.9527 363.169 505.537
157 0 79.0618 11.4847 908 74.2203 362.883 504.596
158 0 80.0607 14.8013 1185 69.2641 362.785 502.878
159 0 80.0267 12.2459 980 74.4398 362.548 499.757
160 0 85.0815 13.3519 1136 72.0299 362.291 500.223
161 1 45.0127 11.9744 539 72.2449 361.827 518.944
162 0 46.056 11.79 543 71.7698 362.372 519.657
163 0 47.0148 12.6769 596 70.4295 361.968 518.941
164 0 49.0319 12.6652 621 69.6747 362.71 519.272
165 0 49.0485 11.7639 577 72.0624 361.96 517.461
166 0 51.1162 12.4814 638 70.9342 362.98 516.168
167 0 53.0319 12.1436 644 71.0885 362.814 515.463
168 0 55.031 11.5753 637 71.3454 362.589 513.706
169 0 56.0223 11.4062 639 71.3615 362.354 513.44
170 0 57.0972 11.3666 649 71.9738 362.371 512.029
171 0 58.0332 11.4245 663 71.006 362.281 513.125
172 0 61.0488 11.0895 677 72.034 362.544 510.449
173 0 63.1304 11.199 707 71.7836 362.612 510.842
174 0 67.1265 12.037 808 69.9431 362.076 509.574
175 0 68.1222 11.7436 800 70.4062 362.771 507.625
176 0 70.126 11.7075 821 70.201 363.097 507.926
177 1 37.0416 10.2318 379 69.7625 363.398 523.559
178 0 39.0521 10.7549 420 69.7167 363.676 521.729
179 0 41.0093 10.0465 412 69.2694 362.653 522.905
180 0 44.0164 10.4961 462 68.7056 362.695 522.766
181 0 42.0729 10.363 436 71.305 362.144 520.539
182 0 44.0142 10.8147 476 69.5525 362.408 519.998
183 0 46.0404 11.6637 537 65.2924 361.993 521.844
184 0 47.0351 10.7367 505 67.3782 361.709 519.137
185 0 50.0436 12.3093 616 64.6494 361.638 518.82
186 0 50.0333 11.6922 585 66.1761 362.058 517.93
187 0 53.0702 11.5319 612 65.1291 361.861 518.578
188 0 51.0577 10.4588 534 68.4513 361.09 515.751
189 0 53.0438 11.4999 610 66.7344 360.211 516.998
190 0 55.0327 11.8838 654 65.4266 359.665 517.121
191 0 59.0308 11.7227 692 65.2095 359.298 517.403
192 0 59.0648 12.8334 758 64.2797 358.942 515.951
193 0 60.0446 11.658 700 66.0643 358.6 515.629
194 0 61.0415 10.5011 641 68.1217 358.705 515.064
195 0 64.082 12.9209 828 64.1328 359.058 513.947
196 0 65.0349 11.9782 779 65.5212 359.424 512.82
197 0 69.0502 12.4837 862 63.5278 359.29 513.923
198 0 72.0633 12.3641 891 63.1089 358.838 514.169
199 0 72.1326 12.2829 886 64.4029 358.559 509.345
200 0 73.0828 12.4516 910 64.0451 358.629 509.933
201 0 76.0683 10.9638 834 66.5432 359.24 508.217
202 0 80.0707 11.9145 954 63.8491 358.226 511.248
203 1 43.025 10.3893 447 64.8344 358.3 528.454
204 0 43.0691 10.1 435 65.7287 358.416 527.685
205 0 45.0079 10.8203 487 64.7228 358.719 527.429
206 0 48.0473 11.4054 548 64.062 358.474 525.157
207 0 47.0392 10.8208 509 65.8271 356.8 524.155
208 0 49.0863 10.3491 508 66.25 357.033 525.441
209 0 51.0869 10.6485 544 66.0607 358.333 524.978
210 0 52.0858 10.4827 546 66.3974 358.159 523.262
211 0 54.0378 11.8436 640 64.0438 357.806 523.112
212 0 55.0778 11.0208 607 64.8863 357.211 523.577
213 0 56.0694 11.896 667 64.3088 357.592 522.562
214 0 58.0712 11.9336 693 63.8629 356.825 522.271
215 0 62.0439 11.7981 732 63.9071 356.34 519.967
216 0 63.1018 11.9014 751 64.0546 356.561 518.076
217 0 64.0794 11.9227 764 64.2592 356.134 517.48
218 0 65.0399 12.992 845 62.9266 356.579 516.578
219 0 66.0519 12.4448 822 63.4866 355.527 514.828
220 0 68.1605 11.5756 789 64.5729 355.797 513.644
221 0 72.0438 13.2558 955 61.5759 355.758 512.424
222 0 72.1282 12.8937 930 62.8634 355.262 512.496
223 0 75.0598 12.7898 960 63.6062 356.558 509.316
224 0 76.0349 13.9541 1061 62.0773 356.336 509.953
225 1 38.0614 9.9576 379 65.5356 356.441 527.712
226 0 37.0106 9.91608 367 66.2262 356.458 528.482
227 0 39.0527 9.85847 385 66.6234 355.449 527.13
228 0 41.0205 10.0925 414 65.6498 355.534 526.22
229 0 44.0506 10.1247 446 65.8341 355.742 523.312
230 0 43.0605 9.77693 421 66.753 356.257 523.335
231 0 46.0295 13.2524 610 61.4869 356.044 521.177
232 0 47.0108 11.5931 545 63.6532 356.633 522.943
233 0 46.0285 11.1887 515 65.0893 357.351 521.138
234 0 48.0263 11.6811 561 64.4973 357.551 520.996
235 0 49.0174 10.5269 516 66.438 357.636 520.657
236 0 50.0495 11.4087 571 65.704 357.38 520.084
237 0 51.0245 12.1314 619 64.7771 357.406 518.567
238 0 53.0388 12.5003 663 64.0452 357.688 516.413
239 0 55.0776 11.1116 612 65.6144 358.131 518.931
240 0 56.1163 10.6386 597 66.9966 358.342 516.792
241 0 60.0298 14.0264 842 61.6639 357.42 514.444
242 0 60.0275 12.8941 774 63.5207 357.247 513.736
243 0 62.0416 11.4923 713 65.1978 357.757 513.001
244 0 64.0897 13.4343 861 62.8374 357.501 511.864
245 0 63.1112 11.6936 738 65.5894 357.473 511.314
246 0 67.0335 11.7255 786 65.6692 357.986 510.247
247 0 68.0479 10.9923 748 66.1136 357.799 511.099
248 0 73.1642 13.1348 961 63.333 358.334 509.32
249 1 38.0235 10.5198 400 65.62 358.498 526.9
250 0 39.0181 8.7139 340 67.8912 358.353 527.282
251 0 40.0347 10.5159 421 65.6247 357.686 527.853
252 0 43.057 11.1945 482 64.305 358.178 527.031
253 0 43.0384 10.2931 443 65.9616 358.163 527.526
254 0 45.0766 12.3789 558 63.009 358.355 525.527
255 0 47.0424 11.6278 547 64.0018 358.824 525.773
256 0 45.1027 10.9306 493 65.6592 358.564 525.402
257 0 48.1246 11.8443 570 63.9632 358.414 524.381
258 0 49.0329 11.5229 565 64.1434 358.858 525.09
259 0 53.0892 12.6579 672 61.8839 358.558 523.624
260 0 54.0482 11.7673 636 62.5629 358.553 524.698
261 0 55.1741 13.0859 722 61.1371 357.78 522.152
262 0 56.0672 10.3804 582 64.6306 358.282 523.263
263 0 58.1148 14.024 815 60.3497 358.007 517.801
264 0 58.0981 11.9453 694 63.1268 357.98 518.661
265 0 61.0396 11.2878 689 63.9637 358.219 518.926
266 0 64.0589 12.2075 782 62.2033 358.082 516.57
267 0 65.1546 10.1451 661 63.7912 357.809 518.949
268 0 67.123 13.5423 909 60.3223 358.163 516.75
269 0 69.1176 12.0085 830 62.5096 357.645 515.808
270 0 72.2395 11.7941 852 62.3932 357.813 513.004
271 1 35.0972 10.5992 372 61.9167 357.599 531.156
272 0 36.0688 9.6205 347 62.513 357.003 532.712
273 0 37.0677 13.0032 482 58.8278 357.272 531.091
274 0 38.108 11.6511 444 60.0676 357.05 531.597
275 0 37.0469 10.6891 396 62.2854 357.237 531.803
276 0 37.1051 9.54047 354 62.7853 357.667 531.641
277 0 40.0686 11.106 445 61.6067 357.692 530.222
278 0 44.117 9.92815 438 62.3881 356.692 529.196
279 0 43.1778 10.4684 452 63.135 356.635 529.489
280 0 44.0431 11.9429 526 61.3821 356.823 528.394
281 0 45.0288 11.3261 510 62.2627 356.818 528.031
282 0 48.0431 12.2182 587 60.6729 356.918 528.635
283 0 47.0192 11.1869 526 62.8023 356.835 527.203
284 0 51.06 12.0251 614 60.7932 356.567 527.391
285 0 51.0604 11.0653 565 62.6655 356.09 524.919
286 0 53.0363 11.8598 629 61.1463 355.873 526.412
287 0 50.0395 10.2719 514 64.7879 356.195 523.018
288 0 54.0543 11.5069 622 62.0659 356.111 520.934
289 0 57.0312 11.0641 631 62.4517 355.398 521.867
290 0 56.0164 10.9789 615 62.5463 355.745 521.392
291 0 60.068 10.9875 660 62.0439 355.871 522.476
292 0 62.0694 11.2294 697 61.6514 355.545 519.978
293 0 64.1001 10.2652 658 62.9863 355.35 518.108
294 0 68.0566 12.3427 840 59.9905 355.615 516.57
295 0 69.0738 11.6976 808 60.8874 355.464 516.557
296 0 69.2317 10.501 727 62.6327 354.801 515.297
297 1 40.0217 10.9191 437 58.9497 356.007 531.65
298 0 39.026 10.6083 414 61.0048 356.367 530.068
299 0 39.0202 9.91794 387 61.4574 355.822 529.026
300 0 40.0339 10.4661 419 61.3079 355.716 529.091
301 0 42.0722 10.482 441 59.8005 355.488 529.399
302 0 44.0352 11.6498 513 59.0838 355.733 527.049
303 0 45.0805 11.1578 503 59.9742 355.847 524.7
304 0 46.0288 10.5369 485 60.3814 355.557 527.827
305 0 48.0412 11.7607 565 59.5062 355.304 525.786
306 0 49.0314 12.0127 589 58.983 355.876 525.922
307 0 52.0628 13.6566 711 56.8003 355.008 524.197
308 0 53.0495 11.9134 632 59.2389 354.953 521.859
309 0 52.0273 11.148 580 61.1948 355.036 521.157
310 0 54.0435 11.2132 606 60.6584 354.558 523.211
311 0 56.0849 10.7337 602 61.6811 354.314 521.199
312 0 59.1066 12.2321 723 59.9848 354.598 518.064
313 0 61.0675 11.2335 686 60.3178 354.65 517.993
314 0 62.0646 11.9069 739 59.7064 354.237 517.395
315 0 63.0406 9.80321 618 61.7896 354.125 518.442
316 0 68.0525 12.4904 850 58.8376 354.945 516.018
317 0 68.1887 10.8082 737 61.0909 354.17 512.339
318 0 71.1837 10.7328 764 61.1021 354.59 512.802
319 0 74.0691 11.4488 848 60.6097 355.367 510.533
320 0 76.0796 11.8297 900 60.6178 355.727 509.646
321 0 78.0971 11.3192 884 61.1041 355.954 508.886
322 0 80.0935 10.288 824 62.426 355.853 507.535
323 1 42.0477 8.63306 363 62.5675 356.088 524.898
324 0 45.0912 8.42737 380 62.2395 356.261 527.147
325 0 46.089 11.174 515 60.6291 355.808 522.553
326 0 46.0878 10.9573 505 60.3426 355.046 524.915
327 0 50.077 9.54531 478 61.8473 355.523 522.872
328 0 52.0968 10.3653 540 61.1 354.717 521.413
329 0 52.0684 11.4081 594 61.0556 355.013 520.837
330 0 52.0475 9.74111 507 62.6174 355.892 521.456
331 0 53.0486 9.23681 490 63.8347 356.335 519.58
332 0 55.1054 10.7794 594 62.3771 356.172 518.455
333 0 58.0766 10.0557 584 62.387 355.791 519.116
334 0 59.09 12.4556 736 60.3152 354.732 515.01
335 0 63.0563 11.5294 727 60.7772 355.66 515.949
336 0 65.0837 12.1229 789 60.1331 355.256 511.901
337 0 68.0448 13.2854 904 58.6936 354.709 514.512
338 0 69.1545 12.0021 830 60.9964 355.889 512.446
339 0 71.0969 13.1229 933 59.4812 355.531 510.266
340 0 72.179 13.3141 961 59.2477 355.197 508.259
341 0 75.0616 11.6305 873 61.4296 355.797 510.57
342 0 76.1332 12.5832 958 61.0344 355.932 505.613
343 0 80.091 11.899 953 60.9591 354.674 508.364
344 0 81.0885 11.4196 926 62.3466 355.675 504.041
345 0 85.0968 11.8571 1009 61.6095 355.059 506.862
346 1 47.0684 10.2404 482 61.8071 356.189 525.118
347 0 47.024 12.3129 579 60.9689 355.777 523.002
348 0 50.1014 11.0376 553 61.7758 355.711 523.132
349 0 47.0548 9.92459 467 64.0792 355.126 521.236
350 0 51.084 11.0994 567 62.8078 355.19 520.037
351 0 53.1293 10.8979 579 62.8756 355.214 520.271
352 0 54.0857 9.83624 532 63.8741 355.908 520.78
353 0 56.0622 10.524 590 63.3356 355.875 518.71
354 0 58.0394 11.2854 655 62.1114 355.505 519.386
355 0 60.1016 10.8317 651 62.9247 355.754 516.734
356 0 62.0972 11.2727 700 62.5771 355.624 514.854
357 0 64.0893 12.4514 798 61.6002 355.719 514.612
358 0 66.0521 11.5212 761 61.6294 355.71 514.926
359 0 68.1191 13.5058 920 59.9391 355.358 511.385
360 0 71.1228 11.22 798 61.9048 356.02 513.128
361 0 73.1794 12.7768 935 60.6064 355.738 510.148
362 0 74.0789 11.9467 885 62.1876 355.942 509.193
363 0 77.219 11.3832 879 62.7201 355.388 507.174
364 0 80.1347 12.3916 993 61.3605 355.79 506.563
365 0 82.1062 11.4121 937 61.46 355.576 508.974
366 0 85.0893 13.3507 1136 60.4287 355.439 503.942
367 0 85.1005 11.4453 974 62.7649 355.318 504.177
368 1 44.0233 9.97199 439 62.2916 355.465 522.954
369 0 46.0633 9.89941 456 62.2719 355.921 523.998
370 0 47.0738 11.875 559 60.3488 355.569 522.564
371 0 49.0748 12.4504 611 59.5696 354.84 521.588
372 0 50.1374 11.4485 574 61.3902 355.181 520.78
373 0 51.0243 11.5435 589 61.3226 355.839 521.492
374 0 51.0597 11.986 612 61.2484 356.618 519.013
375 0 51.1016 11.1934 572 62.778 355.54 518.052
376 0 56.0758 10.9673 615 61.6634 355.725 518.751
377 0 54.079 11.0394 597 61.5377 356.253 518.064
378 0 57.0407 11.4129 651 61.3349 356.432 517.051
379 0 61.1227 13.3011 813 58.6913 356.128 516.825
380 0 60.0289 11.5278 692 61.5347 355.957 515.832
381 0 62.0136 10.3687 643 62.4759 355.58 516.047
382 0 64.0555 12.2706 786 60.7519 355.425 512.38
383 0 67.0662 10.84 727 61.7675 355.608 515.47
384 0 69.0632 13.7845 952 59.4275 355.366 510.321
385 0 72.0573 12.3929 893 60.8119 354.908 512.459
386 0 72.1255 11.9514 862 62.2169 354.563 509.976
387 0 76.1212 10.457 796 63.7173 354.926 509.562
388 0 78.0392 11.2892 881 63.9807 355.303 508.495
389 1 42.0629 12.2198 514 61.3619 356.01 524.975
390 0 43.0561 11.636 501 62.3593 355.543 524.76
391 0 43.0289 11.0856 477 64.0231 355.254 525.096
392 0 44.0363 11.1045 489 64.7505 355.243 523.804
393 0 46.0425 13.0097 599 62.5326 355.245 523.189
394 0 47.0745 11.8748 559 63.8211 356.131 524.911
395 0 50.0693 12.6425 633 63.0379 356.344 522.42
396 0 52.0191 14.0525 731 60.933 356.205 522.955
397 0 50.0275 10.5342 527 67.1689 355.951 521.748
398 0 53.1179 12.5758 668 64.7081 355.129 520.957
399 0 54.1049 12.0322 651 66.1889 355.326 519.218
400 0 55.1038 11.6689 643 66.8585 355.249 519.555
401 0 58.0782 11.364 660 66.8121 355.544 520.026
402 0 60.0839 12.6989 763 65.5872 355.98 517.835
403 0 61.0583 12.3816 756 66.2262 355.7 517.947
404 0 62.0882 11.2904 701 68.3295 355.648 517.151
405 0 63.0616 11.5125 726 68.2879 355.382 515.672
406 0 65.063 10.9432 712 69.2753 355.674 514.895
407 0 69.2482 13.6754 947 65.0391 355.474 514.565
408 0 72.0984 13.0239 939 65.7519 354.761 511.984
409 0 75.1075 13.048 980 66.2388 354.922 510.82
410 1 35.0233 9.90769 347 69.2392 356.063 529.328
411 0 39.0436 12.3196 481 66.0416 355.933 529.549
412 0 38.021 11.2832 429 67.6317 355.378 528.667
413 0 38.0248 12.15 462 67.5216 355.636 527.985
414 0 40.0485 11.3862 456 68.6996 356.055 527.645
415 0 41.0282 11.9917 492 68.2785 356.224 527.073
416 0 41.0243 10.5791 434 70.1359 355.431 528.309
417 0 44.0288 11.8559 522 68.9368 354.536 525.427
418 0 43.0236 11.3194 487 70.3326 354.583 525.671
419 0 44.0235 10.8351 477 71.9057 355.122 522.65
420 0 46.0136 12.4094 571 69.6095 354.911 522.706
421 0 46.0288 11.3624 523 72.2505 355.094 523.503
422 0 47.0784 12.681 597 70.6566 354.682 523.181
423 0 48.0369 11.8451 569 72.0387 354.975 521.518
424 0 52.0355 13.2794 691 69.6426 355.247 520.738
425 0 52.1291 12.4882 651 70.6375 355.103 521.206
426 0 52.0472 11.0477 575 73.9374 355.536 521.13
427 0 55.0983 11.7427 647 72.7172 355.233 519.918
428 0 56.0463 11.6689 654 73.211 355.885 518.509
429 0 58.0224 12.2711 712 72.7739 355.531 516.788
430 0 60.0545 12.3221 740 73.0311 355.52 516.288
431 0 61.1003 11.4566 700 74.4029 355.55 516.717
432 0 64.0246 12.0891 774 73.4651 355.557 513.749
433 0 65.1641 10.0669 656 76.878 354.634 513.011
434 0 68.0275 12.1421 826 73.7119 355.172 512.817
435 0 71.0745 12.2266 869 74.0414 354.728 512.565
436 0 73.0964 11.9431 873 74.165 354.675 511.048
437 1 40.029 11.1669 447 73.7427 355.508 528.506
438 0 40.0524 10.2616 411 75.7689 355.776 527.929
439 0 40.19 11.4456 460 73.5022 355.965 528.239
440 0 42.1053 12.6112 531 72.9266 355.279 525.953
441 0 44.0968 10.9078 481 75.6029 355.507 526.447
442 0 43.1596 10.7971 466 76.3112 354.758 527.034
443 0 45.0494 11.2099 505 75.6535 354.655 524.683
444 0 48.0264 11.0356 530 60.3981 354.462 525.855
445 0 48.0905 11.3952 548 75.8613 354.411 522.666
446 0 49.0287 11.7482 576 75.6042 354.846 523.491
447 0 50.0417 12.2897 615 75.4146 355.387 520.234
448 0 55.1127 11.7577 648 73.3009 355.608 524.259
449 0 55.0536 12.7512 702 72.8818 355.68 521.447
450 0 59.1461 14.0838 833 70.5402 355.703 521.012
451 0 59.0922 11.6767 690 74.5507 355.428 520.012
452 0 61.0921 12.4566 761 73.1945 355.523 520.225
453 0 63.081 13.5381 854 71.76 355.47 518.22
454 0 64.0963 12.0444 772 73.5324 355.355 519.031
455 0 69.0571 12.5259 865 73.0994 355.369 515.166
456 0 69.0843 12.7236 879 72.6587 355.253 516.904
457 0 72.0841 12.86 927 72.2017 355.554 515.78
458 0 72.0416 11.8681 855 74.1965 355.194 512.386
459 1 37.0379 10.9347 405 72.2741 355.56 532.217
460 0 39.0502 12.4711 487 71.5606 355.577 530.261
461 0 40.0291 12.441 498 71.51 355.624 528.847
462 0 42.0745 12.4066 522 71.0326 354.707 529.199
463 0 41.1379 12.1543 500 71.742 354.71 529.686
464 0 43.0447 12.5916 542 71.3376 354.941 528.035
465 0 46.0492 14.0068 645 68.7364 355.028 527.642
466 0 47.1124 15.0491 709 66.6375 355.199 527.946
467 0 49.058 12.9846 637 70.0816 355.604 526.586
468 0 49.1273 12.4167 610 71.5639 354.459 525.295
469 0 52.0422 13.5659 706 69.1572 354.526 524.261
470 0 51.1157 11.9924 613 71.6036 354.984 524.447
471 0 55.0527 13.6233 750 68.4013 354.849 523.465
472 0 55.0248 13.2486 729 69.6584 354.082 522.898
473 0 56.049 12.275 688 70.689 354.683 522.656
474 0 59.0644 12.207 721 70.8447 354.476 520.681
475 0 60.0682 13.1517 790 69.7987 354.105 518.96
476 0 60.0445 11.1751 671 72.93 354.802 519.167
477 0 64.1283 13.8784 890 68.8876 354.687 517.279
478 0 67.0899 13.4894 905 68.5293 354.191 518.144
479 1 36.0514 11.5668 417 69.1199 354.736 534.089
480 0 36.0651 11.3961 411 70.8467 354.333 532.256
481 0 37.02 11.7504 435 70.3379 354.837 530.926
482 0 40.0635 12.6799 508 67.3091 354.9 531.774
483 0 40.0554 12.4328 498 68.3976 354.504 531.145
484 0 38.0347 11.0688 421 72.1188 355.24 530.492
485 0 40.0675 11.0813 444 72.4257 355.786 527.532
486 0 41.0262 12.4798 512 70.3945 355.211 527.996
487 0 45.0312 12.991 585 68.7436 355.718 527.86
488 0 43.1218 10.8762 469 72.8891 355.814 529.038
489 0 45.0943 13.749 620 68.4452 355.479 526.616
490 0 49.0646 11.76 577 70.4419 354.815 528.347
491 0 49.0438 12.5398 615 70.3415 355.065 524.802
492 0 46.0696 12.1555 560 72.0661 355.748 523.957
493 0 50.0271 13.0129 651 69.7343 355.229 522.439
494 0 52.0917 12.8043 667 69.3898 355.108 523.036
495 0 54.0689 12.5026 676 69.0399 355.013 523.547
496 0 57.09 12.8744 735 68.498 355.352 521.605
497 0 57.1204 11.9222 681 70.2129 355.238 520.542
498 0 60.1105 13.1258 789 67.9455 355.888 519.797
499 0 62.0707 12.8885 800 67.5912 355.689 520.252
500 0 65.1667 12.7212 829 67.5778 354.872 519.85
501 0 66.0332 12.842 848 67.1722 354.526 519.492
502 0 68.1297 12.0359 820 68.711 354.952 518.433
503 0 69.1348 12.7288 880 67.4852 354.369 516.115
504 0 73.0829 13.1768 963 67.0239 354.788 513.174
505 1 38.0637 12.0062 457 66.547 354.998 532.772
506 0 39.06 10.8551 424 69.3467 354.722 530.929
507 0 40.0976 11.6715 468 68.297 353.917 530.306
508 0 43.0902 13.112 565 66.0708 354.027 528.235
509 0 41.0289 11.8697 487 69.3942 354.064 527.994
510 0 44.1034 11.9945 529 67.8072 353.664 529.83
511 0 44.0892 12.7242 561 68.0446 353.332 528.456
512 0 45.064 11.406 514 69.5486 353.656 528.393
513 0 46.2096 11.859 548 69.6624 354.358 526.162
514 0 50.0149 13.536 677 66.1359 354.083 527.383
515 0 50.0628 11.7852 590 69.1576 354.683 527.173
516 0 53.0958 12.694 674 67.3739 354.499 526.182
517 0 55.0566 12.7142 700 67.4943 354.657 525.361
518 0 57.0859 14.049 802 66.1446 354.653 522.567
519 0 59.0557 13.5465 800 66.2012 354.624 523.254
520 0 60.0466 12.6735 761 67.6084 353.882 523.518
521 0 60.0781 12.7334 765 68.3608 353.531 523.265
522 0 63.0703 13.1916 832 67.863 353.436 519.383
523 0 65.0865 13.5666 883 67.5696 353.418 517.737
524 0 67.1431 12.3914 832 68.887 354.163 517.724
525 0 70.102 13.8513 971 67.0134 353.959 516.435
526 0 72.047 12.9915 936 68.4637 353.648 517.43
527 0 76.139 13.5279 1030 67.4388 353.444 514.529
528 0 76.0702 12.5279 953 69.4313 353.396 514.563
529 1 40.1409 12.2568 492 69.3557 353.925 531.984
530 0 40.2176 11.6616 469 71.8294 353.859 530.812
531 0 41.0158 12.2636 503 70.3857 354.664 532.765
532 0 43.0523 13.3094 573 69.9407 354.518 528.777
533 0 45.1409 12.8708 581 69.9432 354.1 530.298
534 0 47.0982 14.2681 672 67.8527 353.771 529.42
535 0 47.0879 12.9545 610 70.6934 353.254 527.966
536 0 49.1397 12.3118 605 71.3719 354.078 526.271
537 0 50.071 12.4224 622 71.5916 353.74 525.101
538 0 51.021 12.9162 659 71.3247 353.7 525.657
539 0 52.0673 12.9256 673 71.9302 353.786 523.215
540 0 54.052 13.783 745 71.0497 354.197 521.946
541 0 56.0702 13.1264 736 71.6046 354.113 522.958
542 0 59.1176 13.4816 797 71.2271 354.704 521.994
543 0 61.0483 15.3649 938 68.7985 354.04 520.826
544 0 64.0723 12.7512 817 72.4002 353.898 521.326
545 0 64.0398 13.7571 881 71.0613 354.324 520.77
546 0 67.0878 14.1307 948 71.4536 354.07 519.353
547 0 68.0859 13.3508 909 73.3278 354.661 515.763
548 0 71.1559 13.1261 934 73.6488 354.248 515.934
549 0 72.0406 13.2148 952 73.563 353.859 516.61
550 0 76.1755 14.3091 1090 72.0862 353.913 515.026
551 0 77.1838 12.3083 950 73.8832 354.104 518.419
552 0 80.1229 13.0674 1047 75.4097 353.761 512.289
553 0 81.1511 11.608 942 77.1136 353.429 513.236
554 1 42.0453 12.5579 528 76.7424 354.377 528.526
555 0 42.0491 12.3189 518 77.4363 354.363 527.637
556 0 46.1193 11.557 533 78.0094 354.383 527.947
557 0 45.0775 13.5101 609 76.0361 354.401 527.53
558 0 47.0981 12.4421 586 78.0785 354.05 526.278
559 0 48.0654 12.2749 590 78.6864 354.134 524.207
560 0 52.1659 13.0928 683 76.369 353.959 522.665
561 0 51.1332 12.3599 632 78.5285 353.873 523.386
562 0 54.1354 10.7508 582 80.3763 353.833 522.282
563 0 55.0508 11.4076 628 79.3089 353.986 521.793
564 0 57.1716 13.4332 768 77.1497 354.128 519.068
565 0 60.123 13.8217 831 76.0036 354.093 518.97
566 0 61.0611 12.5612 767 78.3911 354.323 516.463
567 0 62.0474 12.7644 792 77.9053 354.417 516.121
568 0 65.0619 12.3114 801 78.4869 353.759 513.712
569 0 67.0561 12.154 815 78.7656 353.845 512.778
570 0 70.1169 12.0513 845 78.6568 354.222 511.436
571 0 73.0588 12.7021 928 77.4978 354.269 508.934
572 0 75.1348 10.4612 786 80.5483 354.163 506.291
573 0 78.174 11.7686 920 78.8685 354.687 507.499
574 0 82.1739 10.855 892 79.4249 354.115 505.344
575 0 84.0967 11.3084 951 79.245 354.728 503.918
576 0 85.075 10.0029 851 80.5441 354.172 501.79
577 1 44.0439 11.1253 490 78.4306 354.49 522.767
578 0 45.0741 10.9819 495 79.4364 355.267 521.814
579 0 45.0664 11.1391 502 79.3845 354.982 520.472
580 0 43.0197 10.3673 446 81.2265 355.343 520.655
581 0 50.0942 11.7978 591 77.3553 355.452 518.379
582 0 49.0732 10.5353 517 78.4294 355.267 517.932
583 0 52.0558 11.3148 589 76.9117 355.258 514.513
584 0 55.0767 12.0741 665 75.982 356.093 514.26
585 0 56.1038 10.7658 604 77.6324 355.111 512.798
586 0 55.0739 10.3316 569 78.4921 355.596 513.45
587 0 60.0922 11.1162 668 76.9596 354.397 511.603
588 0 62.0288 9.89862 614 77.1026 354.879 505.966
589 0 64.0637 10.2398 656 77.5625 355.12 505.802
590 0 66.112 8.15283 539 79.2022 354.566 501.998
591 0 71.1434 10.4718 745 77.9007 354.385 507.843
592 0 76.1016 11.9446 909 75.6227 354.448 505.534
593 0 76.1256 12.9785 988 74.8694 354.11 504.57
594 0 79.0744 10.6861 845 78.1254 354.23 503.494
595 0 82.1501 11.0286 906 77.681 354.471 499.898
596 0 85.0768 11.2369 956 77.523 353.555 499.583
597 0 93.1287 12.9928 1210 74.2264 354.894 504.067
598 0 97.1503 12.8461 1248 74.9631 354.708 501.801
599 0 100.223 14.8369 1487 72.3813 355.305 498.588
600 1 56.0771 12.358 693 73.9134 355.426 521.053
601 0 56.1198 11.6536 654 75.6208 354.859 520.575
602 0 58.1259 12.9546 753 74.4356 354.753 518.542
603 0 62.0669 12.3576 767 74.7549 355.226 518.061
604 0 63.2136 12.7188 804 74.3918 354.536 514.366
605 0 66.0395 12.8257 847 74.1736 354.942 514.334
606 0 66.0517 12.7173 840 74.2226 354.785 516.176
607 0 69.0712 12.7984 884 74.4084 355.024 513.593
608 0 73.0654 13.8095 1009 72.2379 355.44 512.057
609 0 75.2526 14.3517 1080 70.8815 355.268 511.146
610 0 78.1435 12.8866 1007 73.3376 355.353 509.028
611 0 79.1916 13.3979 1061 71.9736 354.336 507.939
612 0 84.069 13.025 1095 72.6922 354.859 505.533
613 0 85.1167 13.3111 1133 72.2515 354.825 505.748
614 1 44.0148 10.0875 444 74.9572 355.516 525.718
615 0 48.1627 11.7311 565 72.423 355.315 523.538
616 0 49.112 13.459 661 69.5204 355.148 523.056
617 0 49.076 11.3701 558 73.8584 354.751 523.613
618 0 54.0196 13.3655 722 68.9792 353.999 521.92
619 0 56.0537 13.0232 730 70.1932 354.645 519.737
620 0 54.1062 12.5679 680 71.9559 354.644 520.922
621 0 56.0725 12.8405 720 71.5056 353.953 518.303
622 0 59.0293 12.2143 721 71.6644 353.882 520.29
623 0 60.0307 13.1766 791 71.2465 354.027 515.472
624 0 63.051 12.1489 766 71.9713 355.18 516.127
625 0 66.1102 14.0372 928 69.3071 355.491 514.877
626 0 67.1121 13.6488 916 69.6103 355.155 513.932
627 0 70.1008 12.8244 899 70.3426 355.241 513.211
628 0 71.0802 12.3663 879 70.9022 354.667 512.579
629 0 74.1421 13.1909 978 69.3763 354.814 511.865
630 0 76.116 11.6795 889 71.3273 354.911 510.931
631 0 80.1575 13.6356 1093 68.107 354.223 509.206
632 0 82.1663 13.0102 1069 69.3948 354.633 509.731
633 0 84.0887 12.8079 1077 70.87 354.597 505.716
634 1 45.0614 11.4288 515 68.0505 354.75 526.351
635 0 45.0547 10.4984 473 69.3594 355.11 526.427
636 0 46.0778 10.6125 489 70.0164 354.75 524.415
637 0 47.1149 11.4401 539 68.8219 354.698 524.453
638 0 50.0404 11.6306 582 68.7251 354.524 523.325
639 0 51.1351 12.4181 635 68.1213 355.02 520.622
640 0 53.083 13.0173 691 66.6729 354.706 521.334
641 0 54.0646 12.0412 651 68.7788 354.897 519.413
642 0 58.0701 13.2082 767 65.9218 354.961 520.63
643 0 56.052 10.294 577 71.5147 355.31 517.586
644 0 59.0691 12.443 735 68.3796 355.28 516.619
645 0 62.0874 12.7401 791 67.2314 354.726 516.245
646 0 64.1456 11.7701 755 69.2424 353.744 511.96
647 0 64.1106 11.215 719 70.0389 354.548 513.701
648 0 67.075 11.0473 741 70.1849 354.306 512.142
649 0 70.039 12.5501 879 67.628 353.787 510.495
650 0 74.064 12.3677 916 67.4465 355.008 512.931
651 0 75.0559 12.7372 956 67.7249 355.1 510.605
652 0 79.1241 11.8042 934 68.7805 354.715 507.752
653 0 81.1801 12.7741 1037 67.8476 355.042 507.026
654 0 84.0863 13.1294 1104 67.5788 354.357 504.062
655 1 42.0352 9.94404 418 69.5574 354.344 525.632
656 0 46.1126 11.9707 552 65.9112 355.031 526.221
657 0 46.1362 10.7725 497 68.4185 354.384 524.759
658 0 47.0643 11.4099 537 68.0186 355.164 523.575
659 0 47.0719 11.4293 538 69.0558 354.994 519.561
660 0 50.0848 11.8599 594 67.2997 354.441 521.918
661 0 50.194 12.5114 628 67.008 354.263 519.637
662 0 52.0834 13.2864 692 65.1951 354.377 518.37
663 0 52.0842 11.4046 594 68.8788 354.507 518.559
664 0 55.1612 10.9135 602 67.9419 354.02 519.414
665 0 56.103 10.3738 582 69.0636 354.49 518.132
666 0 59.1719 12.151 719 66.3922 354.719 518.448
667 0 63.0634 11.8135 745 66.3826 354.15 517.617
668 0 64.1516 12.5796 807 65.715 354.618 515.698
669 0 65.0956 11.8902 774 67.292 354.898 514.127
670 0 68.1301 12.6963 865 66.1006 354.69 513.694
671 0 70.0842 12.8274 899 65.6262 355.802 513.958
672 0 74.2401 13.3082 988 64.3381 356.02 512.422
673 0 74.1328 12.4506 923 65.9263 355.544 513.182
674 0 76.3398 11.8418 904 65.917 355.002 512.996
675 0 78.1327 11.7236 916 67.1758 355.487 508.104
676 0 81.1355 13.5083 1096 64.792 354.875 506.185
677 0 83.1052 13.3445 1109 64.8332 354.485 507.217
678 0 87.1244 14.3358 1249 63.4588 354.503 502.702
679 0 89.1383 12.6096 1124 65.7794 355.07 502.629
680 0 91.1348 12.1468 1107 66.2873 355.042 498.76
681 0 93.1723 11.8598 1105 67.0272 355.381 499.635
682 0 95.2208 11.5626 1101 67.812 355.711 498.492
683 0 100.206 12.584 1261 66.0103 355.359 495.777
684 0 101.149 12.1602 1230 67.126 355.993 494.776
685 0 105.166 12.8749 1354 65.8072 355.134 493.261
686 0 110.235 13.2535 1461 65.3183 354.892 490.637
687 1 57.1483 9.39661 537 68.7467 355.006 519.926
688 0 57.0317 10.5205 600 67.81 355.323 519.438
689 0 60.187 12.6605 762 65.294 355.559 516.884
690 0 61.1408 11.7597 719 66.0556 355.421 517.127
691 0 62.0658 11.8262 734 65.9441 355.782 516.715
692 0 65.1825 11.9971 782 65.6841 355.83 514.942
693 0 68.0456 13.1235 893 64.0034 355.991 512.773
694 0 71.1083 13.0364 927 63.2028 356.315 513.358
695 0 73.2744 11.8322 867 65.5756 355.376 510.872
696 0 75.0892 12.4385 934 65.454 355.506 508.648
697 0 78.2401 13.6758 1070 63.7664 355.109 508.985
698 0 80.0716 11.4772 919 66.4995 355.626 508.624
699 0 83.0989 12.6476 1051 64.7983 355.435 508.264
700 0 83.0689 10.2204 849 67.5654 355.358 507.936
701 0 89.0591 13.7324 1223 62.8904 356.131 507.522
702 0 92.1046 12.7138 1171 64.7216 355.351 502.556
703 0 93.1015 11.1706 1040 67.1231 355.59 500.338
704 0 98.0897 13.3857 1313 63.5248 355.345 500.704
705 0 100.103 11.8978 1191 66.2309 355.646 500.682
706 0 103.087 12.5622 1295 65.2849 354.993 494.986
707 0 105.097 11.104 1167 67.6581 355.306 497.102
708 1 54.0427 10.9543 592 67.2331 356.399 519.845
709 0 57.1484 11.2689 644 66.795 356.435 518.337
710 0 57.1299 10.6949 611 66.838 356.319 520.188
711 0 62.1427 12.2621 762 65.6037 356.118 513.871
712 0 63.0772 11.2878 712 66.8904 356.003 515.243
713 0 66.083 12.9231 854 64.6136 355.799 512.94
714 0 66.1216 11.7813 779 66.0873 355.212 511.887
715 0 68.1625 12.4115 846 65.7648 355.13 509.93
716 0 72.2756 11.8159 854 65.1569 355.693 513.177
717 0 76.3706 12.675 968 64.4948 355.07 510.902
718 0 78.0866 11.2951 882 66.0079 354.723 512.587
719 0 80.0917 12.0487 965 65.201 354.195 510.377
720 0 83.2152 12.7861 1064 65.6607 355.11 503.945
721 0 88.1113 12.0529 1062 65.7185 354.691 505.943
722 0 90.058 12.0256 1083 66.4912 355.834 503.298
723 0 94.2083 14.4892 1365 63.2674 354.279 501.04
724 0 96.122 13.6181 1309 64.4775 354.904 500.661
725 0 95.1047 11.0825 1054 68.3472 354.196 499
726 1 52.1008 11.9768 624 64.2292 354.444 520.543
727 0 51.1317 12.1255 620 65.4306 355.423 520.21
728 0 54.1584 11.9649 648 64.7762 355.775 519.841
729 0 54.1388 12.117 656 64.3247 355.678 519.34
730 0 54.1923 10.186 552 67.1667 354.518 514.236
731 0 60.1122 12.0109 722 63.0152 354.828 516.211
732 0 63.0947 12.4258 784 62.5153 354.606 515.717
733 0 62.0348 11.5741 718 64.1936 355.37 514.182
734 0 64.1875 12.6193 810 61.9568 355.541 514.754
735 0 66.1015 10.6049 701 63.7646 354.555 513.862
736 0 68.1977 10.6162 724 63.6202 354.283 512.898
737 0 70.1117 10.6972 750 63.3613 354.523 513.208
738 0 72.2387 11.0052 795 63.0038 354.906 509.391
739 0 76.1082 12.4034 944 61.6112 354.768 506.97
740 0 77.1922 12.1774 940 62.0266 354.848 505.529
741 0 82.1185 11.1546 916 62.798 354.87 505.359
742 0 83.1471 14.2398 1184 59.4654 354.537 503.8
743 0 87.262 12.8005 1117 61.103 354.554 501.533
744 1 45.0265 10.1052 455 61.0506 354.936 527.068
745 0 47.0529 12.6241 594 58.7542 355.668 523.751
746 0 49.0517 12.9455 635 58.4551 355.258 522.543
747 0 51.0409 12.8524 656 58.3476 355.197 522.88
748 0 50.0864 14.0757 705 57.9674 355.089 521.104
749 0 52.1315 12.3342 643 60.1198 355.059 520.757
750 0 52.0662 10.4098 542 62.4114 354.81 519.688
751 0 52.0595 9.22023 480 63.2125 353.727 519.285
752 0 56.143 11.631 653 60.807 354.675 519.035
753 0 59.0237 11.2328 663 60.6727 354.689 518.629
754 0 58.1174 10.8057 628 62.0143 354.298 516.788
755 0 63.0767 12.5879 794 59.2406 355.271 516.159
756 0 63.0539 8.77028 553 62.4304 354.401 519.286
757 0 66.2615 13.658 905 57.6718 354.728 515.919
758 0 67.0914 12.2072 819 59.5092 354.459 513.757
759 0 70.0922 11.5134 807 59.4907 354.605 514.665
760 0 73.1031 13.9939 1023 57.3206 354.613 511.41
761 0 76.1585 13.4063 1021 57.9765 355.312 510.592
762 0 77.0902 13.0497 1006 58.6541 354.562 508.789
763 0 79.1126 11.0981 878 60.6298 354.933 510.343
764 0 81.0956 11.6529 945 60.4455 354.958 507.019
765 1 41.0894 10.1486 417 60.3741 355.216 528.609
766 0 43.0521 12.4965 538 58.961 354.623 526.24
767 0 42.0877 8.95749 377 64.2918 354.477 524.159
768 0 43.1224 11.5485 498 61.7932 354.462 523.835
769 0 47.1144 9.91204 467 62.4283 354.242 523.994
770 0 47.0611 12.0482 567 60.9559 354.273 522.33
771 0 49.0399 10.2773 504 63.2222 354.792 522.806
772 0 49.1237 12.9876 638 60.6614 354.466 519.657
773 0 53.0432 12.1034 642 60.8785 355.031 520.91
774 0 53.1014 10.527 559 62.7263 354.551 521.236
775 0 55.1319 12.2434 675 60.96 353.797 517.027
776 0 56.0597 11.7732 660 61.2136 353.767 518.459
777 0 58.0821 12.7578 741 60.0148 353.877 518.105
778 0 62.0948 13.1251 815 58.9374 354.326 516.129
779 0 64.0733 13.547 868 58.9781 354.408 516.13
780 0 67.0247 13.3085 892 59.361 354.5 514.237
781 0 67.0491 12.9756 870 59.3425 353.96 515.462
782 0 71.1136 12.0371 856 60.5631 353.923 514.425
783 0 73.115 12.1863 891 60.6195 354.544 511.278
784 1 37.0504 10.8501 402 60.3682 354.157 531.012
785 0 37.022 11.4527 424 60.6557 354.073 529.67
786 0 41.0518 10.7669 442 60.4344 354.371 528.932
787 0 40.022 13.2927 532 59.2613 354.57 526.464
788 0 40.0412 11.4382 458 62.1921 354.304 527.419
789 0 42.0288 11.8966 500 61.918 354.192 525.85
790 0 45.0582 10.8304 488 62.6783 353.963 526.193
791 0 46.2888 11.2986 523 62.6807 353.96 523.499
792 0 46.0195 11.8428 545 62.5963 353.73 522.85
793 0 52.0726 12.1753 634 60.9637 353.655 524.459
794 0 50.0513 11.3084 566 63.3534 353.928 521.389
795 0 51.0437 11.3824 581 63.4406 353.995 521.917
796 0 53.1006 11.8454 629 63.2671 354.188 521.466
797 0 56.1089 12.1549 682 62.9223 354.289 519.339
798 0 57.0207 12.9076 736 61.8641 355.27 521.408
799 0 60.0175 12.9629 778 61.973 355.094 515.78
800 0 60.1054 11.5297 693 63.5209 354.268 517.123
801 0 63.0763 12.5245 790 62.8354 354.614 515.982
802 0 66.1445 10.855 718 64.6992 354.259 515.269
803 0 70.1702 14.2511 1000 59.843 354.479 514.188
804 0 73.0692 12.8098 936 60.8964 354.622 515.488
805 0 74.0588 11.7069 867 62.9539 355.215 512.02
806 0 76.0653 11.6084 883 62.1121 355.352 514.354
807 0 80.1146 13.9425 1117 59.7395 354.559 510.564
808 0 83.2109 12.931 1076 61.2742 354.474 507.554
809 1 43.0265 10.0636 433 60.545 354.536 530.928
810 0 43.0569 10.939 471 61.3652 354.505 529.459
811 0 45.1403 11.9849 541 60.9076 355.523 526.861
812 0 46.0765 11.0902 511 61.5949 355.912 527.372
813 0 48.0462 12.3007 591 60.467 355.865 524.887
814 0 50.1854 12.7328 639 59.9437 355.43 525.712
815 0 52.3195 12.7104 665 60.3248 355.039 525.21
816 0 52.1332 12.9476 675 61.2074 354.345 522.927
817 0 55.0799 12.8359 707 60.8911 354.825 521.794
818 0 55.1234 10.7214 591 62.9442 354.858 524.41
819 0 59.1684 12.9123 764 60.5497 354.365 521.819
820 0 59.1142 11.0633 654 63.2431 354.898 520.986
821 0 60.106 12.8606 773 61.5097 355.4 518.753
822 0 63.036 11.2158 707 63.239 354.733 516.16
823 0 67.0473 12.5434 841 60.3044 354.534 520.081
824 0 67.0753 13.3283 894 60.6465 354.431 515.988
825 0 70.0415 12.9637 908 60.5738 353.357 514.758
826 0 72.0968 12.7329 918 60.7549 353.668 514.246
827 0 73.1025 11.8327 865 61.948 353.073 512.947
828 0 76.1 14.9934 1141 58.5495 354 511.212
829 0 77.2183 11.0596 854 63.6323 354.101 510.929
830 1 44.1555 11.0292 487 61.6386 354.885 527.741
831 0 45.1191 10.439 471 60.9766 355.091 530.597
832 0 42.1849 11.9 502 61.2012 354.825 528.687
833 0 47.1683 11.0456 521 61.7409 354.478 527.956
834 0 47.0922 10.9785 517 63.7408 355.031 526.673
835 0 49.0987 11.039 542 64.0904 354.319 525.244
836 0 51.1369 11.2834 577 63.7088 354.312 523.083
837 0 53.1425 11.8737 631 62.2789 354.743 523.228
838 0 54.1591 12.8879 698 61.1275 354.365 522.15
839 0 54.0445 11.7866 637 63.113 354.416 521.513
840 0 57.2254 11.9527 684 62.3026 354.107 521.078
841 0 59.0932 11.6765 690 62.7493 353.759 521.878
842 0 62.103 12.286 763 62.2765 354.756 519.552
843 0 62.1 12.6892 788 62.2322 354.714 519.277
844 0 63.0674 10.9724 692 64.5173 355.035 518.978
845 0 65.1277 11.2702 734 64.0627 354.52 517.459
846 0 66.1233 12.1289 802 63.5848 354.633 513.833
847 0 70.1041 12.1391 851 62.7168 355.116 515.439
848 0 71.1564 10.7229 763 64.6606 354.376 514.683
849 0 75.073 12.2814 922 62.4382 353.961 513.408
850 0 78.1556 11.0932 867 64.2699 354.379 509.421
851 0 82.1409 14.0247 1152 59.9453 354.67 511.319
852 0 83.1268 12.114 1007 62.2224 354.51 512.368
853 1 46.0823 11.7182 540 61.737 354.935 527.478
854 0 45.1332 11.743 530 62.6811 354.096 526.076
855 0 48.1684 11.6466 561 61.4973 354.328 526.781
856 0 50.0891 12.7173 637 59.6232 353.385 525.732
857 0 51.1244 11.1884 572 62.1259 353.234 522.283
858 0 53.0766 11.0406 586 61.4539 353.899 523.7
859 0 56.0681 11.5395 647 61.1082 353.845 521.382
860 0 57.0482 11.9022 679 60.8321 353.966 521.029
861 0 59.0752 11.4261 675 62.2607 354.479 522.215
862 0 59.1112 12.1804 720 62.2861 354.538 516.815
863 0 60.1294 11.4087 686 62.4169 354.252 519.162
864 0 62.0537 12.5859 781 60.9488 354.492 517.143
865 0 65.1589 12.293 801 61.2522 353.866 514.572
866 0 66.0362 11.9783 791 61.1972 354.536 516.612
867 0 68.1485 10.7999 736 62.0802 354.05 514.87
868 0 71.1191 11.9518 850 61.1635 354.319 512.945
869 0 73.1504 11.0731 810 61.7914 354.088 512.095
870 0 77.189 11.582 894 60.9564 354.887 510.299
871 0 77.2068 12.2658 947 60.7033 354.234 506.796
872 0 84.228 11.1602 940 60.3628 353.815 510.364
873 0 84.1497 10.6002 892 61.1491 353.868 509.226
874 0 88.1493 11.8435 1044 59.5785 354.151 506.962
875 0 92.1498 12.0239 1108 59.8574 353.866 503.336
876 1 46.1769 10.2865 475 60.9242 354.495 521.467
877 0 50.0336 11.4123 571 58.0263 354.061 522.947
878 0 51.0737 12.7855 653 56.5758 354.74 522.308
879 0 53.0428 10.3878 551 58.3993 353.893 522.018
880 0 54.076 10.9661 593 58.5868 354.39 519.003
881 0 56.0407 12.2411 686 57.2857 353.745 519.175
882 0 59.1686 12.2869 727 56.8019 354.05 518.623
883 0 59.0498 11.8375 699 57.2618 354.166 519.567
884 0 63.0945 12.1247 765 56.6105 354.048 517.677
885 0 64.0922 11.109 712 57.9424 354.662 517.368
886 0 67.1388 11.1262 747 57.7898 354.246 513.466
887 0 70.2001 11.7664 826 57.1174 354.277 512.85
888 0 71.1238 11.0371 785 57.9236 353.943 511.669
889 0 75.0637 11.3504 852 57.1784 354.292 510.559
890 0 75.1659 12.0533 906 56.3631 354.211 511.672
891 0 79.2037 11.1863 886 56.9018 354.454 512.327
892 0 83.1916 12.345 1027 55.9825 355.002 508.189
893 0 86.1609 12.1981 1051 56.3968 354.357 506.384
894 0 89.2321 13.7731 1229 55.2368 354.286 504.664
895 0 94.1407 13.1505 1238 55.8974 354.509 502.308
896 0 97.1329 13.1366 1276 55.3754 353.953 503.057
897 0 99.1662 14.037 1392 55.3369 353.597 500.93
898 1 51.0246 12.8761 657 55.5008 354.33 523.482
899 0 52.1328 13.293 693 55.0346 354.25 525.102
900 0 52.1646 11.0036 574 58.4024 354.523 523.136
901 0 57.0776 12.4918 713 55.8948 354.543 522.408
902 0 56.1005 11.8181 663 56.991 354.287 522.299
903 0 60.078 11.9178 716 56.0796 355.307 520.603
904 0 59.0654 12.1222 716 56.5293 353.506 521.145
905 0 61.0572 12.6439 772 55.706 353.969 518.184
906 0 65.1664 12.8594 838 54.9153 354.438 519.084
907 0 67.0982 11.8781 797 55.6562 354.577 516.08
908 0 70.1213 12.8064 898 54.9143 355.367 512.97
909 0 71.1062 12.2352 870 55.6701 355.594 517.07
910 0 72.2189 13.5837 981 54.79 355.765 513.743
911 0 74.036 13.4259 994 54.3169 354.846 515.024
912 0 78.1257 15.0783 1178 52.7513 356.156 510.772
913 0 81.1221 12.2408 993 55.4723 355.708 506.683
914 0 83.2021 13.6896 1139 53.5803 355.439 511.448
915 0 87.0754 13.7352 1196 53.765 355.537 507.258
916 0 89.1898 10.2142 911 56.8211 354.072 510.167
917 0 90.071 12.1793 1097 55.9726 354.578 506.738
918 0 92.1057 12.7136 1171 55.6968 354.627 506.472
919 1 47.027 12.4609 586 55.5785 355.459 527.647
920 0 49.1071 10.6706 524 58.2996 355.132 526.326
921 0 50.093 11.1193 557 57.0377 355.07 527.698
922 0 53.0701 12.0407 639 56.3114 354.596 525.883
923 0 53.0637 11.2318 596 57.448 354.258 524.312
924 0 56.0808 10.9485 614 57.6808 354.435 522.065
925 0 55.0608 11.2421 619 57.7011 353.674 520.422
926 0 61.0877 11.6717 713 56.2328 354.209 520.912
927 0 61.0365 9.66635 590 59.0763 354.241 518.703
928 0 64.0752 11.1432 714 57.3641 354.203 519.657
929 0 67.0873 13.3408 895 55.3587 353.596 515.617
930 0 66.3045 12.1108 803 56.9265 353.071 515.716
931 0 69.0953 12.6926 877 57.1243 353.42 514.055
932 0 72.0734 11.5022 829 57.8046 353.577 512.877
933 0 77.194 12.488 964 56.777 353.794 509.666
934 0 77.2448 11.0816 856 58.6495 353.862 513.743
935 0 83.0798 11.6996 972 57.394 353.772 510.924
936 0 83.323 11.5934 966 58.0766 353.644 510.192
937 1 47.1691 11.957 564 56.2004 354.537 529.044
938 0 46.03 9.99349 460 59.4696 354.548 527.289
939 0 46.0615 9.74784 449 60.1804 354.519 523.902
940 0 46.0632 10.4856 483 60.3313 354.182 522.571
941 0 49.0338 11.7674 577 59.1005 353.759 524.544
942 0 51.0867 10.4528 534 60.339 354.101 524.457
943 0 52.0323 11.2622 586 59.9556 354.089 521.171
944 0 55.0728 12.8739 709 57.9027 354.25 520.355
945 0 58.1109 12.3385 717 57.9303 355.011 520.265
946 0 60.0248 11.9784 719 58.7038 354.177 516.608
947 0 61.1546 13.1143 802 57.0212 354.344 515.714
948 0 64.151 13.7332 881 56.4767 354.602 515.025
949 0 62.1173 10.947 680 59.8044 354.863 513.6
950 0 64.1897 9.50308 610 61.3869 354.456 510.972
951 0 68.0948 12.3504 841 57.981 354.446 514.308
952 0 70.1318 11.2075 786 58.5064 355.586 514.665
953 0 75.1054 13.2081 992 56.6996 355.07 511.194
954 0 76.1092 12.2718 934 57.6242 354.808 509.291
955 0 79.1904 12.8803 1020 57.4245 354.589 506.059
956 0 84.0979 12.9492 1089 57.2268 355.058 506.512
957 0 85.2872 12.3348 1052 57.4344 354.788 506.949
958 0 86.2124 11.4369 986 59.1633 354.716 503.554
959 0 94.1039 12.805 1205 57.156 354.234 503.238
960 1 46.1049 10.693 493 58.9939 354.787 525.276
961 0 44.0242 10.5851 466 60.2511 354.079 523.697
962 0 48.0406 9.55441 459 60.5294 354.377 523.989
963 0 50.018 11.2759 564 60.2411 355.048 521.599
964 0 50.045 12.5487 628 59.1449 354.949 521.025
965 0 54.028 12.9192 698 57.9799 354.711 520.15
966 0 57.0715 11.8623 677 58.6854 354.904 520.651
967 0 58.0381 13.3361 774 57.3501 355.105 517.687
968 0 58.0911 11.7918 685 59.2978 354.988 516.34
969 0 59.1303 12.4302 735 58.4898 355.033 515.77
970 0 62.1476 11.698 727 58.9464 354.488 514.953
971 0 63.1502 13.5392 855 56.9415 355.339 512.071
972 0 65.089 12.1219 789 58.2357 355.409 512.428
973 0 70.0492 16.4741 1154 53.1213 355.518 512.695
974 0 70.1057 11.5255 808 58.3725 355.275 513.167
975 0 73.0716 13.2336 967 56.9018 354.831 508.927
976 0 76.1395 12.07 919 58.0827 354.822 510.225
977 0 77.1018 13.7091 1057 56.6585 354.746 507.321
978 0 80.0844 13.4483 1077 57.0009 354.905 508.914
979 0 82.2463 12.9124 1062 58.0669 355.393 505.085
980 0 84.3336 12.2015 1029 58.6016 355.308 502.293
981 0 87.2247 13.0812 1141 57.801 354.437 505.021
982 0 90.1869 12.9065 1164 57.7337 355.003 499.636
983 0 93.0862 12.1715 1133 58.902 355.177 498.379
984 0 95.1492 9.9633 948 60.6329 355.521 500.789
985 1 49.0441 9.54242 468 61.7778 354.846 519.643
986 0 52.1276 11.7596 613 59.5171 355.46 519.392
987 0 52.1 11.4587 597 60.3568 355.181 518.26
988 0 57.0397 12.1319 692 58.9032 355.616 517.045
989 0 58.0778 13.1375 763 57.9463 355.362 515.912
990 0 58.1559 11.0049 640 60.4766 355.242 516.658
991 0 62.0531 14.1814 880 57.0534 355.339 512.702
992 0 64.0616 13.1436 842 57.804 354.803 512.594
993 0 66.0443 12.8853 851 58.0423 355.188 511.024
994 0 69.0855 12.4339 859 58.4552 355.079 509.773
995 0 71.2303 12.2701 874 58.6316 354.676 507.562
996 0 71.1693 11.297 804 59.6406 354.802 506.923
997 0 76.0547 12.7671 971 58.0989 355.167 507
998 0 78.0668 12.5277 978 58.7301 354.678 503.876
999 0 80.0824 13.0491 1045 57.8622 354.594 505.654
1000 0 83.1037 12.1054 1006 58.7495 353.916 504.094
1001 0 87.1357 12.1649 1060 58.7528 354.758 501.632
1002 0 92.1723 12.238 1128 58.2926 354.695 502.27
1003 0 95.128 14.2229 1353 56.3991 354.61 500.161
1004 0 98.2248 11.6671 1146 59.2365 354.943 499.592
1005 1 48.0945 9.79322 471 60.0467 354.616 524.34
1006 0 51.0613 12.671 647 57.4359 354.32 521.76
1007 0 53.0301 12.8983 684 57.4751 354.431 521.338
1008 0 55.084 12.1451 669 58.5381 354.16 518.176
1009 0 56.025 12.4766 699 58.392 354.418 519.664
1010 0 56.0793 12.5002 701 58.7446 354.056 519.148
1011 0 57.0426 11.1671 637 60.033 354.548 517.248
1012 0 62.0365 11.9123 739 59.2436 355.208 514.752
1013 0 63.1163 13.3721 844 57.705 355.063 513.235
1014 0 63.1036 9.96774 629 61.4913 353.843 513.796
1015 0 68.0679 12.2672 835 58.6359 354.514 512.396
1016 0 71.1142 13.5697 965 57.5617 355.081 509.522
1017 1 37.0433 10.0153 371 59.9191 355.189 527.234
1018 0 38.0453 8.67387 330 60.3 355.3 529.348
1019 0 41.0598 11.6903 480 57.3771 355.327 527.992
1020 0 41.1239 9.36195 385 60.2104 355.177 525.426
1021 0 43.1171 11.921 514 57.716 354.907 525.274
1022 0 46.1137 11.9053 549 57.7049 354.492 526.036
1023 0 48.1053 12.2648 590 57.0441 354.761 525.593
1024 0 48.069 11.7331 564 58.273 354.975 523.996
1025 0 50.0402 13.2493 663 56.1584 354.591 524.572
1026 0 50.0815 9.30484 466 60.3412 354.631 524.852
1027 0 53.1266 14.4937 770 55.1961 354.255 523.397
1028 0 53.0198 11.8069 626 58.3738 353.661 520.428
1029 0 55.0753 10.8942 600 59.7833 353.845 519.728
1030 0 59.1846 11.8274 700 57.9343 354.18 520.987
1031 0 59.0734 11.765 695 58.1381 353.728 520.633
1032 0 61.0442 13.1872 805 57.1776 354.082 516.901
1033 0 63.0505 12.1014 763 57.8598 353.704 517.806
1034 0 66.0738 12.486 825 57.4642 352.979 516.339
1035 0 68.1145 12.6992 865 57.4705 353.533 516.265
1036 0 70.0695 13.8577 971 56.4985 353.31 515.474
1037 0 72.2126 11.023 796 59.1558 353.5 512.796
1038 0 73.1374 9.70775 710 61.4084 353.694 514.952
1039 1 35.0472 10.9567 384 58.4844 352.997 531.831
1040 0 40.0521 10.711 429 58.6247 352.676 529.881
1041 0 40.3298 10.2902 415 58.8988 352.66 528.525
1042 0 40.0636 11.3819 456 59.0965 352.875 528.625
1043 0 44.1762 10.7071 473 58.1247 352.554 531.199
1044 0 44.0839 11.342 500 59.1 352.018 527.47
1045 0 43.1234 11.5946 500 58.58 352.964 529.444
1046 0 47.2018 11.2708 532 58.8853 352.59 526.459
1047 0 46.0202 9.75658 449 60.6748 352.826 527.069
1048 0 49.084 11.5516 567 58.8801 352.97 524.716
1049 0 49.0982 10.367 509 60.1179 352.908 524.336
1050 0 53.1567 11.3438 603 57.6799 352.829 525.738
1051 0 53.1591 11.3057 601 58.8735 353.25 522.383
1052 0 55.0388 11.1376 613 59.0245 353.235 520.819
1053 0 55.0482 10.954 603 59.1526 353.076 522.065
1054 0 57.1557 10.9 623 58.992 352.685 519.685
1055 0 60.0863 11.2338 675 58.4563 352.852 519.57
1056 0 61.2363 10.5166 644 59.0155 352.88 516.085
1057 0 67.1957 11.0721 744 57.7809 352.89 518.394
1058 0 67.1108 10.1176 679 59.1885 352.265 514.215
1059 0 68.3014 11.5078 786 57.6858 352.836 516.141
1060 0 71.056 11.7231 833 57.8475 352.66 515.581
1061 1 35.1338 11.2997 397 58.5365 352.043 530.506
1062 0 38.0608 9.58993 365 60.2301 352.4 530.625
1063 0 40.143 11.9822 481 57.7713 352.906 532.353
1064 0 39.101 11.8156 462 59.5087 353.338 530.426
1065 0 41.0237 12.4318 510 58.551 353.418 532.959
1066 0 42.0312 11.6342 489 60.2536 353.55 529.581
1067 0 43.0733 12.4207 535 59.2374 353.286 525.817
1068 0 44.1567 11.8215 522 60.09 353.795 527.376
1069 0 48.0401 11.5529 555 59.6955 353.883 528.332
1070 0 48.1785 13.4085 646 58.6858 353.398 527.531
1071 0 49.1908 11.7095 576 60.191 352.201 526.929
1072 0 51.0549 13.7107 700 58.2586 352.861 524.86
1073 0 52.0352 12.8951 671 58.8003 353.419 525.426
1074 0 54.0771 11.761 636 60.3459 353.406 522.42
1075 0 56.057 13.0581 732 59.2063 353.179 522.456
1076 0 57.0786 13.0697 746 59.4584 354.189 521.106
1077 0 60.0624 13.3528 802 59.0711 354.325 521.945
1078 0 61.1417 12.283 751 60.2969 353.935 517.658
1079 0 63.2873 13.4624 852 59.1162 353.414 520.022
1080 0 66.0853 11.4095 754 62.0066 353.541 517.099
1081 0 69.273 12.1259 840 61.1345 353.508 516.637
1082 0 70.2029 12.649 888 60.786 353.847 517.146
1083 0 72.1566 14.0666 1015 60.3222 354.507 515.3
1084 0 75.091 14.1562 1063 59.6312 354.443 514.006
1085 0 79.2313 12.8863 1021 61.5857 354.466 513.759
1086 0 79.1299 10.3501 819 64.5604 354.479 511.192
1087 1 42.1389 10.4179 439 63.9704 353.882 532.255
1088 0 42.0315 13.3234 560 62.5643 354.452 530.252
1089 0 45.025 12.2821 553 63.7251 354.66 529.682
1090 0 47.064 14.9583 704 60.2784 354.145 529.064
1091 0 50.0986 14.7908 741 60.3212 354.358 529.923
1092 0 49.0258 14.7065 721 61.5728 354.184 528.105
1093 0 52.1083 14.7577 769 60.7126 354.247 526.7
1094 0 55.0697 11.6216 640 64.1797 354.384 527.644
1095 0 55.045 15.7871 869 59.7123 354.75 524.993
1096 0 57.1572 13.6466 780 62.0564 354.309 524.451
1097 0 58.1835 13.8871 808 62.4455 354.01 523.373
1098 0 60.2653 12.81 772 63.0311 354.336 523.437
1099 0 64.0824 14.0132 898 61.0379 354.037 522.941
1100 0 65.3214 14.3291 936 60.8387 353.638 520.248
1101 0 66.2561 12.829 850 63.12 353.701 518.202
1102 0 70.1992 14.758 1036 60.6033 354.233 517.82
1103 0 72.1272 13.8783 1001 62.1638 354.336 514.261
1104 0 75.264 13.539 1019 62.3405 354.61 515.917
1105 0 77.0669 14.2474 1098 61.531 354.553 513.852
1106 0 78.2132 14.4988 1134 61.3951 353.958 511.506
1107 1 37.0652 10.8457 402 65.4652 353.669 531.159
1108 0 40.015 11.8956 476 64.8403 354.111 529.935
1109 0 42.054 11.7944 496 65.5262 354.79 528.544
1110 0 44.0689 12.0039 529 64.8185 354.732 530.336
1111 0 46.0133 12.5616 578 64.1055 354.405 527.865
1112 0 47.1002 11.9745 564 64.3759 353.977 528.135
1113 0 50.1396 13.5821 681 62.5565 354.717 526.482
1114 0 51.0746 13.96 713 62.31 354.181 524.149
1115 0 53.0944 12.6944 674 63.1825 354.157 525.433
1116 0 54.0897 12.9415 700 63.0257 353.763 523.586
1117 0 56.1989 13.7369 772 62.0648 353.674 523.94
1118 0 57.2742 13.7933 790 62.2608 354.027 522.062
1119 0 59.133 14.4758 856 61.528 354.564 521.496
1120 0 58.2436 11.5549 673 65.2868 354.84 521.171
1121 0 66.1246 15.2137 1006 59.5368 354.474 521.479
1122 0 65.2919 14.5194 948 60.9494 354.04 521.53
1123 0 69.1886 15.1181 1046 60.5048 354.929 519.306
1124 0 69.3666 13.2484 919 62.9956 355.062 515.943
1125 0 74.0606 15.7574 1167 59.9357 355.308 513.644
1126 0 74.1636 13.6051 1009 62.7711 355.362 514.084
1127 0 77.1277 14.1324 1090 61.6239 354.765 514.782
1128 1 38.0295 11.5963 441 66.1497 354.576 530.374
1129 0 42.089 12.1172 510 64.7294 355.3 530.547
1130 0 43.0832 13.4855 581 62.9845 355.213 531.995
1131 0 43.0958 11.4396 493 65.6572 354.566 530.671
1132 0 46.1251 13.3333 615 63.813 354.489 529.62
1133 0 46.0599 12.9397 596 64.4295 354.525 528.169
1134 0 47.1158 14.8782 701 62.2967 354.902 527.974
1135 0 50.1171 14.087 706 63.2649 353.933 525.644
1136 0 51.0624 13.8654 708 63.9619 354.99 523.179
1137 0 54.0883 12.7569 690 64.3522 354.826 522.372
1138 0 53.1204 13.6671 726 64.095 355.415 524.814
1139 0 57.0344 13.7987 787 63.5769 355.013 521.074
1140 0 55.123 13.5334 746 64.4062 354.916 522.42
1141 0 61.1568 14.5691 891 62.0528 354.504 517.908
1142 0 62.0572 14.8895 924 61.7597 354.196 520.511
1143 0 63.1883 17.9147 1132 58.8207 353.354 515.454
1144 0 67.1025 14.381 965 62.8363 354.239 515.548
1145 0 68.1144 12.9928 885 64.9729 355.141 516.141
1146 0 69.0888 13.3596 923 64.8321 354.865 515.901
1147 0 71.1109 14.7797 1051 63.4044 354.835 512.635
1148 0 75.0521 14.5366 1091 63.4775 354.759 514.3
1149 0 77.0868 14.555 1122 64.7148 353.898 512.279
1150 0 78.059 14.1688 1106 65.6456 354.004 509.353
1151 0 82.1931 15.9502 1311 63.5904 354.149 511.478
1152 0 85.112 13.9933 1191 65.9849 353.916 508.788
1153 0 88.0725 15.3851 1355 64.8258 353.479 507.407
1154 0 91.1633 12.8231 1169 67.6484 354.253 510.525
1155 0 96.1293 16.6546 1601 62.945 354.532 507.425
1156 0 97.153 15.2749 1484 65.1247 354.462 506.473
1157 0 99.1498 14.5537 1443 66.9487 354.162 503.453
1158 0 104.121 15.6164 1626 65.663 354.538 502.689
1159 0 107.143 15.4933 1660 66.2078 354.24 499.703
1160 0 111.096 16.6073 1845 65.0461 354.302 497.028
1161 0 113.203 14.8672 1683 67.6025 354.673 495.846
1162 0 118.253 14.8072 1751 67.5625 354.368 492.604
1163 0 120.167 14.8294 1782 68.1655 354.984 493.394
1164 0 124.207 16.0539 1994 66.7828 353.684 489.122
1165 0 129.182 14.5299 1877 68.4204 353.725 490.975
1166 1 64.1659 13.4963 866 69.2644 354.031 521.68
1167 0 66.0363 14.7949 977 68.8618 354.218 518.766
1168 0 70.1015 16.7044 1171 66.0444 354.431 518.847
1169 0 71.173 14.3734 1023 69.9961 354.642 516.612
1170 0 73.0544 15.4405 1128 68.7881 354.544 516.742
1171 0 74.0685 14.3516 1063 70.3067 354.649 514.117
1172 0 76.0774 13.8675 1055 71.4815 354.187 513.256
1173 0 78.173 14.276 1116 71.1416 354.498 514.558
1174 0 79.1641 12.6194 999 74.1582 354.834 511.769
1175 0 85.066 13.3896 1139 72.1493 354.577 509.824
1176 0 86.0823 12.7669 1099 73.3276 354.328 509.897
1177 0 91.0558 15.7706 1436 68.2131 354.419 511.306
1178 0 92.2199 15.4414 1424 70.0955 354.208 506.904
1179 0 99.2201 13.3844 1328 72.0324 354.137 504.541
1180 0 98.1126 13.3724 1312 72.628 354.705 502.292
1181 0 99.0916 13.0082 1289 73.2793 353.886 501.299
1182 0 106.153 13.1037 1391 72.9037 354.352 500.614
1183 0 109.168 13.786 1505 72.7548 355.048 498.046
1184 0 113.207 14.2659 1615 71.8551 354.694 495.481
1185 1 61.052 13.251 809 72.3684 354.433 521.152
1186 0 61.024 13.6012 830 72.3542 354.537 521.535
1187 0 66.198 14.0034 927 71.2017 355.282 519.629
1188 0 68.152 12.9563 883 72.9796 355.04 518.438
1189 0 67.0815 14.5047 973 71.8798 354.06 517.422
1190 0 72.0594 13.2807 957 73.2759 354.592 516.519
1191 0 73.0601 13.7421 1004 73.2241 354.246 515.252
1192 0 77.1221 14.2761 1101 71.8756 354.566 514.258
1193 0 78.0653 12.7457 995 74.208 354.119 512.729
1194 0 79.1031 14.3863 1138 73.0308 354.372 509.466
1195 0 85.0766 14.3988 1225 72.671 354.029 507.734
1196 0 89.2002 14.6412 1306 71.5666 354.104 510.523
1197 0 92.0409 13.6896 1260 72.7976 353.897 510.154
1198 0 97.1132 14.931 1450 70.4393 354.061 508.206
1199 0 99.1372 15.2919 1516 70.719 354.133 504.887
1200 0 102.221 14.5273 1485 71.4451 354.015 503.998
1201 0 106.155 15.4114 1636 70.6045 354.691 500.621
1202 0 109.173 14.3809 1570 72.0713 354.739 501.764
1203 0 112.228 14.8982 1672 71.6447 354.672 498.08
1204 0 112.136 12.3779 1388 75.2558 354.579 496.532
1205 0 120.096 14.3801 1727 71.9884 354.228 495.415
1206 0 124.117 14.1077 1751 72.3912 354.53 494.251
1207 0 127.193 14.5526 1851 72.2102 354.204 490.267
1208 1 66.1627 14.7062 973 70.3022 354.785 523.094
1209 0 68.0272 14.2296 968 72.0269 354.725 519.411
1210 0 72.1487 14.5117 1047 71.1796 354.798 515.511
1211 0 73.1231 13.1422 961 72.9906 354.01 517.908
1212 0 76.05 13.6621 1039 72.5197 354.546 517.545
1213 0 79.0905 14.1104 1116 72.3952 354.384 514.341
1214 0 81.2071 14.2722 1159 72.1915 354.926 514.854
1215 0 84.16 14.6388 1232 71.4351 354.778 513.148
1216 0 88.1512 15.031 1325 70.0958 354.635 513.228
1217 0 89.0805 13.5159 1204 72.8223 355.007 511.9
1218 0 92.1205 15.382 1417 70.0423 355.318 509.967
1219 0 94.1338 15.3824 1448 71.1388 355.15 505.315
1220 0 99.1299 15.2527 1512 70.1878 354.187 506.923
1221 0 103.209 16.2485 1677 68.8843 354.696 502.954
1222 0 105.145 14.2185 1495 71.7104 354.459 502.837
1223 1 54.0205 12.1435 656 73.4238 354.657 525.527
1224 0 55.046 14.8603 818 70.0807 354.66 526.15
1225 0 54.0204 15.2535 824 70.3131 354.857 525.106
1226 0 57.0793 13.9105 794 71.4874 355.006 525.552
1227 0 58.2361 14.0978 821 71.7235 354.462 523.639
1228 0 59.1278 14.5109 858 71.6876 354.974 523.002
1229 0 61.1105 14.2692 872 72.0803 354.782 520.881
1230 0 65.0531 15.2491 992 70.5655 355.258 521.576
1231 0 64.251 13.9142 894 73.321 355.506 520.322
1232 0 69.1517 15.1696 1049 70.6492 355.384 517.27
1233 0 71.1117 14.5546 1035 71.3314 355.133 517.233
1234 0 72.1213 15.4601 1115 71.2027 355.723 515.345
1235 0 75.3001 13.9575 1051 73.2721 354.845 513.116
1236 0 78.1902 15.1554 1185 71.2608 354.739 512.992
1237 0 81.1924 14.7304 1196 71.7893 355.048 512.694
1238 0 83.0771 15.0102 1247 71.5694 355.68 511.225
1239 0 86.1335 15.9868 1377 70.0792 355.353 509.993
1240 0 88.2584 15.5226 1370 70.8693 355.136 509.468
1241 0 91.3467 14.9321 1364 71.5323 354.558 509.096
1242 0 93.162 13.8468 1290 73.3876 355.112 508.143
1243 0 96.1469 13.9994 1346 73.321 354.831 504.595
1244 0 100.31 14.874 1492 71.7192 355.95 506.326
1245 1 52.0754 14.7286 767 72.3781 355.816 525.918
1246 0 56.2023 14.2165 799 72.1677 355.791 525.413
1247 0 55.1528 13.5623 748 73.8369 355.775 525.703
1248 0 58.0769 15.7378 914 71.3468 355.788 523.176
1249 0 59.0615 14.6627 866 73.2356 355.976 520.173
1250 0 63.0628 14.0495 886 72.781 355.83 522.402
1251 0 63.2064 14.5713 921 72.0337 355.477 521.621
1252 0 64.1248 12.5069 802 75.6185 355.776 519.766
1253 0 68.2768 13.6064 929 73.5748 355.597 517.386
1254 0 71.1881 15.9577 1136 69.6171 354.926 516.957
1255 0 74.1812 14.0602 1043 72.2253 355.333 516.004
1256 0 74.112 13.6685 1013 72.9102 355.301 516.711
1257 0 77.1428 14.9074 1150 71.4339 355.161 512.832
1258 0 82.2447 14.2137 1169 71.6989 355.796 513.853
1259 0 84.1996 14.4419 1216 71.4926 355.567 511.836
1260 0 84.1641 14.8638 1251 71.2686 355.579 511.865
1261 0 89.2876 15.2205 1359 70.1516 354.732 508.242
1262 0 92.1937 15.0119 1384 70.7348 354.789 506.493
1263 0 94.1702 15.0154 1414 70.7412 353.63 504.345
1264 0 99.1573 13.6752 1356 72.3378 354.591 505.322
1265 0 100.4 14.0338 1409 71.9475 355.054 504.031
1266 0 105.097 16.5751 1742 68.5907 355.03 502.753
1267 1 51.1039 13.5802 694 74.0014 356.072 525.102
1268 0 56.2186 14.2302 800 71.7088 356.275 525.69
1269 0 56.3378 14.0403 791 73.3957 355.91 525.091
1270 0 57.0994 13.5028 771 74.2244 355.445 523.488
1271 0 60.0828 13.5147 812 73.5899 354.607 522.573
1272 0 61.0231 14.2569 870 73.1529 354.939 523.288
1273 0 63.1993 15.3325 969 72.032 354.958 518.965
1274 0 64.0732 13.2193 847 74.8642 355.018 521.106
1275 0 67.0953 15.56 1044 71.9923 355.293 519.281
1276 0 72.1263 16.9148 1220 69.8107 355.58 517.116
1277 0 71.1274 12.3581 879 75.6974 354.764 518.23
1278 0 74.3857 14.3979 1071 72.7292 354.979 518.849
1279 0 78.0528 15.2717 1192 71.8104 355.214 515.44
1280 0 81.1131 15.238 1236 71.3981 354.366 514.579
1281 0 82.2226 14.704 1209 72.1853 354.384 515.077
1282 0 88.2366 15.5151 1369 70.0402 354.929 511.563
1283 0 90.1283 14.9897 1351 70.7646 354.585 509.057
1284 0 94.0997 16.44 1547 68.6664 354.712 508.518
1285 1 43.0855 13.2295 570 73.3421 355.198 531.625
1286 0 45.2321 14.4367 653 72.2802 356.063 530.196
1287 0 46.1618 14.2109 656 71.7805 355.788 528.904
1288 0 48.0883 14.2654 686 71.6429 354 527.503
1289 0 49.1734 13.6456 671 72.6647 354.531 528.49
1290 0 50.2253 13.9969 703 71.1579 353.967 529.802
1291 0 53.0662 14.284 758 71.3377 354.558 528.161
1292 0 55.0503 14.9318 822 70.1995 354.124 526.133
1293 0 57.1658 14.3267 819 70.3028 354.719 527.126
1294 0 58.0732 15.5838 905 68.853 354.477 526.734
1295 0 59.2292 14.7225 872 70.6479 354.702 524.799
1296 0 63.1712 15.5609 983 69.3123 354.479 523.961
1297 0 65.0957 15.3466 999 69.6506 354.61 522.988
1298 0 66.1377 14.742 975 70.7549 354.787 522.045
1299 0 66.1063 13.9624 923 73.0921 355.209 518.049
1300 0 71.112 15.7498 1120 70.0161 355.271 518.338
1301 0 73.074 14.41 1053 71.4786 354.819 519.125
1302 0 75.1407 15.1849 1141 71.1832 355.252 518.882
1303 0 75.4435 14.3816 1085 73.1926 355.257 515.924
1304 0 79.0784 15.3013 1210 71.1174 354.652 515.769
1305 0 82.1798 13.6165 1119 73.6256 354.707 513.396
1306 0 88.1124 14.6744 1293 71.7564 354.745 512.481
1307 0 87.1328 14.7476 1285 72.5276 355.811 512.88
1308 0 93.1558 14.6529 1365 71.9817 355.369 508.407
1309 1 44.0569 14.4132 635 72.4457 355.51 532.143
1310 0 44.1144 13.3063 587 75.075 355.037 529.075
1311 0 48.2874 15.5113 749 70.482 355.417 530.826
1312 0 48.0903 13.641 656 73.5107 355.425 531.547
1313 0 49.2633 15.6506 771 71.703 355.455 529.709
1314 0 50.1873 15.7211 789 71.9392 355.579 528.09
1315 0 51.0718 14.7244 752 73.6995 355.612 526.654
1316 0 54.2433 15.578 845 71.5917 354.353 528.65
1317 0 57.1585 15.1858 868 71.6221 354.611 528.128
1318 0 57.1983 15.0879 863 72.3905 354.855 526.15
1319 0 58.157 14.8735 865 73.5052 354.763 523.531
1320 0 62.0796 15.6573 972 70.9907 354.677 525.166
1321 0 64.1769 16.2364 1042 70.3868 355.108 523.521
1322 0 64.082 15.5894 999 72.1942 354.49 519.851
1323 0 68.2844 16.9731 1159 69.4599 355.222 522.346
1324 0 70.4598 15.186 1070 72.3 355.193 521.851
1325 0 71.179 16.6903 1188 70.5547 354.29 518.613
1326 0 71.1365 14.5636 1036 74.0396 354.732 517.427
1327 0 74.1061 14.9785 1110 73.1108 354.952 517.565
1328 0 77.2808 14.8032 1144 72.7893 354.799 513.703
1329 0 81.3496 15.5133 1262 71.1593 355.436 516.065
1330 0 83.0958 16.3065 1355 70.7439 355.17 511.31
1331 0 86.1495 15.5544 1340 71.5463 354.881 513.596
1332 0 89.187 14.6994 1311 72.402 354.634 512.906
1333 0 90.2128 13.6899 1235 74.3911 354.121 510.526
1334 0 96.0694 17.123 1645 69.4134 354.517 509.841
1335 0 97.1751 15.0141 1459 72.8821 354.442 507.855
1336 1 48.1006 15.0102 722 73.2756 355.479 529.134
1337 0 49.2683 14.35 707 74.2546 355.556 529.007
1338 0 49.2151 13.8169 680 75.8691 355.316 530.462
1339 0 51.1174 15.8263 809 74.0717 354.824 526.653
1340 0 53.4668 15.6733 838 73.037 354.642 529.18
1341 0 54.52 15.0404 820 74.1915 355.23 525.25
1342 0 56.2243 14.5489 818 75.1076 354.993 526.323
1343 0 58.1992 15.5844 907 73.4752 355.179 526.763
1344 0 60.1612 17.4697 1051 71.0809 355.083 525.634
1345 0 59.1436 13.7124 811 78.2466 354.962 522.89
1346 0 62.1771 15.1181 940 75.8064 355.122 523.049
1347 0 63.4727 15.5973 990 75.995 355.276 521.883
1348 0 67.1396 17.2625 1159 72.3719 355.036 522.733
1349 0 66.0758 15.2703 1009 76.782 355.432 520.586
1350 0 70.1492 15.7521 1105 74.9357 355.799 520.513
1351 0 71.0971 14.3606 1021 77.5671 355.858 519.599
1352 0 76.1412 16.0491 1222 74.0982 355.456 516.758
1353 0 78.2006 15.7671 1233 74.2547 354.656 516.049
1354 0 81.1154 15.3855 1248 74.5465 354.772 515.245
1355 0 84.4546 16.4941 1393 72.8887 354.861 512.724
1356 0 88.1041 16.8097 1481 72.6178 354.6 511.652
1357 0 89.4033 15.9278 1424 74.2072 354.413 509.269
1358 1 43.0656 14.2341 613 75.956 355.052 532.574
1359 0 43.0772 13.6963 590 76.7915 355.332 532.673
1360 0 44.3312 14.3465 636 76.033 354.132 532.741
1361 0 46.3271 15.369 712 74.6166 354.243 533.01
1362 0 47.196 15.87 749 74.538 353.961 531.676
1363 0 48.2103 15.1835 732 76.9604 354.072 529.281
1364 0 49.0888 13.8728 681 78.674 354.36 530.514
1365 0 50.0949 15.3708 770 77.7377 355.018 528.494
1366 0 53.5208 15.4706 828 76.657 354.618 529.181
1367 0 55.2255 15.4639 854 76.9098 354.456 527.707
1368 0 56.1727 15.5592 874 77.3295 353.626 526.651
1369 0 57.3035 15.1474 868 78.0403 353.825 527.393
1370 0 59.2758 14.7109 872 79.8257 354.308 525.648
1371 0 60.2704 16.0775 969 77.7399 354.346 524.158
1372 0 63.3634 15.6242 990 77.9081 354.361 523.884
1373 0 65.1903 16.122 1051 76.705 354.762 524.503
1374 0 66.2128 15.3898 1019 78.842 354.97 522.496
1375 0 67.3318 15.4162 1038 78.604 354.316 520.731
1376 0 69.2629 15.1596 1050 78.9324 353.929 518.518
1377 0 73.2397 15.893 1164 76.884 354.503 520.031
1378 0 74.3129 16.3229 1213 76.9439 354.518 517.735
1379 0 78.2805 15.8532 1241 76.6132 354.867 517.631
1380 0 82.2233 15.239 1253 76.498 354.441 517.687
1381 0 82.1804 16.0744 1321 77.4663 354.48 512.587
1382 0 87.3169 16.2397 1418 76.1989 353.846 513.767
1383 0 90.3544 16.225 1466 76.399 352.821 512.114
1384 0 93.3856 15.5163 1449 76.9186 353.052 511.738
1385 0 96.3191 15.3137 1475 77.2793 354.296 510.424
1386 0 98.2533 16.5592 1627 75.8002 353.6 507.942
1387 0 102.299 15.5329 1589 77.3172 353.459 508.424
1388 1 51.342 14.5884 749 79.4032 354.611 528.939
1389 0 51.0331 14.6767 749 80.4606 354.39 528.836
1390 0 51.0511 15.553 794 80.0945 354.262 528.941
1391 0 59.1039 16.0565 949 76.4974 353.41 528.496
1392 0 57.1941 14.7218 842 81.8159 353.3 526.444
1393 0 59.3286 13.1134 778 82.9794 353.83 527.814
1394 0 61.4578 14.9371 918 80.4401 353.825 527.309
1395 0 62.1089 16.8575 1047 78.9838 354.138 524.286
1396 0 65.2081 14.5687 950 83.259 353.838 523.832
1397 0 68.3923 15.7474 1077 79.9081 353.308 523.557
1398 0 69.4266 15.5272 1078 81.0325 353.146 521.8
1399 0 71.2649 16.165 1152 80.0781 353.966 522.201
1400 0 70.5188 14.2232 1003 84.351 354.266 520.641
1401 0 75.4046 15.3837 1160 81.5638 354.191 519.052
1402 0 78.2474 14.7609 1155 82.2944 353.998 517.922
1403 0 80.4452 14.8051 1191 81.7976 353.823 518.628
1404 0 84.4043 14.8452 1253 80.992 353.632 516.095
1405 0 86.3496 16.41 1417 79.3373 354.642 513.303
1406 0 90.1477 15.0863 1360 79.4081 354.244 515.222
1407 0 93.17 15.9815 1489 78.5165 353.911 511.369
1408 0 95.35 14.2318 1357 81.7023 353.775 510.409
1409 0 98.2804 14.8148 1456 80.7026 354.054 506.894
1410 1 48.1577 13.788 664 82.497 353.842 532.057
1411 0 47.361 12.922 612 84.3366 354.16 530.788
1412 0 48.4017 15.0201 727 81.8652 354.508 529.927
1413 0 49.5294 12.8005 634 85.6767 353.826 529.437
1414 0 51.1222 13.7318 702 83.1168 354.534 529.628
1415 0 55.2639 15.8874 878 79.2654 353.579 528.321
1416 0 56.3816 14.5083 818 80.9144 353.74 529.624
1417 0 58.1734 15.5569 905 80.1779 353.82 527.69
1418 0 60.2108 15.0471 906 80.5287 353.98 527.462
1419 0 60.1918 14.5202 874 82.262 354.555 526.24
1420 0 62.1944 15.1943 945 80.8656 354.93 526.241
1421 0 64.1878 16.218 1041 79.586 354.68 524.473
1422 0 67.2498 15.896 1069 79.087 354.288 524.298
1423 0 69.4102 15.7037 1090 79.2477 354.616 522.468
1424 0 71.329 17.7487 1266 75.8957 354.576 521.343
1425 0 71.2327 16.6497 1186 78.516 354.387 518.221
1426 0 75.3117 15.4823 1166 79.6955 354.567 519.096
1427 0 77.2811 14.3243 1107 80.4444 354.9 520.121
1428 0 79.3769 16.4153 1303 77.7897 354.773 517.163
1429 0 83.3944 15.085 1258 78.7258 354.631 515.476
1430 0 84.3639 15.9191 1343 77.49 354.355 511.841
1431 0 87.4377 14.8106 1295 78.9027 353.92 511.77
1432 0 93.2129 16.2317 1513 75.6279 354.45 512.384
1433 0 94.6477 15.32 1450 77.4145 354.531 510.902
1434 0 98.5757 15.2573 1504 76.7653 354.382 510.264
1435 0 101.258 14.9914 1518 77.413 354.229 506.065
1436 0 103.341 14.2054 1468 78.4128 354.912 505.792
1437 0 107.288 15.6308 1677 75.814 353.898 504.281
1438 0 110.268 17.2942 1907 72.8747 354.474 505.626
1439 1 52.2985 13.4803 705 80.3858 354.444 527.762
1440 0 54.3201 14.1016 766 77.9648 353.856 530.501
1441 0 57.3632 13.2489 760 80.654 353.964 527.107
1442 0 59.3273 14.2093 843 78.7295 354.074 528.528
1443 0 59.2153 13.8984 823 80.644 354.061 524.553
1444 0 60.2369 14.1275 851 80.2256 354.355 525.917
1445 0 60.3321 14.0224 846 81.3298 354.716 525.244
1446 0 65.315 17.5151 1144 75.6923 354.361 522.047
1447 0 67.3531 15.7677 1062 78.5622 354.797 523.4
1448 0 68.2283 16.4301 1121 78.0874 354.613 522.228
1449 0 71.3092 15.9727 1139 78 353.774 523.863
1450 0 74.2808 16.7742 1246 76.5466 354.302 523.373
1451 0 74.5064 16.3208 1216 78.4704 354.233 519.732
1452 0 78.454 17.6791 1387 75.5458 354.208 518.974
1453 0 80.2259 16.0671 1289 77.6819 354.25 518.647
1454 0 84.4757 18.1236 1531 73.5676 353.952 517.569
1455 0 84.4061 15.3188 1293 78.2761 355.23 514.84
1456 0 88.5558 16.9611 1502 74.263 354.83 516.262
1457 0 90.3134 15.6345 1412 76.4788 355.248 514.086
1458 0 95.3229 18.2433 1739 71.7481 355.242 512.104
1459 0 99.3233 16.8943 1678 73.528 354.934 510.449
1460 0 100.207 16.8052 1684 73.4608 354.695 511.357
1461 0 104.417 16.3958 1712 74.0777 354.575 507.454
1462 0 108.434 15.3365 1663 76.0295 354.695 505.61
1463 0 111.341 15.1786 1690 76.384 354.395 503.11
1464 0 117.215 16.2181 1901 73.9953 354.253 502.941
1465 0 119.324 15.4705 1846 75.5276 354.634 502.191
1466 0 123.458 16.2646 2008 73.7087 354.339 498.951
1467 0 128.428 16.6553 2139 73.1019 353.512 496.596
1468 0 131.347 16.5135 2169 73.6524 353.714 494.085
1469 0 135.214 14.673 1984 76.4325 354.031 491.357
1470 1 66.3429 15.6611 1039 75.7969 354.398 524.675
1471 0 70.2492 15.3454 1078 76.4694 353.701 523.08
1472 0 71.3903 16.3047 1164 75.0627 354.478 523.007
1473 0 71.366 15.8058 1128 76.6942 354.158 521.837
1474 0 76.2628 17.3348 1322 73.4985 353.694 521.746
1475 0 78.3015 17.803 1394 73.1571 353.744 519.279
1476 0 80.247 15.5395 1247 76.7241 353.952 518.727
1477 0 81.253 15.6056 1268 76.2713 354.022 516.789
1478 0 82.1972 15.0978 1241 77.0081 354.072 517.45
1479 0 85.2738 15.7962 1347 77.2784 354.368 512.364
1480 0 87.2962 15.625 1364 77.3497 354.5 511.507
1481 0 90.4351 13.7447 1243 79.2285 354.058 511.922
1482 0 98.2614 16.7614 1647 73.0856 353.715 513.883
1483 0 100.358 19.022 1909 70.5128 353.558 510.758
1484 0 101.297 17.2364 1746 73.8671 354.109 507.684
1485 0 104.605 14.7507 1543 76.7466 353.133 508.707
1486 0 108.458 15.3976 1670 76.0371 354.271 504.359
1487 0 112.276 14.8206 1664 76.9501 354.388 500.151
1488 0 117.433 16.3242 1917 74.7319 353.76 500.596
1489 0 120.264 15.2996 1840 76.244 353.298 497.817
1490 0 124.402 16.6958 2077 73.4468 353.468 498.253
1491 0 130.374 16.5754 2161 73.7112 353.875 494.108
1492 0 136.497 17.4509 2382 71.8081 354.259 491.938
1493 1 70.2421 14.5782 1024 75.1396 354.604 524.397
1494 0 73.3715 14.0927 1034 75.7544 354.301 523.047
1495 0 75.2489 14.977 1127 75.1455 354.39 521.526
1496 0 76.2447 13.2206 1008 77.5506 353.522 519.63
1497 0 81.5453 17.0457 1390 72.0597 353.1 518.006
1498 0 81.2867 14.2459 1158 76.1667 353.664 517.42
1499 0 84.225 14.3663 1210 75.6752 353.09 516.555
1500 0 88.546 16.0594 1422 73.154 354.03 514.705
1501 0 91.4045 15.59 1425 73.3291 353.655 514.27
1502 0 94.3711 14.9728 1413 74.867 354.046 511.457
1503 0 96.2948 13.9156 1340 75.5194 354.719 512.856
1504 0 100.347 14.5395 1459 74.6491 353.555 509.912
1505 0 100.274 14.0316 1407 76.8529 353.617 506.398
1506 0 105.403 15.2747 1610 75.1783 353.296 504.648
1507 0 108.495 15.8533 1720 74.4837 353.467 502.59
1508 0 113.573 15.8137 1796 74.255 353.89 502.806
1509 0 118.423 15.7824 1869 73.9914 354.37 502.394
1510 0 122.298 16.8114 2056 73.0311 353.876 499.302
1511 1 63.6764 15.0919 961 74.8762 353.745 525.079
1512 0 63.4021 14.3528 910 77.433 353.327 522.969
1513 0 66.4544 14.8974 990 75.7929 353.203 524.655
1514 0 68.3767 14.6687 1003 76.2772 353.186 523.385
1515 0 71.4879 15.3313 1096 75.6277 353.547 522.115
1516 0 75.5353 14.2185 1074 76.8994 354.006 520.988
1517 0 76.3665 16.8922 1290 73.3783 354.247 520.76
1518 0 79.4449 15.6964 1247 75.9527 354.129 518.996
1519 0 81.5759 13.9134 1135 78.3921 353.323 518.856
1520 0 84.4615 17.3689 1467 72.9046 353.648 517.603
1521 0 84.496 14.0125 1184 79.4189 353.492 514.774
1522 0 89.4667 15.0224 1344 76.7939 353.653 515.381
1523 0 91.3226 14.8266 1354 76.5982 353.736 515.772
1524 0 94.3828 14.9815 1414 77.4399 353.895 510.25
1525 0 98.3147 14.5248 1428 77.659 354.455 510.248
1526 0 102.427 15.6502 1603 75.1884 353.533 506.931
1527 0 105.337 13.9838 1473 77.3476 353.948 506.016
1528 0 110.579 14.7406 1630 75.5362 353.507 505.942
1529 1 55.5769 14.2865 794 75.5479 353.424 528.374
1530 0 58.2209 11.8858 692 77.6344 353.756 529.931
1531 0 60.2536 15.0198 905 73.8354 353.788 528.261
1532 0 61.4333 15.0082 922 73.8373 353.176 526.541
1533 0 65.4989 15.0079 983 72.9786 353.307 526.985
1534 0 63.4432 14.8637 943 74.4528 353.746 525.337
1535 0 66.2387 14.6289 969 75.1414 353.835 522.95
1536 0 67.4491 14.7667 996 74.8534 353.843 522.435
1537 0 70.3222 14.1776 997 75.5246 353.88 521.608
1538 0 69.2976 13.6224 944 77.1748 354.14 521.828
1539 0 74.4366 14.8045 1102 74.6779 354.086 519.258
1540 0 77.6567 15.8389 1230 71.9927 353.343 520
1541 0 77.4593 14.201 1100 75.7545 353.06 518.532
1542 0 82.5111 16.3372 1348 71.4904 353.131 517.588
1543 0 85.4602 16.3 1393 71.7459 353.118 517.013
1544 0 84.3424 14.8443 1252 75.3578 353.014 513.986
1545 0 87.4665 14.6799 1284 74.7017 353.572 511.355
1546 0 91.299 14.4251 1317 75.2612 353.442 511.435
1547 0 94.6067 14.2168 1345 75.2654 353.41 511.563
1548 0 96.5699 15.7088 1517 72.8919 353.165 509.046
1549 0 101.239 15.8141 1601 72.6821 353.172 508.4
1550 0 104.535 15.5451 1625 72.9391 352.865 506.798
1551 0 106.393 13.9201 1481 75.027 353.297 505.881
1552 0 110.505 15.1939 1679 73.9535 353.471 499.446
1553 1 60.4019 13.1618 795 74.2113 353.932 529.936
1554 0 59.5249 13.2717 790 76.143 353.733 527.44
1555 0 62.5849 14.2047 889 74.9055 353.98 526.978
1556 0 62.4756 13.8774 867 76.075 354.526 526.497
1557 0 64.266 13.1018 842 77.5048 353.16 524.248
1558 0 67.6159 15.1 1021 73.8609 353.236 523.156
1559 0 69.4843 14.4925 1007 74.6485 353.075 523.947
1560 0 70.5098 15.1185 1066 74.5432 353.577 521.94
1561 0 75.3292 15.6646 1180 73.0314 354.226 520.905
1562 0 77.4287 16.4409 1273 71.9034 354.408 520.918
1563 0 78.519 14.8881 1169 74.6749 354.025 517.787
1564 0 80.5673 14.3855 1159 76.4262 354.052 515.688
1565 0 84.3961 15.7116 1326 73.8122 353.946 515.002
1566 0 86.4768 15.7268 1360 73.7257 353.377 513.356
1567 0 88.3838 15.6024 1379 72.8405 353.277 515.987
1568 0 93.5333 15.6842 1467 73.2277 353.695 511.943
1569 0 96.4464 15.6045 1505 73.4591 353.751 510.615
1570 0 97.5744 15.0757 1471 74.0741 352.887 510.178
1571 0 102.539 15.4868 1588 73.1675 353.122 507.624
1572 0 105.344 15.2073 1602 73.6848 353.135 506.183
1573 0 109.416 14.9887 1640 73.2652 353.099 505.391
1574 0 113.574 14.9242 1695 73.6401 352.933 501.333
1575 1 60.4919 15.3078 926 73.2959 353.874 526.449
1576 0 61.4021 14.8855 914 74.6072 353.056 525.245
1577 0 63.4418 15.0689 956 74.251 352.536 524.345
1578 0 67.3472 15.4127 1038 73.4432 352.528 524.076
1579 0 67.4725 15.8435 1069 73.9336 353.996 523.544
1580 0 69.4581 16.0096 1112 73.5342 353.85 522.165
1581 0 72.4967 15.2835 1108 74.1534 354.145 522.927
1582 0 73.2492 14.1708 1038 76.6734 352.966 519.936
1583 0 76.2511 14.8063 1129 75.4553 353.56 520.665
1584 0 79.3562 14.2648 1132 76.5574 353.488 517.485
1585 0 82.7099 16.0319 1326 74.1433 354.318 516.376
1586 0 85.6132 14.4838 1240 75.8952 353.944 514.888
1587 0 88.4782 15.4049 1363 74.6654 353.674 515.194
1588 0 89.4099 15.2108 1360 75.4419 353.115 511.926
1589 0 93.471 14.1113 1319 76.5489 353.113 509.935
1590 0 95.462 15.1579 1447 74.9198 352.517 508.489
1591 0 99.4857 15.4796 1540 74.2143 352.999 506.703
1592 0 103.47 15.8694 1642 73.2442 353.233 504.248
1593 0 106.549 13.8528 1476 75.6287 352.795 505.942
1594 0 109.469 14.4973 1587 75.1922 353.039 501.287
1595 0 112.671 15.6118 1759 72.8664 353.731 502.539
1596 0 115.501 13.9307 1609 75.2828 352.861 500.494
1597 0 120.597 14.876 1794 73.971 352.946 493.569
1598 1 63.4628 14.4809 919 71.494 353.148 526.331
1599 0 62.3153 13.4477 838 74.8091 352.903 522.052
1600 0 64.3518 12.758 821 75.4324 353.268 524.157
1601 0 67.263 14.644 985 72.865 353.044 522.152
1602 0 68.3006 13.8652 947 74.3833 352.584 519.741
1603 0 70.2613 14.3891 1011 73.6004 352.48 518.154
1604 0 73.3168 14.0895 1033 73.5828 352.524 520.57
1605 0 75.3964 14.5232 1095 73.2639 353.017 520.485
1606 0 77.2345 12.9994 1004 76.6066 353.581 516.948
1607 0 78.487 14.7923 1161 74.5168 353.528 516.366
1608 0 82.5618 16.0122 1322 72.2148 353.621 516.618
1609 0 85.2915 15.0074 1280 73.8195 353.887 514.604
1610 0 88.1394 14.6813 1294 73.5124 353.309 513.478
1611 0 89.3239 14.1284 1262 75.3336 353.182 510.718
1612 0 93.327 14.5938 1362 74.3612 352.973 510.065
1613 0 97.3311 16.1613 1573 71.8646 353.961 509.29
1614 0 99.2015 13.6591 1355 75.2753 353.217 504.603
1615 0 102.207 14.363 1468 74.2255 352.455 502.349
1616 0 107.387 15.8586 1703 71.7504 353.131 503.912
1617 0 110.596 15.1994 1681 72.4795 353.641 499.772
1618 1 53.2966 14.2786 761 72.8633 353.87 528.314
1619 0 55.4292 12.6287 700 74.1914 353.623 528.031
1620 0 56.5474 14.8548 840 71.844 354.495 528.984
1621 0 56.3804 14.0474 792 72.4381 353.679 527.287
1622 0 59.5702 15.7293 937 71.1217 353.434 523.871
1623 0 60.2384 13.845 834 73.5384 353.02 523.144
1624 0 62.3246 13.1248 818 74.4499 353.378 521.112
1625 0 66.2183 12.0662 799 75.99 353.247 518.84
1626 0 67.205 13.9871 940 73.3064 352.774 517.526
1627 0 69.3039 14.5879 1011 71.6825 353.783 522.33
1628 0 72.1994 13.0056 939 75.2119 353.609 519.794
1629 0 74.2481 15.6233 1160 70.9345 353.359 518.884
1630 0 77.1913 15.4681 1194 70.938 352.575 516.752
1631 0 80.5856 15.4246 1243 70.1641 352.493 518.17
1632 0 81.227 14.9334 1213 71.3223 352.779 514.772
1633 0 84.3943 14.8114 1250 70.7816 353.247 514.921
1634 0 86.335 14.8723 1284 71.0039 353.227 510.286
1635 0 88.3668 14.304 1264 71.5973 353.176 512.869
1636 0 92.3692 15.3623 1419 69.6786 352.781 511.615
1637 0 95.4497 15.5475 1484 69.8396 352.765 506.908
1638 0 100.36 16.7697 1683 66.8188 352.882 509.903
1639 0 100.236 14.1965 1423 72.0689 353.472 506.692
1640 0 102.284 14.8313 1517 71.621 353.702 503.799
1641 0 106.382 15.0308 1599 70.2927 353.076 505.181
1642 0 110.557 14.9607 1654 71.0568 353.384 498.452
1643 0 112.496 14.5161 1633 71.9933 353.525 497.886
1644 0 118.56 16.0931 1908 69.456 353.03 497.117
1645 1 64.235 13.2949 854 72.3841 353.042 522.957
1646 0 66.313 14.3712 953 71.4376 352.978 521.99
1647 0 68.2377 15.7538 1075 69.8372 353.404 523.38
1648 0 70.2852 14.7969 1040 70.6173 353.7 523.696
1649 0 69.1951 12.8766 891 74.8485 353.241 521.22
1650 0 72.343 14.6939 1063 72.5833 353.634 520.833
1651 0 75.2287 15.619 1175 71.3677 353.18 519.454
1652 0 78.2964 13.8065 1081 73.9103 353.246 517.988
1653 0 81.3523 16.8403 1370 69.4912 353.616 516.8
1654 0 81.3391 15.1342 1231 72.3875 353.879 516.534
1655 0 83.4402 15.0887 1259 72.4289 352.857 514.206
1656 0 86.3171 15.6863 1354 71.5044 353.922 514.086
1657 0 90.3655 16.1123 1456 70.6271 353.777 512.905
1658 0 91.2886 15.5441 1419 71.3326 353.54 509.625
1659 0 96.4631 15.6122 1506 70.8738 353.129 508.843
1660 0 97.3975 14.3844 1401 72.3348 352.959 509.589
1661 0 101.315 15.1705 1537 70.894 352.718 505.783
1662 0 105.527 14.6029 1541 71.5088 353.171 501.769
1663 0 108.275 14.9989 1624 71.3251 353.335 500.093
1664 0 113.58 16.0943 1828 69.2719 353.685 501.498
1665 1 56.3042 13.2672 747 73.1111 353.815 525.782
1666 0 61.386 13.5699 833 71.6555 354.17 526.856
1667 0 62.2021 14.8066 921 70.1835 354.329 527.059
1668 0 65.3675 15.7265 1028 68.7354 354.546 526.47
1669 0 67.2611 16.2204 1091 68.8763 353.896 523.876
1670 0 67.456 15.7732 1064 70.3073 353.802 521.762
1671 0 69.4158 16.2211 1126 70.0595 353.668 522.363
1672 0 71.2571 14.4687 1031 71.8041 353.653 520.608
1673 0 72.698 14.402 1047 72.8663 353.747 520.99
1674 0 75.2634 14.9874 1128 72.2305 353.938 518.571
1675 0 76.2696 15.8385 1208 72.0091 354.333 518.055
1676 0 81.3016 16.7278 1360 70.1713 353.917 515.843
1677 0 82.1867 16.8275 1383 70.7375 354.205 516.591
1678 0 85.3209 15.764 1345 71.91 353.923 514.348
1679 0 90.2983 17.4311 1574 69.5642 353.16 513.783
1680 0 92.269 15.1188 1395 72.519 353.486 512.185
1681 0 94.2884 15.2193 1435 72.7401 353.238 508.774
1682 0 98.3749 16.7827 1651 70.8359 352.805 506.94
1683 0 100.224 15.0962 1513 73.6087 353.541 504.728
1684 0 104.346 15.6594 1634 72.41 353.872 505.022
1685 1 53.2305 13.0564 695 74.5942 354.019 529.324
1686 0 52.4712 14.8653 780 72.95 354.168 529.962
1687 0 53.4202 13.9086 743 75.673 353.832 527.802
1688 0 53.4126 12.6188 674 77.6573 353.763 527.852
1689 0 55.6631 14.5878 812 75.5135 353.824 527.15
1690 0 58.4492 15.3295 896 75.2679 353.595 525.119
1691 0 60.2322 14.5935 879 75.975 353.727 524.965
1692 0 62.3384 14.4694 902 75.5521 353.754 524.963
1693 0 62.2681 15.3369 955 75.377 353.55 521.725
1694 0 63.3874 12.6839 804 80.2562 353.699 521.096
1695 0 67.5032 15.8067 1067 75.2933 353.373 520.425
1696 0 68.3867 16.6553 1139 73.7155 352.87 519.339
1697 0 70.2315 16.0042 1124 75.1424 353.581 520.934
1698 0 72.1588 15.3827 1110 75.7613 353.654 518.786
1699 0 74.6371 15.9974 1194 75.7772 353.168 514.907
1700 0 77.2229 16.7437 1293 74.5677 352.811 512.773
1701 0 80.2815 16.1806 1299 73.8722 353.43 515.897
1702 0 82.3364 15.2666 1257 76 353.55 513.228
1703 0 85.6944 14.4117 1235 76.4097 353.338 513.203
1704 0 87.5442 16.1975 1418 74.2779 353.894 508.578
1705 0 89.5053 14.7366 1319 76.7384 353.845 510.287
1706 0 93.4161 14.7191 1375 76.5084 354.272 508.959
1707 0 95.6771 13.7964 1320 78.1 354.048 504.926
1708 0 99.325 15.7463 1564 75.4066 353.847 504.865
1709 1 55.3006 14.6834 812 72.5899 353.682 528.548
1710 0 55.46 13.7937 765 76.651 353.796 525.83
1711 0 59.2356 15.6831 929 73.4435 352.814 525.946
1712 0 59.2484 14.0932 835 76.4024 353.58 524.588
1713 0 61.6136 15.1265 932 75.2006 352.951 523.36
1714 0 63.1145 15.3055 966 75.7681 353.963 521.553
1715 0 63.4335 14.4876 919 78.0816 354.07 520.526
1716 0 67.5632 14.2237 961 78.2456 354.406 522.467
1717 0 68.3201 13.6417 932 79.2908 353.785 523.82
1718 0 70.1861 15.4161 1082 77.4843 353.464 521.238
1719 0 71.4535 14.9888 1071 78.1737 353.207 521.042
1720 0 72.3318 15.028 1087 79.0386 353.851 519.78
1721 0 77.5364 16.3794 1270 76.5417 353.672 519.932
1722 0 77.1375 14.8047 1142 80.472 353.8 517.494
1723 0 77.5472 14.417 1118 81.2522 354.255 518.187
1724 0 81.2871 16.3618 1330 78.5421 353.665 517.072
1725 0 84.5713 15.9156 1346 79.6865 353.032 514.672
1726 0 85.4798 13.7576 1176 82.6284 352.772 513.912
1727 0 89.6095 15.8354 1419 79.1945 352.642 513.836
1728 0 91.8873 15.704 1443 78.3985 353.902 515.937
1729 0 93.6059 14.5183 1359 81.7233 354.347 509.38
1730 0 98.5178 15.855 1562 79.0134 354.513 509.081
1731 0 100.69 16.0393 1615 78.7077 354.488 507.658
1732 0 103.755 14.2259 1476 81.2968 354.524 505.4
1733 0 107.694 15.609 1681 79.3206 354.225 503.798
1734 0 109.393 15.2021 1663 79.7691 353.681 502.344
1735 0 113.462 14.5599 1652 80.4788 354.01 500.423
1736 0 119.675 14.8068 1772 79.5841 354.01 497.972
1737 0 120.575 13.8668 1672 81.2775 354.017 494.082
1738 0 127.366 14.9333 1902 79.3438 353.638 495.351
1739 0 131.634 15.1405 1993 79.2168 353.681 492.445
1740 0 135.828 15.6743 2129 78.24 353.535 493.034
1741 1 74.7297 12.7928 956 80.7814 353.788 519.862
1742 0 76.5375 13.575 1039 80.6304 353.981 517.722
1743 0 80.7585 14.4505 1167 78.3539 353.519 518.452
1744 0 83.2544 13.6449 1136 79.7676 353.725 517.881
1745 0 84.7221 14.8485 1258 78.7623 353.993 516.351
1746 0 85.3452 14.9628 1277 79.3414 353.975 512.181
1747 0 89.4344 13.2164 1182 81.3223 353.526 510.948
1748 0 91.7025 14.6452 1343 79.1765 353.226 511.468
1749 0 96.5112 13.615 1314 79.9612 352.959 509.617
1750 0 98.442 14.1809 1396 79 353.618 510.36
1751 0 100.464 14.5227 1459 79.5812 353.296 506.589
1752 0 105.856 14.8693 1574 78.9968 353.369 505.583
1753 0 106.87 13.7925 1474 80.5529 353.922 505.98
1754 0 111.338 14.4874 1613 79.23 354.022 503.695
1755 0 114.823 14.5093 1666 79.7119 354.119 498.999
1756 1 52.3755 14.5679 763 79.8506 352.65 527.16
1757 0 54.3526 14.6819 798 78.3947 352.998 529.252
1758 0 56.6319 15.5389 880 76.7443 353.294 528.924
1759 0 58.2543 13.5956 792 79.6616 353.279 528.069
1760 0 56.4427 13.4296 758 81.5686 353.586 525.11
1761 0 62.7152 15.403 966 77.2816 354.694 524.07
1762 0 61.3935 14.0243 861 80.3519 353.506 522.623
1763 0 65.6018 14.8624 975 78.1426 353.354 522.734
1764 0 67.7419 15.5148 1051 77.5585 353.816 523.023
1765 0 68.3618 14.6573 1002 79.4142 353.151 521.69
1766 0 72.7681 14.3195 1042 78.333 353.584 521.927
1767 0 71.6272 13.6122 975 81.7262 353.797 517.022
1768 0 74.8143 14.0615 1052 79.3042 353.664 518.897
1769 0 77.6293 13.6418 1059 80.8423 353.622 516.898
1770 0 79.379 14.0591 1116 80.7106 354.415 515.6
1771 0 81.9197 14.3311 1174 79.5554 353.175 514.933
1772 0 87.4563 14.2814 1249 80.2466 353.732 512.147
1773 0 90.2338 15.4598 1395 77.2086 352.913 512.3
1774 0 93.788 17.4863 1640 73.6262 353.44 513.078
1775 0 96.856 15.3114 1483 77.5995 354.074 510.67
1776 0 98.4852 14.9667 1474 78.0773 353.414 508.806
1777 0 104.604 15.8311 1656 76.4644 354.019 507.28
1778 0 106.527 15.5171 1653 76.8639 354.051 504.852
1779 0 108.251 15.8889 1720 77.2849 354.195 500.378
1780 1 53.6692 12.5771 675 79.7778 354.07 526.853
1781 0 55.4917 14.4886 804 78.1269 354.027 524.838
1782 0 56.2483 13.8315 778 79.563 354.305 524.068
1783 0 59.4448 15.3083 910 75.7769 354.048 528.276
1784 0 59.64 13.4641 803 80.0436 354.315 525.846
1785 0 64.4597 14.5517 938 77.5714 353.904 526.41
1786 0 65.4764 14.448 946 78.9588 354.089 525.134
1787 0 65.3424 14.7837 966 78.6946 353.659 525.578
1788 0 67.6796 13.889 940 80.4755 353.12 519.808
1789 0 70.4094 14.9838 1055 77.8739 352.791 523.009
1790 0 70.3713 15.2619 1074 78.3557 352.186 519.314
1791 0 74.1541 13.863 1028 80.4047 353.004 521.563
1792 0 75.2373 14.6337 1101 79.2943 353.124 519.701
1793 0 77.3244 16.1269 1247 76.4731 352.128 519.44
1794 0 78.6147 14.5393 1143 80.3053 353.374 513.507
1795 0 81.6965 14.3335 1171 79.8198 353.196 516.05
1796 0 85.4369 15.0169 1283 77.5105 353.151 516.708
1797 0 88.2091 14.8738 1312 77.1067 352.821 516.239
1798 0 89.4743 14.2499 1275 79.0243 352.179 511.375
1799 0 94.4262 18.0141 1701 72.2334 352.984 513.34
1800 0 95.3522 15.899 1516 76.3958 353.693 511.517
1801 0 98.4618 15.9351 1569 76.6877 353.947 507.939
1802 0 100.345 15.4169 1547 77.3659 353.463 506.725
1803 1 47.325 12.8896 610 81.7246 353.57 529.233
1804 0 48.3018 14.4094 696 79.6954 354.136 528.339
1805 0 52.3654 15.4109 807 76.8141 353.483 529.699
1806 0 53.5569 15.2735 818 77.5208 352.965 528.609
1807 0 51.3862 13.564 697 81.4706 352.816 528.387
1808 0 54.457 14.3049 779 79.733 353.006 527.208
1809 0 56.6791 15.9142 902 76.5665 352.741 528.414
1810 0 58.8491 14.9705 881 78.8434 353.508 528.429
1811 0 58.3275 14.8986 869 80.8723 352.725 524.91
1812 0 60.3769 16.1486 975 78.8031 353.012 525.126
1813 0 62.322 15.1632 945 79.909 353.275 523.575
1814 0 64.3097 15.7986 1016 78.9331 352.63 523.2
1815 0 66.1417 14.8771 984 80.9451 353.201 522.246
1816 0 68.692 15.8679 1090 78.8624 353.125 519.634
1817 0 69.679 16.0307 1117 78.7583 353.218 519.71
1818 0 71.7492 15.9444 1144 77.9921 353.168 520.29
1819 0 73.9629 15.9945 1183 78.5807 353.921 519.32
1820 0 77.8324 16.5098 1285 76.7642 353.348 517.337
1821 0 78.8349 15.9193 1255 78.4821 352.802 515.228
1822 0 77.2941 15.1499 1171 80.2716 351.994 513.455
1823 0 79.3427 14.0278 1113 81.9039 352.755 513.233
1824 0 86.5819 16.1119 1395 77.3792 353.23 512.527
1825 0 84.5554 15.0316 1271 80.3021 353.208 508.703
1826 0 90.2737 15.9293 1438 77.6314 353.476 510.072
1827 0 90.3412 14.9987 1355 79.5461 353.08 507.429
1828 0 95.3966 15.944 1521 77.5516 352.953 505.752
1829 0 97.751 16.2761 1591 77.2124 353.072 504.436
1830 0 99.5809 14.5309 1447 80.4382 352.713 503.182
1831 1 47.5906 14.3306 682 79.1378 352.597 528.147
1832 0 49.4067 15.4837 765 77.7595 353.856 527.586
1833 0 52.5185 13.6142 715 79.8923 353.252 527.35
1834 0 49.2716 13.2937 655 82.771 353.46 524.453
1835 0 54.442 15.3925 838 78.6742 352.656 525.271
1836 0 58.3335 14.8457 866 78.6928 353.09 523.722
1837 0 56.4508 14.5082 819 81.1453 353.792 520.936
1838 0 58.6141 14.1263 828 81.2874 354.162 522.762
1839 0 63.5747 15.2576 970 78.8392 353.899 520.811
1840 0 62.3367 13.8442 863 81.5724 353.604 520.756
1841 0 67.4338 15.0815 1017 77.9616 352.252 521.988
1842 0 67.5 15.5556 1050 78.2886 353.191 518.567
1843 0 72.4994 12.7173 922 81.2527 353.501 517.756
1844 0 75.6116 15.4341 1167 76.9794 353.241 517.939
1845 0 76.6772 13.4851 1034 79.9884 353.449 516.413
1846 0 77.4947 14.5945 1131 77.3767 352.86 517.72
1847 0 81.212 16.5616 1345 75.2379 353.121 513.962
1848 0 84.3116 16.0595 1354 75.7194 352.546 513.264
1849 0 84.366 13.4533 1135 80.2449 352.784 509.486
1850 0 86.8686 14.6543 1273 78.4376 352.844 509.642
1851 0 92.6794 15.1274 1402 77.0185 352.862 508.554
1852 0 95.1363 14.2007 1351 77.7964 352.853 510.534
1853 0 95.4349 14.6173 1395 78.6925 352.215 506.463
1854 0 102.627 14.7816 1517 77.2446 352.317 505.609
1855 0 103.48 14.4279 1493 78.7361 352.453 503.958
1856 0 109.659 14.5724 1598 77.5313 352.121 501.392
1857 0 111.456 14.7502 1644 77.8717 352.622 499.572
1858 1 53.2987 15.3475 818 77.2445 352.863 524.638
1859 0 57.4596 13.1745 757 79.4954 352.435 523.229
1860 0 55.409 12.5611 696 82.2414 352.411 520.193
1861 0 62.4936 14.3695 898 77.961 352.743 521.796
1862 0 60.2851 14.6968 886 78.8465 352.624 520.798
1863 0 65.7189 14.6229 961 78 352.889 523.25
1864 0 65.2929 15.3156 1000 78.656 352.871 518.813
1865 0 67.2594 13.8271 930 80.2957 353.575 520.526
1866 0 70.4831 14.7979 1043 79.5244 352.747 516.616
1867 0 74.397 15.1888 1130 78.1796 351.841 516.69
1868 0 75.3091 14.6729 1105 79.1149 352.767 515.231
1869 0 75.45 14.937 1127 79.1473 352.792 514.176
1870 0 77.2888 14.5558 1125 79.7298 352.899 515.428
1871 0 81.2984 14.2561 1159 79.8059 352.515 513.705
1872 0 84.4436 14.2344 1202 79.7512 352.729 510.56
1873 0 85.5928 14.2418 1219 79.0262 352.407 512.012
1874 0 88.8489 14.2489 1266 79.2741 353.246 509.315
1875 0 93.6829 16.2997 1527 75.2927 353.155 506.829
1876 0 95.7103 14.5125 1389 78.005 352.522 505.413
1877 0 96.8062 13.8008 1336 79.4199 352.74 504.595
1878 0 101.278 14.1689 1435 78.6711 352.888 503.675
1879 0 106.756 14.4816 1546 77.8499 352.559 500.906
1880 1 37.5648 14.2421 535 75.1608 352.495 531.209
1881 0 37.5104 12.9564 486 77.1914 353.576 530.498
1882 0 41.3916 15.3654 636 73.0912 353.873 529.497
1883 0 42.684 13.7054 585 75.159 353.723 529.356
1884 0 44.3963 13.7399 610 75.4426 354.293 529.784
1885 0 42.6287 14.38 613 77.509 353.527 526.362
1886 0 47.3052 14.3536 679 76.056 353.594 528.222
1887 0 45.2922 13.711 621 77.7842 352.866 529.364
1888 0 46.5041 13.8482 644 77.7609 352.938 528.59
1889 0 47.3032 14.3331 678 78.4764 353.351 526.202
1890 0 48.2442 14.1986 685 79.5343 352.838 524.937
1891 0 50.3234 14.8241 746 77.6046 353.365 525.287
1892 0 54.5227 14.2509 777 77.4775 353.485 525.992
1893 0 54.2231 15.3256 831 77.7461 353.384 522.655
1894 0 58.6766 15.2872 897 77.5541 352.765 524.125
1895 0 60.8025 16.2 985 76.2162 353.377 523.102
1896 0 61.446 15.4933 952 77.9023 353.373 519.851
1897 0 62.2909 14.946 931 78.6047 353.23 520.599
1898 0 65.336 15.7188 1027 76.2483 353.197 520.464
1899 0 66.286 14.2262 943 78.9396 353.156 518.691
1900 0 67.1136 15.9729 1072 76.7285 353.459 516.093
1901 0 68.2421 13.5107 922 80.4967 353.054 514.894
1902 0 73.3995 15.2181 1117 76.2095 353.463 516.761
1903 0 73.2054 15.0126 1099 78.1146 352.728 510.52
1904 0 77.2611 16.153 1248 75.1907 352.994 513.462
1905 0 78.0862 15.1499 1183 76.5359 352.221 510.546
1906 0 85.5934 14.6974 1258 75.911 352.737 510.39
1907 0 85.1688 14.5358 1238 76.9952 352.351 508.791
1908 0 86.185 15.1883 1309 76.2513 352.345 505.484
1909 1 46.1016 12.6243 582 78.6942 353.034 526.885
1910 0 43.0757 12.9075 556 79.4352 353.743 526.491
1911 0 46.2488 12.9733 600 79.2717 353.407 523.935
1912 0 48.3716 13.8511 670 77.0597 353.127 525.979
1913 0 50.5817 14.9857 758 76.3707 352.991 523.417
1914 0 52.3136 13.4764 705 78.6567 353.837 522.152
1915 0 55.344 14.0214 776 76.7887 353.213 523.264
1916 0 55.293 13.112 725 78.6703 352.967 519.957
1917 0 57.6386 14.1919 818 76.4499 352.452 521.84
1918 0 59.5776 15.7106 936 73.8974 352.2 521.937
1919 0 63.1728 14.1042 891 75.1807 352.522 521.92
1920 0 64.5211 16.1342 1041 73.0423 352.964 521.457
1921 0 65.291 15.1169 987 75.2128 353.218 518.351
1922 0 67.3065 15.5111 1044 74.0058 352.863 519.137
1923 0 66.2875 15.2216 1009 75.9693 352.632 516.405
1924 0 70.3745 14.7923 1041 75.0874 353.054 518.213
1925 0 70.3282 14.2617 1003 76.7338 352.757 515.33
1926 0 75.4308 15.1795 1145 75.0105 352.916 515.237
1927 0 75.6117 13.609 1029 77.6142 353.459 513.747
1928 0 79.6159 13.8038 1099 76.7853 353.672 514.894
1929 0 83.5374 13.455 1124 77.2847 352.856 511.036
1930 0 82.5452 14.6344 1208 76.4768 352.462 510.915
1931 0 84.6968 13.3889 1134 78.3712 352.619 509.409
1932 0 89.3035 14.6467 1308 76.0413 352.067 506.632
1933 0 93.2956 14.4916 1352 76.4238 351.891 506.759
1934 0 96.701 14.2708 1380 75.9783 351.984 508.524
1935 0 98.737 14.8475 1466 75.2333 352.22 506.415
1936 1 50.3521 14.5376 732 73.6475 352.158 528.115
1937 0 49.3926 12.0666 596 79.0587 352.581 525.599
1938 0 49.3964 10.5271 520 81.5962 352.244 524.904
1939 0 54.5241 12.655 690 77.158 351.503 527.806
1940 0 57.4283 13.1817 757 76.3989 350.791 525.256
1941 0 55.2328 14.4479 798 75.3546 350.593 526.506
1942 0 56.456 13.143 742 77.7318 351.453 525.627
1943 0 56.456 13.143 742 146.561 352.451 525.697
1944 0 63.3769 13.5538 859 75.5017 351.166 526.392
1945 0 64.4961 15.2567 984 73.8974 351.526 524.636
1946 0 65.8002 13.8298 910 76.8528 351.08 521.256
1947 0 70.4161 15.0108 1057 74.3103 350.04 522.703
1948 0 72.7286 15.7847 1148 73.2848 350.163 521.126
1949 0 74.4931 14.753 1099 74.7298 350.534 520.877
1950 0 76.4299 14.9941 1146 74.8996 350.686 520.118
1951 0 80.4166 16.7876 1350 72.2282 350.524 518.544
1952 0 82.3698 15.5882 1284 73.5678 349.608 517.831
1953 0 84.2872 15.9692 1346 73.844 349.701 515.466
1954 0 87.5534 16.3443 1431 73.4808 349.479 514.675
1955 0 90.5822 14.5282 1316 75.9331 349.636 513.131
1956 0 89.377 15.7423 1407 75.295 349.591 511.81
1957 0 95.4101 14.2752 1362 76.7379 349.877 511.01
1958 0 97.2278 14.7797 1437 76.6333 349.861 508.593
1959 0 102.526 15.6741 1607 75.1251 350.435 509.476
1960 1 49.3735 13.4485 664 76.6792 350.834 532.212
1961 0 50.3568 12.5901 634 80.2019 350.306 528.401
1962 0 52.5348 14.1621 744 76.2634 350.942 531.306
1963 0 55.4851 14.0038 777 76.9421 350.934 529.111
1964 0 54.4583 14.837 808 78.0866 350.75 526.338
1965 0 58.2995 16.3295 952 74.7647 350.769 525.581
1966 0 59.3733 15.0741 895 76.6402 351.452 524.52
1967 0 59.4211 14.5403 864 79.235 351.269 520.919
1968 0 59.3259 12.1701 722 82.6454 351.784 520.602
1969 0 63.2953 13.7609 871 80.0815 351.796 521.094
1970 0 66.6508 14.4184 961 78.7867 351.919 520.695
1971 0 69.6271 14.4915 1009 79.7681 352.076 519.033
1972 0 70.6942 15.8995 1124 78.0053 351.693 517.456
1973 0 75.5253 14.6573 1107 78.9594 351.524 516.308
1974 0 76.5277 14.9488 1144 78.8916 351.618 516.041
1975 0 78.5201 16.3398 1283 77.1099 352.515 515.123
1976 0 79.3747 13.1906 1047 81.3878 352.676 516.275
1977 0 84.3618 15.9314 1344 76.6711 352.498 517.164
1978 0 85.5077 14.9577 1279 79.3675 352.354 512.41
1979 0 88.47 14.8299 1312 80.1059 351.684 510.533
1980 0 89.3918 14.6881 1313 79.9391 351.913 509.32
1981 0 94.352 14.7003 1387 79.8616 351.888 506.863
1982 0 96.42 14.2502 1374 80.0291 353.348 508.736
1983 1 51.4356 14.348 738 76.5528 353.691 528.713
1984 0 54.3866 14.2866 777 76.3591 353.32 528.958
1985 0 53.5169 13.6779 732 77.3074 353.06 528.674
1986 0 53.363 12.1432 648 81.2253 352.449 526.537
1987 0 58.5125 14.9028 872 76.4736 352.764 525.689
1988 0 56.2385 13.6028 765 79.6431 352.708 523.706
1989 0 58.4396 13.2615 775 80.4968 353.101 521.023
1990 0 57.5653 11.4131 657 83.0487 353.177 521.688
1991 0 63.4344 12.5011 793 79.8487 352.946 521.849
1992 0 66.3188 13.7367 911 78.865 353.788 520.508
1993 0 66.3808 13.5883 902 79.9346 354.38 519.763
1994 0 68.3424 14.2371 973 79.0576 353.2 516.651
1995 0 71.3739 12.4555 889 80.9168 352.849 516.511
1996 0 72.3592 13.5297 979 80.569 353.706 512.251
1997 0 77.302 14.3334 1108 77.8069 353.736 514.198
1998 0 79.3924 14.019 1113 78.5831 353.733 513.192
1999 0 80.4261 14.9703 1204 77.7052 353.334 512.235
2000 0 83.4284 13.5326 1129 78.1346 353.368 514.563
2001 0 85.4324 13.9174 1189 78.5357 352.973 511.147
2002 0 89.5484 14.4503 1294 76.9745 353.606 510.494
2003 0 91.6606 13.6154 1248 78.722 353.004 506.497
2004 0 92.4281 12.1175 1120 80.0911 352.435 505.669
2005 0 99.6763 13.9752 1393 76.7588 353.195 504.63
2006 0 102.556 14.9479 1533 75.668 353.018 501.82
2007 0 103.297 13.7758 1423 77.246 352.478 502.379
2008 0 108.318 13.7005 1484 77.3228 352.796 501.556
2009 1 53.3143 12.0793 644 78.0854 351.382 523.834
2010 0 56.4275 11.9445 674 78.0905 351.798 524.381
2011 0 59.3488 15.7375 934 72.7355 351.617 523.27
2012 0 59.2791 13.4617 798 75.9586 351.951 522.767
2013 0 62.3156 14.6031 910 75.2187 352.034 519.996
2014 0 64.5956 15.3571 992 73.5655 351.283 521.068
2015 0 66.4232 14.3624 954 75.5273 352.036 518.824
2016 0 67.3168 14.1272 951 75.9842 352.308 519.035
2017 0 68.3345 14.3851 983 76.5097 351.649 518.282
2018 0 70.3728 14.7926 1041 76.1508 351.532 515.906
2019 0 73.4695 16.2789 1196 73.6187 352.268 517.452
2020 0 75.3512 13.6295 1027 78.0847 351.978 515.833
2021 0 77.339 13.499 1044 77.7548 352.176 515.665
2022 0 77.5205 13.8157 1071 78.6825 351.611 509.604
2023 0 82.373 13.9366 1148 77.2378 351.724 512.752
2024 0 87.5434 13.9702 1223 76.6795 351.367 510.414
2025 0 87.4223 13.8523 1211 77.5946 351.42 509.755
2026 0 91.3926 13.7976 1261 76.5987 351.509 509.7
2027 0 96.355 15.4636 1490 74.106 351.77 507.213
2028 0 100.583 15.5493 1564 73.0882 351.432 506.447
2029 0 103.559 14.8901 1542 73.9183 351.048 503.848
2030 0 105.389 14.4986 1528 74.163 350.509 505.045
2031 0 108.412 16.0776 1743 72.5697 351.356 499.737
2032 1 58.3064 15.5901 909 71.8141 352.004 525.381
2033 0 58.5935 13.2779 778 77.1131 351.343 521.113
2034 0 60.1905 14.6701 883 74.6738 351.573 523.153
2035 0 61.4154 13.2052 811 76.8052 352.027 521.704
2036 0 63.3957 14.9379 947 73.4139 352.156 522.906
2037 0 67.4114 15.2793 1030 73.5854 351.971 520.27
2038 0 66.5055 15.5025 1031 73.7818 351.815 521.801
2039 0 70.2935 15.0654 1059 73.9452 351.231 520.076
2040 0 69.3425 14.3635 996 75.8564 351.556 518.306
2041 0 72.299 15.4912 1120 74.0536 351.717 517.627
2042 0 77.3326 15.6726 1212 73.1271 352.049 515.593
2043 0 78.3698 13.8957 1089 75.9128 351.272 510.826
2044 0 80.2676 15.5106 1245 73.2843 351.895 511.805
2045 0 82.3454 14.7306 1213 74.5878 351.704 510.003
2046 0 87.3554 16.4042 1433 71.7258 351.592 512.71
2047 0 86.4341 14.1726 1225 75.4449 351.554 509.608
2048 0 91.3092 14.7083 1343 74.0186 351.119 509.06
2049 0 93.3662 14.6199 1365 74.2842 351.837 507.297
2050 0 94.2754 13.8636 1307 75.6289 351.197 502.653
2051 0 99.4558 14.5391 1446 74.2206 351.887 501.386
2052 0 103.449 16.1916 1675 71.5898 351.362 503.968
2053 0 106.63 14.1893 1513 73.7561 351.728 503.637
2054 0 110.5 15.9186 1759 71.6487 350.979 498.439
2055 0 113.357 15.0146 1702 73.0094 350.941 498.536
2056 0 118.4 14.1132 1671 74.4937 351.531 495.253
2057 0 121.499 14.642 1779 73.4407 351.374 493.931
2058 1 59.4537 12.7158 756 76.586 351.508 520.725
2059 0 65.6308 16.349 1073 71.7717 351.713 520.363
2060 0 64.4005 13.5713 874 79.1293 351.88 517.789
2061 0 68.247 15.2534 1041 75.706 350.951 517.304
2062 0 71.4022 16.0359 1145 73.8672 351.28 517.843
2063 0 74.6279 15.7716 1177 74.5947 351.352 517.058
2064 0 76.515 15.9054 1217 74.2038 350.951 516.646
2065 0 78.4341 17.6836 1387 71.9986 351.934 516.632
2066 0 80.4173 15.1336 1217 75.4618 351.69 516.191
2067 0 82.2377 15.0782 1240 75.9282 351.26 510.798
2068 0 84.4259 16.4168 1386 73.7872 350.661 510.805
2069 0 89.3402 17.7636 1587 71.2035 351.492 509.193
2070 0 89.6951 14.7611 1324 76.3029 351.1 506.536
2071 0 94.5423 17.241 1630 71.9 350.658 505.602
2072 0 97.569 15.425 1505 74.4199 351.054 503.308
2073 0 100.468 16.6322 1671 72.4105 351.226 503.629
2074 0 103.624 15.2667 1582 74.1915 351.241 501.685
2075 0 107.524 15.5779 1675 73.1009 350.823 502.198
2076 0 112.622 16.2223 1827 72.2863 351.086 498.398
2077 0 113.612 14.5671 1655 74.7801 350.583 495.64
2078 1 59.5498 14.66 873 72.6197 351.388 524.006
2079 0 60.5147 14.7402 892 72.1805 350.963 523.862
2080 0 62.4434 14.8294 926 73.243 351.576 521.787
2081 0 62.5013 14.5117 907 74.828 351.94 522.256
2082 0 63.5609 16.1892 1029 72.4334 351.936 521.037
2083 0 65.5466 15.3326 1005 73.5164 351.112 519.747
2084 0 71.5464 17.1777 1229 70.4801 351.33 516.735
2085 0 69.4732 14.9266 1037 73.7878 350.712 518.038
2086 0 73.5843 16.634 1224 71.7737 351.105 516.517
2087 0 75.3588 16.375 1234 72.3468 351.039 513.484
2088 0 75.4088 14.8391 1119 75.3905 350.272 509.777
2089 0 79.5624 15.183 1208 74.2094 351.536 513.184
2090 0 77.4647 12.8962 999 78.5996 351.3 509.809
2091 0 82.4478 15.1369 1248 74.024 351.034 510.597
2092 0 86.3701 16.0356 1385 72.1264 351.444 511.584
2093 0 90.4224 16.0137 1448 72.1291 351.477 509.764
2094 0 93.4512 15.6231 1460 72.1397 351.077 509.054
2095 0 97.5736 16.7463 1634 70.6255 351.717 506.902
2096 0 99.5599 16.8341 1676 70.3896 351.755 507.085
2097 0 101.337 15.6902 1590 72.3321 351.123 503.046
2098 0 103.356 15.0161 1552 74.1501 350.713 498.833
2099 0 110.425 15.884 1754 71.9401 351.469 501.632
2100 0 112.711 16.0055 1804 71.7943 350.817 499.493
2101 0 114.428 13.8166 1581 74.9374 351.336 498.602
2102 0 116.694 13.7711 1607 75.3902 351.156 494.74
2103 1 60.4972 13.2072 799 73.1577 351.394 524.77
2104 0 60.3095 13.2483 799 74.5419 351.508 523.045
2105 0 64.3723 15.0531 969 73.0568 352.112 520.346
2106 0 65.3134 13.5347 884 75.3518 351.503 520.368
2107 0 64.436 15.7676 1016 73.874 351.974 519.169
2108 0 69.2865 14.2163 985 75.2467 352.067 518.021
2109 0 70.502 16.7087 1178 72.3591 351.755 518.193
2110 0 73.2709 15.4632 1133 74.0106 351.57 517.394
2111 0 73.5001 13.9592 1026 76.6131 351.035 517.217
2112 0 76.8892 16.3612 1258 73.3585 350.755 516.066
2113 0 77.308 15.4188 1192 75.6074 351.435 514.593
2114 0 80.3516 15.5317 1248 74.7172 351.605 514.331
2115 0 81.5044 14.2078 1158 77.475 351.658 511.728
2116 0 83.4138 15.1893 1267 75.6259 351.646 513.142
2117 0 86.3359 16.9802 1466 73.1658 351.083 510.612
2118 0 89.4541 16.0976 1440 73.6507 350.958 509.197
2119 0 93.5233 16.6803 1560 72.6788 351.155 506.605
2120 0 97.3709 14.9839 1459 74.0761 351.034 505.974
2121 0 100.379 16.4577 1652 72.3081 351.145 502.647
2122 0 101.59 15.474 1572 74.1177 350.781 497.403
2123 0 106.504 16.9008 1800 71.5022 350.535 501.082
2124 0 108.319 13.7834 1493 75.8821 350.894 496.999
2125 0 116.444 16.231 1890 71.8249 350.425 495.779
2126 0 117.693 15.7358 1852 72.7786 350.691 495.462
2127 0 124.602 17.6 2193 69.6493 351.024 494.717
2128 0 127.514 14.9396 1905 73.7218 351.38 489.986
2129 0 130.577 16.0365 2094 72.0855 351.59 492.121
2130 0 134.514 12.7496 1715 76.7819 351.233 487.486
2131 0 139.619 15.0768 2105 74.115 351.069 481.894
2132 0 144.565 14.1736 2049 75.3328 351.147 480.998
2133 0 148.829 12.9141 1922 77.6519 350.903 474.564
2134 0 153.497 14.5084 2227 74.9578 351.051 476.012
2135 1 75.3735 14.9522 1127 74.9601 351.134 511.725
2136 0 76.4362 14.5873 1115 75.9677 351.127 509.5
2137 0 80.5217 14.6793 1182 75.0516 351.008 512.041
2138 0 81.4305 13.9874 1139 75.5443 350.533 512.003
2139 0 85.4195 14.7507 1260 74.4524 350.054 510.932
2140 0 88.4166 14.3299 1267 73.9519 350.584 510.323
2141 0 91.4535 14.9584 1368 74.133 350.622 506.73
2142 0 92.3412 15.172 1401 73.6588 350.592 506.153
2143 0 98.4851 16.3578 1611 71.0646 350.539 505.128
2144 0 96.3686 13.272 1279 76.6325 350.654 500.012
2145 0 103.506 13.6224 1410 75.2695 350.827 500.868
2146 0 108.549 14.9149 1619 72.614 350.13 502.211
2147 0 112.521 15.366 1729 72.229 350.227 497.673
2148 0 114.347 14.5697 1666 73.6735 350.36 492.937
2149 0 120.42 17.1732 2068 69.6799 350.022 494.945
2150 0 123.514 15.0509 1859 72.7144 350.343 491.487
2151 0 128.678 15.3095 1970 72.7147 350.762 487.164
2152 0 132.483 14.4396 1913 73.7773 350.473 487.647
2153 0 133.474 12.789 1707 77.0808 350.709 485.946
2154 0 136.531 13.2571 1810 76.4431 350.715 484.239
2155 0 142.52 13.9138 1983 74.3974 350.93 485.762
2156 0 148.643 15.7222 2337 72.6106 350.461 481.45
2157 0 151.73 14.3743 2181 74.9661 350.784 474.258
2158 0 156.391 14.6555 2292 73.8591 350.967 480.886
2159 0 162.578 14.9098 2424 74.1097 350.841 476.538
2160 0 166.366 13.6987 2279 75.8394 350.566 476.05
2161 0 172.813 15.6412 2703 73.0215 350.624 470.222
2162 0 179.507 16.7514 3007 71.5397 350.814 465.792
2163 1 127.437 15.4664 1971 73.0802 350.454 494.891
2164 0 128.529 15.3118 1968 74.873 350.841 488.64
2165 0 134.667 14.6064 1967 76.0208 351.194 484.987
2166 0 136.572 15.091 2061 75.3542 351.248 487.392
2167 0 142.276 15.3926 2190 74.9516 351.176 484.801
2168 0 144.687 16.1106 2331 74.5504 351.226 480.418
2169 0 146.465 15.2528 2234 75.1146 351.074 485.224
2170 0 156.592 16.7697 2626 73.0491 351.955 482.169
2171 0 159.559 15.9126 2539 74.3344 350.816 477.754
2172 0 163.465 15.0858 2466 76.8569 350.68 465.522
2173 0 169.531 15.6372 2651 75.7639 350.834 467.644
2174 0 176.553 14.6529 2587 77.082 350.885 470.139
2175 0 180.626 14.0567 2539 78.6991 351.436 461.818
2176 0 190.661 17.7383 3382 72.7744 351.276 462.137
2177 0 194.651 16.2445 3162 75.9877 351.153 456.227
2178 0 201.644 15.1405 3053 77.6076 351.392 452.111
2179 0 209.43 15.3608 3217 76.7784 351.13 450.311
2180 1 142.576 14.1679 2020 78.6371 351.074 487.527
2181 0 147.404 14.077 2075 78.6896 350.882 486.106
2182 0 149.668 14.2984 2140 80.2991 350.814 475.973
2183 0 156.476 14.3025 2238 79.6765 351.565 476.999
2184 0 163.71 16.3399 2675 76.4422 350.511 474.048
2185 0 166.672 14.8975 2483 78.8997 351.05 472.696
2186 0 172.366 15.9428 2748 76.4916 350.626 472.403
2187 0 180.683 16.1609 2920 76.3993 350.711 465.429
2188 0 184.54 14.5984 2694 78.8452 351.167 464.465
2189 0 192.539 16.1526 3110 76.1196 350.817 461.615
2190 0 197.383 15.361 3032 77.3483 350.834 457.21
2191 0 207.869 16.4864 3427 75.4435 350.58 452.646
2192 1 134.506 12.9288 1739 80.1691 350.741 486.422
2193 0 139.568 14.9032 2080 76.4264 350.455 489.436
2194 0 145.65 16.6769 2429 74.7785 350.065 483.757
2195 0 147.812 13.1383 1942 80.242 350.581 483.303
2196 0 153.631 16.0449 2465 75.8207 349.917 480.748
2197 0 157.468 14.9046 2347 78.415 350.776 476.405
2198 0 162.538 15.0241 2442 78.1962 351.282 473.071
2199 0 168.36 16.0014 2694 76.4406 351.929 473.57
2200 0 171.62 14.7943 2539 78.4592 351.072 470.907
2201 0 176.7 14.3237 2531 79.6665 350.349 465.757
2202 0 184.522 14.7353 2719 78.3218 350.864 464.593
2203 0 189.559 13.7055 2598 79.6582 350.625 461.746
2204 0 195.61 14.3091 2799 79.1826 350.695 455.16
2205 0 205.871 15.5 3191 76.7205 350.582 456.205
2206 0 211.605 16.7765 3550 75.2352 351.23 449.756
2207 0 216.574 14.8264 3211 78.0087 351.055 445.84
2208 0 224.466 13.6145 3056 79.1597 350.563 443.173
2209 0 232.903 15.6632 3648 75.6373 350.954 440.277
2210 0 241.7 15.0062 3627 76.5095 350.736 435.17
2211 0 249.667 14.8397 3705 76.8097 350.932 428.745
2212 0 257.839 14.7185 3795 76.6875 350.794 423.944
2213 1 175.535 13.0914 2298 76.9312 350.849 466.473
2214 1 47.6277 12.2618 584 70.9264 351.217 528.079
2215 0 45.1903 13.1001 592 71.9037 351.135 526.527
2216 0 48.3352 13.034 630 71.9889 351.127 525.186
2217 0 49.4448 13.6111 673 69.6048 350.93 527.129
2218 0 52.3284 12.5935 659 71.1958 351.612 524.775
2219 0 49.4864 11.6194 575 73.7948 350.397 521.077
2220 0 53.2619 13.9687 744 69.3817 350.317 522.476
2221 0 56.1809 15.2009 854 67.3712 350.57 523.24
2222 0 55.3173 11.66 645 72.9039 350.727 522.15
2223 0 58.3225 14.557 849 67.682 350.83 521.813
2224 0 59.2488 12.1521 720 69.9153 351.006 523.164
2225 0 61.4872 14.5233 893 67.5689 351.247 520.139
2226 0 63.5801 13.8723 882 67.9841 350.927 519.391
2227 0 59.4943 11.0599 658 73.0745 351.351 514.866
2228 0 65.5495 15.3624 1007 66.5253 350.743 515.881
2229 0 68.7412 14.2709 981 66.6983 350.532 515.836
2230 0 71.2152 13.0731 931 68.2653 350.882 512.206
2231 0 71.1921 13.8498 986 67.1836 351.715 513.304
2232 0 77.8677 11.969 932 68.6599 351.593 509.186
2233 0 82.4121 15.4346 1272 63.9497 351.509 509.535
2234 0 83.6587 13.3758 1119 65.6095 351.171 511.068
2235 0 82.5835 13.1745 1088 67.1654 351.804 507.12
2236 0 84.4321 15.0417 1270 65.4535 351.468 503.059
2237 0 86.7511 13.0488 1132 66.508 351.776 504.331
2238 0 88.1115 13.6305 1201 66.1707 351.485 501.049
2239 0 95.6989 14.1485 1354 64.8427 352.137 503.221
2240 0 98.2076 13.9093 1366 65.325 351.549 500.302
2241 0 100.576 13.9894 1407 65.366 351.891 496.359
2242 0 103.586 13.3127 1379 66.1269 351.668 497.186
2243 0 105.342 11.1541 1175 68.5677 351.603 491.411
2244 1 58.4413 12.5425 733 65.8663 350.733 517.677
2245 0 58.4144 14.1061 824 65.3786 351.256 516
2246 0 60.38 11.9742 723 67.6957 351.292 513.929
2247 0 64.1111 14.1161 905 65.4376 352.13 513.602
2248 0 66.1292 13.4585 890 65.8865 351.544 511.066
2249 0 64.235 11.4268 734 68.8542 351.798 510.023
2250 0 68.2004 12.6832 865 67.6832 351.976 511.165
2251 0 72.1742 14.0355 1013 66.0701 352.19 509.99
2252 0 76.1336 12.7014 967 66.8831 351.879 510.152
2253 0 76.2555 14.399 1098 65.3698 351.67 507.502
2254 0 79.2145 14.2651 1130 65.8442 352.219 504.752
2255 0 83.2669 13.6549 1137 65.883 351.727 507.88
2256 0 84.0749 14.4633 1216 65.5674 352.461 505.988
2257 0 91.5317 13.8531 1268 65.7027 352.186 504.182
2258 0 89.266 13.9023 1241 66.6269 350.939 501.64
2259 0 95.3216 14.257 1359 65.5879 351.772 500.101
2260 0 98.2127 13.7355 1349 65.9407 351.431 498.099
2261 0 102.26 13.6319 1394 65.957 351.674 496.808
2262 0 106.467 12.3888 1319 67.2358 352.186 492.375
2263 0 112.398 13.3455 1500 65.8287 352.335 492.704
2264 1 56.5232 14.1712 801 64.8664 351.563 519.066
2265 0 58.3985 13.2709 775 65.3239 351.814 517.343
2266 0 61.5476 12.0557 742 66.7952 351.569 515.85
2267 0 62.4437 13.4841 842 65.9691 351.789 514.67
2268 0 65.4782 13.2563 868 65.4839 352.169 514.432
2269 0 69.3733 14.3139 993 63.9718 351.922 514.677
2270 0 68.2311 12.5309 855 66.7579 352.551 512.498
2271 0 70.6222 13.1687 930 65.9505 352.948 511.485
2272 0 77.5669 14.6196 1134 63.1411 351.792 510.442
2273 0 80.3919 14.7527 1186 63.1164 351.628 511.64
2274 0 82.5747 14.2417 1176 63.3002 351.344 509.174
2275 0 81.1868 11.6645 947 66.8469 351.85 508.399
2276 0 86.3497 15.0666 1301 62.5626 351.875 507.767
2277 0 89.6536 15.0022 1345 62.4416 351.588 503.318
2278 0 91.3969 14.0596 1285 63.5144 351.44 502.142
2279 0 95.3092 14.2694 1360 63.289 351.771 503.124
2280 0 99.7412 14.3271 1429 62.9209 352.234 500.613
2281 0 100.722 14.2472 1435 63.147 351.787 495.697
2282 0 103.619 14.4567 1498 62.6208 351.672 497.415
2283 0 106.352 14.7435 1568 62.0848 352.406 497.869
2284 1 45.2754 13.9148 630 64.781 352.079 520.438
2285 0 49.6332 13.6199 676 64.5222 351.383 520.794
2286 0 53.3055 12.2689 654 65.9067 352.096 516.847
2287 0 55.6218 12.2973 684 65.3596 351.487 518.646
2288 0 55.4591 13.0366 723 65.0775 351.736 519.732
2289 0 60.3696 13.7155 828 63.8925 351.795 517.278
2290 0 59.6879 14.8271 885 63.1537 351.861 517.603
2291 0 67.6319 14.6381 990 62.1121 352.014 517.611
2292 0 65.7378 13.9189 915 63.8087 351.422 515.278
2293 0 66.1899 14.6095 967 63.789 352.239 514.744
2294 0 67.0635 13.2412 888 65.9088 352.234 509.992
2295 1 76.5432 14.3056 1095 62.8648 352.494 512.841
2296 0 82.1899 15.087 1240 60.8895 351.978 514.448
2297 0 82.7665 15.6827 1298 61.2982 352.499 511.676
2298 0 84.5675 14.2253 1203 62.3217 352.107 512.46
2299 0 90.7498 16.2204 1472 59.2147 352.623 510.218
2300 0 84.1244 15.4058 1296 61.6188 352.342 504.557
2301 1 204.053 13.2514 2704 64.1283 352.591 460.641
2302 0 197.419 10.7589 2124 66.637 352.523 466.982
2303 1 99.0402 13.0957 1297 62.7163 352.325 504.894
2304 0 104.137 15.0763 1570 61.0459 352.134 500.535
2305 0 106.765 15.7074 1677 60.2731 352.887 503.035
2306 0 109.465 17.823 1951 58.5443 353.134 498.746
2307 0 112.245 13.4973 1515 63.7102 353.151 491.72
2308 0 113.538 15.2988 1737 61.6868 351.828 495.76
2309 0 120.73 14.7271 1778 62.0726 352.737 492.151
2310 0 122.534 14.241 1745 62.7158 352.264 489.437
2311 0 130.249 15.7238 2048 61.0308 352.638 490.583
2312 0 132.912 16.1686 2149 60.6678 352.442 491.437
2313 0 130.448 13.2467 1728 64.9456 352.689 485.637
2314 1 69.5038 11.8555 824 65.4854 353.171 513.536
2315 0 68.5385 12.6352 866 66.291 353.387 513.059
2316 1 11.0119 12.8951 142 45.4859 354.021 544.88
2317 0 13.0807 8.40936 110 47.6909 353.945 544.918
2318 0 14.2082 12.3872 176 46.8011 352.886 545.267
2319 0 15.0833 6.16575 93 49.1613 354.677 544.817
2320 0 16.0444 12.7147 204 46.6029 354.054 544.544
2321 0 15.0469 4.054 61 51.8852 355.689 545.148
2322 0 14.069 6.68134 94 50.9468 354.362 544.745
2323 0 15.0466 8.50693 128 49.4219 354.883 545.367
2324 0 11.0104 7.35667 81 49.1235 355.123 548
2325 0 15.0946 8.94359 135 48.8815 354.681 546.156
2326 0 14.0086 12.7065 178 47.7022 354.534 546.051
2327 0 15.023 8.58683 129 48.1473 354.977 547.116
2328 1 109.977 12.8118 1409 69.2023 353.306 497.244
2329 0 115.015 13.9982 1610 67.8168 352.599 495.073
2330 1 15.2062 8.41761 128 49.2578 353.688 544.703
2331 0 15.0485 8.77166 132 49.0606 353.515 545.447
2332 0 14.0792 9.44657 133 48.6165 353.556 545.992
2333 0 14.0113 8.20768 115 49.9739 353.722 544.783
2334 0 16.0086 9.8697 158 48.3987 353.57 546.354
2335 0 12.0865 6.94993 84 50.4167 353.31 544.44
2336 0 13.0568 6.0505 79 50.4557 355.304 547.304
2337 0 15.1643 12.6613 192 47.151 353.51 547.031
2338 0 13.0483 9.50318 124 49.121 354.847 547.113
2339 0 14.006 12.2804 172 47.9186 354.215 547.517
2340 0 12.0278 12.3048 148 49.1351 353.845 544.899
2341 0 14.0363 12.3964 174 48.4368 353.695 546.983
2342 0 15.1223 4.62893 70 51.7429 354.486 548.4
2343 0 15.0582 6.10962 92 51.5652 354.674 546.359
2344 0 13.0309 10.2832 134 50.5746 354.634 547.172
2345 0 13.019 9.60137 125 50.488 353.84 547.424
2346 0 12.0105 2.91412 35 54.6571 356.457 547.429
2347 0 15.0194 12.4506 187 49.4118 353.513 546.316
2348 0 15.2826 13.2176 202 49.3911 352.094 546.45
2349 0 16.0392 10.1003 162 47.5802 353 546.753
2350 0 16.0646 8.77708 141 47.1915 354.277 545.574
2351 0 13.0167 3.76441 49 48.6122 355.061 548.163
2352 0 14.1189 14.0946 199 43.4271 352.874 547.02
2353 0 15.044 10.3696 156 44.8846 353.423 545.635
2354 0 12.0111 5.07865 61 48.2459 355.59 547.066
2355 0 16.0237 11.0461 177 45.1412 353.921 545.17
2356 0 11.0007 7.90856 87 46.4713 354.874 546.862
2357 1 0 0 0 -nan -nan -nan
2358 1 12.0396 12.3759 149 44.651 353.591 544.349
2359 0 14.0476 8.89831 125 46.432 353.872 543.736
2360 0 13.0318 4.98782 65 48.3385 355.231 545.631
2361 0 14.0099 6.5668 92 47.8152 354.652 545.304
2362 1 159.154 10.028 1596 69.8014 352.134 377.559
2363 1 91.5913 13.9315 1276 63.3244 352.435 507.818
2364 0 92.5238 11.4997 1064 66.9897 351.911 500.799
2365 1 11.1073 9.72335 108 47.5926 353.537 544.509
2366 0 17.0465 11.2047 191 45.9529 353.199 545.225
2367 0 16.0639 10.5827 170 46.1588 354.076 545.035
2368 0 16.0577 10.0886 162 46.3951 353.852 545.253
2369 0 14.2036 10.6311 151 46.1788 353.232 547.146
2370 0 17.1174 7.30253 125 46.272 353.384 547.336
2371 0 17.0398 10.7396 183 46.5683 353.77 544.934
2372 0 13.0393 7.43903 97 47.5464 353.464 547.856
2373 0 15.0257 8.45218 127 48.685 353.701 543.701
2374 0 16.0707 9.956 160 47.15 353.569 544.762
2375 0 15.1709 10.6124 161 45.4472 354.547 546.733
2376 0 15.2436 12.005 183 45.1421 354.126 545.831
2377 0 13.0786 7.56962 99 48.2727 354.323 545.828
2378 0 14.0148 4.49524 63 50.7143 355.635 545.127
2379 0 15.1928 13.4932 205 45.1122 353.415 546.727
2380 0 14.0311 13.185 185 46.0865 353.714 545.659
2381 0 14.0863 8.4479 119 48.3109 353.496 544.26
2382 0 16.3332 10.0409 164 45.9817 353.561 547.03
2383 1 92.9279 14.6027 1357 62.5365 352.303 512.106
2384 0 92.9733 14.6386 1361 62.3365 352.984 513.377
2385 0 89.2612 15.2698 1363 63.6119 352.406 504.434
2386 1 13.0725 7.42016 97 47.4433 354.227 547.753
2387 0 14.0121 12.7033 178 45.8034 353.82 546.433
2388 0 14.3279 12.6327 181 44.6851 354.326 546.365
2389 0 14.0528 7.6853 108 47.1574 354.704 544.13
2390 0 12.0217 6.57146 79 47.443 354.519 545.329
2391 0 11.0139 11.4401 126 45.5079 355.143 545.381
2392 0 14.0505 12.3127 173 45.578 354.884 543.422
2393 0 13.0106 8.60834 112 46.4732 355.33 546.321
2394 0 13.0481 6.20781 81 48.0494 355.951 542.951
2395 0 13.0461 7.12854 93 47.3871 355.688 543.43
2396 0 13.0274 12.1283 158 44.519 355.766 543.323
2397 0 11.0375 9.15061 101 45.5545 355.673 544.01
2398 0 16.1543 10.7711 174 45.2759 356.259 543.362
2399 1 4 7.75 31 46.2258 356.581 538.129
2400 1 15.0232 12.3143 185 45.0919 355.465 543.205
2401 0 12.0217 10.3979 125 46.656 355.968 543.576
2402 0 15.035 13.7014 206 44.534 355.864 544.243
2403 0 12.074 11.9264 144 45.3056 355.715 544.382
2404 0 14.0409 13.3183 187 45.2406 355.118 544.519
2405 0 15.0844 13.8553 209 43.9474 355.617 544.191
2406 0 13.2012 13.0291 172 44.8256 355.674 543.419
2407 0 13.2447 12.2313 162 45.4506 355.247 544.593
2408 0 18.0219 11.264 203 46.0493 355.084 542.532
2409 0 14.1811 12.7634 181 45.1602 355 545.177
2410 1 1 3 3 47.3333 359 538.667
2411 1 307.849 10.3362 3182 68.9698 353.591 419.842
2412 1 190.152 7.45719 1418 73.493 353.793 359.149
2413 1 121.493 13.474 1637 63.4551 353.812 493.61
2414 0 122.415 13.9035 1702 63.2838 353.418 491.963
2415 0 124.323 11.7276 1458 66.8594 354.689 481.984
2416 0 134.755 14.0403 1892 62.7928 353.935 485.373
2417 0 137.501 13.2072 1816 64.114 354.539 480.822
2418 1 81.7696 12.5597 1027 61.5229 354.793 516.143
2419 1 17.1788 13.1557 226 44.2743 355.677 543.527
2420 0 14.0175 6.7059 94 47.7553 357.032 544.064
2421 0 16.0651 6.41143 103 47.6796 356.456 543.427
2422 0 14.0113 12.4899 175 45.4914 355.726 544.931
2423 0 14.0346 12.6829 178 45.7247 355.601 545.404
2424 0 15.1014 12.5154 189 46.2222 355.138 544.249
2425 0 15.2035 14.3388 218 46.133 355.376 543.743
2426 0 14.06 13.5135 190 45.8789 355.237 545.258
2427 0 15.0794 8.28946 125 48.248 355.856 543.696
2428 0 15.0277 12.7764 192 45.6198 355.734 543.411
2429 0 15.047 6.97813 105 48.1714 356.229 543.295
2430 0 16.0331 11.3515 182 45.8077 355.324 544.115
2431 0 13.2262 10.8875 144 47.5347 355.139 544.104
2432 0 13.1011 7.09862 93 48.5806 355.43 543.527
2433 0 14.0333 9.47744 133 47.4286 355.248 543.376
2434 0 6 5.5 33 48.1818 352.97 540.455
2435 0 14.0486 7.97234 112 47.6786 354.384 543.027
2436 0 13.0916 14.1312 185 44.8649 353.719 545.103
2437 0 13.1431 13.6194 179 45.3408 354.71 543.352
2438 0 14.2435 8.91638 127 46.748 354.402 545.402
2439 0 15.0266 10.3816 156 47.1346 353.981 543.763
2440 0 13.4565 7.20839 97 47.9072 354.423 544.495
2441 0 15.0298 14.3715 216 44.75 354.269 543.806
2442 0 13.0385 16.1829 211 45.7867 353.754 542.981
2443 0 16.0599 12.9515 208 45.5192 354.284 544.692
2444 0 16.0297 11.042 177 46.2825 353.87 543.695
2445 0 16.3545 15.4086 252 45.9722 354.194 543.135
2446 0 15.1313 13.548 205 45.6634 354.21 543.815
2447 0 16.0538 9.65502 155 46.7097 354.394 546.297
2448 0 16.0532 15.0749 242 45.1983 354.562 545.021
2449 0 16.0262 14.9131 239 46.113 354.004 543.782
2450 0 13.0396 11.5034 150 47.92 354.52 543.907
2451 0 13.0661 7.80648 102 47.8529 354.226 545.647
2452 0 14.0191 10.6284 149 48.1141 353.765 544.785
2453 0 14.0198 9.77192 137 47.6496 354.46 545.416
2454 0 16.0111 11.3671 182 46.989 354.319 547.038
2455 0 14.0176 10.6295 149 47.2215 353.98 545.906
2456 0 15.3513 14.787 227 45.5022 354.344 546.022
2457 0 15.0641 9.42641 142 46.5704 354.106 546.732
2458 0 14.1127 6.02292 85 48.6 355.2 545.341
2459 0 14.0117 15.7725 221 45.8688 353.814 544.919
2460 0 15.0739 12.8036 193 46.4508 353.642 545.171
2461 0 13.4529 7.21036 97 48.8454 354.66 544.825
2462 0 12.0347 11.4668 138 46.2391 354.457 544.92
2463 0 14.0359 15.3891 216 44.9028 353.44 545.704
2464 0 13.0318 15.5005 202 45.5594 354.446 544.738
2465 1 73.1646 14.8022 1083 63.1108 354.476 516.365
2466 0 74.1287 14.3534 1064 62.9765 353.944 518.735
2467 0 78.4689 15.3946 1208 62.8146 353.31 515.167
2468 0 82.2228 14.3634 1181 63.9458 353.705 513.509
2469 0 79.2265 13.7328 1088 66.6829 354.114 511.632
2470 0 81.2157 11.9066 967 68.606 353.609 511.691
2471 0 82.7798 13.0225 1078 67.8998 353.261 510.462
2472 0 84.2443 11.4073 961 70.563 353.613 508.263
2473 0 85.865 13.0321 1119 69.0626 353.544 511.357
2474 0 88.7178 14.811 1314 67.3394 354.095 508.113
2475 0 91.5873 13.135 1203 68.606 353.822 508.766
2476 0 91.6403 15.5827 1428 66.6933 352.703 509.689
2477 0 95.4581 14.6661 1400 67.8143 353.089 507.609
2478 0 95.6133 15.1966 1453 68.4886 353.272 505.219
2479 0 96.5199 11.2412 1085 73.0055 353.643 505.442
2480 1 71.0202 13.0667 928 70.5312 353.731 427.309
2481 0 75.0753 14.7585 1108 68.7004 353.645 427.147
2482 0 77.0995 14.6434 1129 68.6315 353.293 427.772
2483 0 79.0277 13.1093 1036 69.9585 353.45 431.822
2484 0 82.1255 13.5281 1111 68.7966 353.433 433.115
2485 0 84.0997 13.0203 1095 70.2374 353.477 433.363
2486 0 88.104 13.6657 1204 69.4659 353.179 433.287
2487 1 46.1141 12.9462 597 68.4606 353.368 455.243
2488 0 47.0739 12.5972 593 68.7943 353.253 457.206
2489 0 49.063 13.6967 672 67.4673 353.089 456.949
2490 0 51.0272 13.5614 692 67.1113 353.581 459.211
2491 0 49.049 11.356 557 71.0198 353.558 460.375
2492 0 55.0699 14.1638 780 65.65 352.544 461.81
2493 0 53.03 12.1818 646 70.5263 353.347 460.667
2494 0 56.0126 12.3722 693 68.9885 353.02 462.589
2495 0 59.0901 13.4202 793 67.7163 352.622 461.245
2496 0 61.112 13.2707 811 67.7559 352.676 462.395
