time division length width area intensity CMx CMy
0 0 70.105 13.708 961 68.179 198.841 261.268
1 0 73.2718 12.8017 938 68.7303 198.482 262.579
2 0 77.0748 15.5823 1201 65.1049 198.669 262.216
3 0 79.2259 14.2251 1127 66.8314 199 265.327
4 0 81.1033 11.5655 938 70.5373 199.069 265.576
5 0 84.1878 15.9881 1346 65.2437 198.226 264.114
6 0 85.185 15.0144 1279 66.3643 196.934 265.145
7 0 89.2805 13.34 1191 68.4081 197.466 263.975
8 0 90.139 13.7676 1241 67.8751 196.786 264.839
9 0 94.169 14.3253 1349 67.4292 197.172 262.246
10 1 48.1154 13.3637 643 66.507 197.784 285.269
11 0 47.1229 10.9501 516 70.4283 196.779 285.24
12 0 51.087 11.7055 598 68.5936 196.737 285.493
13 0 54.0661 13.1321 710 67.1493 196.496 283.872
14 0 56.0261 13.6365 764 66.1531 196.84 284.268
15 0 57.0276 12.2572 699 67.6581 196.329 284.338
16 0 56.0448 11.2767 632 70.4272 195.595 281.81
17 0 62.0395 12.9111 801 66.3508 195.934 282.814
18 0 62.0527 15.1968 943 64.6681 195.644 280.433
19 0 63.1213 13.6562 862 66.9002 195.731 279.229
20 0 65.1042 13.2096 860 67.7093 195.969 278.79
21 0 65.0984 13.2261 861 69.4553 196.553 275.94
22 0 70.0721 15.427 1081 65.5967 196.358 276.179
23 0 71.1393 13.7617 979 68.3391 195.493 275.691
24 0 73.1219 12.2809 898 70.1247 195.448 275.765
25 0 74.0589 12.328 913 71.7207 196.375 273.669
26 1 42.0741 10.8856 458 68.1594 196.858 292.434
27 0 40.0232 10.5938 424 70.5495 196.264 290.689
28 0 43.0776 11.6534 502 68.1175 196.376 291.104
29 0 46.0673 11.3964 525 67.9333 196.592 291.623
30 0 45.0428 10.7897 486 70.3724 196.796 290.944
31 0 48.0884 11.2501 541 68.2625 196.693 291.701
32 0 49.0664 10.7202 526 69.3061 196.641 291.496
33 0 49.1342 12.3132 605 67.7521 196.208 289.063
34 0 52.1881 11.7077 611 68.6105 196.173 286.484
35 0 53.0924 13.2222 702 66.6254 196.085 285.402
36 0 54.072 11.5402 624 69.1026 196.136 285.502
37 0 55.0446 11.9539 658 68.9255 196.389 284.416
38 0 58.0729 11.6578 677 69.5908 196.201 283.319
39 0 60.0407 13.3576 802 67.2195 196.176 282.133
40 0 62.0564 12.1341 753 67.9734 195.979 281.341
41 0 62.2103 12.297 765 68.8261 196.337 279.378
42 0 66.131 13.0196 861 66.6202 196.496 282.465
43 0 67.1629 11.8816 798 68.9799 196.056 279.591
44 0 68.2515 11.736 801 70.2422 196.325 276.903
45 0 72.1976 13.5046 975 67.3795 196.344 276.091
46 0 74.2253 13.2974 987 67.9899 195.725 272.844
47 0 76.1531 12.2254 931 69.3921 195.412 273.394
48 0 79.1647 12.2782 972 69.1934 195.47 270.957
49 1 45.1308 11.9431 539 65.7161 195.742 289.616
50 0 46.0728 10.3532 477 68.6247 195.08 288.285
51 0 49.0956 12.6692 622 64.3987 195.474 287.371
52 0 49.2153 12.5571 618 65.0129 195.994 286.94
53 0 53.3445 10.6478 568 67.5458 195.868 287.401
54 0 54.2465 13.8811 753 62.6707 196.142 287.032
55 0 54.273 12.6398 686 64.7886 196.162 286.749
56 0 56.0889 12.1058 679 64.648 195.532 283.121
57 0 57.1546 12.2475 700 64.75 195.727 281.926
58 0 58.1253 11.9053 692 64.7558 196.027 281.762
59 0 60.1609 11.5191 693 65.4675 196.291 281.341
60 0 63.2149 12.2914 777 63.9653 196.538 280.768
61 0 63.0853 13.1409 829 63.4861 196.159 279.772
62 0 63.0545 11.1174 701 66.1327 195.75 276.569
63 0 68.1133 12.2003 831 63.4356 195.639 279.107
64 0 69.0951 13.0545 902 63.2794 195.443 276.993
65 0 71.302 12.8187 914 63.8173 196.057 276.789
66 0 76.1323 15.7883 1202 59.3128 195.513 273.971
67 0 75.1195 12.1673 914 64.9256 195.032 274.549
68 0 76.2224 11.8338 902 66.2306 195.109 272.682
69 0 81.2461 12.7637 1037 64.2478 195.469 272.986
70 0 85.1428 14.3054 1218 62.3933 194.928 272.484
71 1 45.1724 10.7145 484 64.1777 195.386 289.979
72 0 47.0755 12.1295 571 63.8161 195.378 288.595
73 0 46.1103 11.2123 517 66.7292 195.737 287.961
74 0 51.1738 15.3399 785 59.6408 196.061 288.622
75 0 51.0467 12.7922 653 62.2098 195.231 288.893
76 0 52.0796 11.5784 603 64.7347 195.141 287.171
77 0 55.0783 14.434 795 60.5925 195.214 286.805
78 0 56.0737 11.6454 653 65.2894 195.757 284.851
79 0 60.1098 13.9245 837 61.454 195.674 284.737
80 0 61.0711 12.5264 765 63.2248 195.766 284.314
81 0 61.0484 12.7767 780 64.259 195.658 282.256
82 0 66.0334 13.8415 914 60.9333 194.97 284.532
83 0 64.1574 12.7967 821 64.4787 194.815 280.173
84 0 69.1064 13.5878 939 62.065 194.574 281.982
85 0 71.0804 13.0697 929 63.2034 194.84 279.874
86 0 71.1389 11.7657 837 64.6213 195.225 278.038
87 0 74.0883 12.3906 918 63.0523 195.67 278.743
88 0 78.2048 12.3266 964 63.5083 195.558 275.934
89 0 78.1268 11.8269 924 64.1537 196.233 276.636
90 0 80.1294 12.0181 963 64.5234 196.054 273.761
91 1 44.1583 11.889 525 62.1314 196.124 290.84
92 0 43.1564 10.404 449 65.2695 196.149 290.744
93 0 48.2236 12.2969 593 62.2614 196.093 290.956
94 0 46.1024 12.1686 561 64.0374 196.159 289.897
95 0 49.0723 12.7771 627 62.689 195.842 289.217
96 0 51.1275 12.9285 661 62.2118 196.368 289.231
97 0 52.0616 11.5056 599 63.8648 195.539 287.509
98 0 53.0366 11.7466 623 64.2392 195.769 286.035
99 0 55.057 12.9684 714 62.3053 195.77 286.304
100 0 58.0918 11.2925 656 64.0183 196.053 284.924
101 0 60.2514 13.842 834 60.4832 196.296 283.923
102 0 59.1129 11.2327 664 65.1596 196.298 283.56
103 0 61.0976 11.6044 709 64.0719 195.85 282.924
104 0 63.1364 13.2412 836 62.195 195.587 279.319
105 0 66.0499 13.7472 908 60.9383 195.932 281.5
106 0 68.0747 13.3089 906 62.223 196.577 279.491
107 0 71.1531 13.3234 948 62.2489 196.181 278.961
108 0 70.1028 12.282 861 65.101 195.942 276.359
109 0 73.2094 12.4574 912 64.4002 196.201 277.157
110 0 77.225 12.0945 934 64.6039 196.834 276.678
111 0 79.1849 13.399 1061 63.984 196.41 272.568
112 0 80.223 11.119 892 66.8262 196.404 272.64
113 0 85.2105 12.5102 1066 64.7533 195.94 271.655
114 1 44.0303 10.2202 450 64.9333 195.964 290.851
115 0 46.0751 11.1557 514 63.4669 196.282 291.01
116 0 45.1517 10.4315 471 65.3673 196.65 289.081
117 0 50.1451 12.0251 603 62.8574 196.645 288.697
118 0 51.107 13.2271 676 60.1509 196.732 290.262
119 0 50.1576 12.4408 624 61.8878 196.53 289.399
120 0 52.144 13.4819 703 60.3499 196.733 290.31
121 0 55.0562 14.2218 783 60.3231 196.992 285.562
122 0 58.0881 12.0851 702 61.2023 196.011 288.484
123 0 56.1462 12.5565 705 62.6936 195.678 284.713
124 0 58.1109 13.784 801 60.9263 195.834 282.286
125 0 60.1371 13.1699 792 61.2083 196.706 284.088
126 0 63.1165 13.1503 830 60.288 196.567 284.301
127 0 64.1661 15.1482 972 59.0967 196.934 280.201
128 0 65.1825 13.3625 871 60.7876 196.532 279.377
129 0 67.1043 13.2927 892 60.5303 196.089 279.476
130 0 70.1757 12.0982 849 61.5701 195.665 277.942
131 0 74.2619 12.7656 948 60.3365 195.458 276.116
132 0 76.2412 13.09 998 59.1042 195.429 279.692
133 0 77.1972 12.8761 994 60.1288 195.887 276.814
134 1 41.1097 11.1896 460 60.2804 196.726 292.022
135 0 43.1867 12.7586 551 59.1597 196.417 289.757
136 0 42.2456 10.1549 429 61.9207 196.925 292.009
137 0 46.1211 10.5592 487 62.9035 196.191 289.318
138 0 47.3013 12.3675 585 60.388 196.603 289.617
139 0 47.3488 13.9602 661 58.6006 196.929 290.977
140 0 49.1998 12.8659 633 59.6367 196.82 288.877
141 0 53.1663 15.0095 798 56.6842 197.929 287.447
142 0 52.1177 13.1625 686 60.5277 197.184 284.66
143 0 54.1487 11.5977 628 61.078 196.725 286.519
144 0 54.1337 13.3928 725 59.9572 196.334 283.559
145 0 56.1876 14.0778 791 59.4741 196.823 282.855
146 0 57.2281 11.6726 668 62.3323 196.639 282.677
147 0 59.086 12.9811 767 60.5906 197.389 283.394
148 0 62.2217 14.2073 884 59.25 197.662 282.265
149 0 64.2867 11.962 769 61.9662 196.785 280.839
150 0 68.1692 13.7745 939 59.2439 196.879 280.413
151 0 67.2335 12.5979 847 61.8689 196.935 279.431
152 0 71.2116 13.3405 950 60.6716 197.147 278.609
153 0 70.1025 12.7813 896 62.4475 196.77 273.68
154 0 75.1295 13.5499 1018 61.3153 196.938 275.105
155 0 77.1322 13.5871 1048 60.9676 196.69 275.079
156 0 79.1309 14.3307 1134 61.1155 196.198 271.131
157 0 81.0748 12.7537 1034 63.4681 196.48 269.915
158 0 85.0991 13.5372 1152 61.1918 196.694 274.103
159 1 45.0264 10.0608 453 64.245 197.093 289.996
160 0 46.1258 12.661 584 60.4777 196.997 290.372
161 0 47.0743 11.5137 542 63.6236 196.334 286.264
162 0 48.0816 11.3765 547 63.5302 196.872 286.952
163 0 54.0984 14.5845 789 59.0558 197.005 284.465
164 0 53.0827 12.0755 641 62.2059 196.119 284.697
165 0 54.0884 12.2762 664 61.4473 196.482 286.764
166 0 56.1672 13.2996 747 61.1874 196.171 284.074
167 0 58.0995 12.2376 711 61.8734 195.498 283.944
168 0 59.0546 12.8864 761 61.5992 195.361 282.716
169 0 62.0995 15.926 989 57.9009 196.187 281.246
170 0 64.0794 12.8278 822 61.2883 196.572 281.325
171 0 63.0596 12.4644 786 62.9389 196.459 278.631
172 0 67.1524 14.6979 987 59.3587 196.697 279.14
173 0 70.0431 12.8635 901 61.1454 196.629 279.869
174 0 72.1603 15.6596 1130 57.723 197.022 279.521
175 0 71.1143 13.6822 973 61.1572 196.625 276.895
176 0 74.1669 12.337 915 63.1355 196.414 274.019
177 0 76.137 13.6333 1038 61.9653 197.285 272.154
178 0 80.1581 15.9185 1276 58.8534 197.474 274.012
179 0 82.1103 15.5888 1280 59.6914 197.29 270.403
180 0 83.0961 13.707 1139 61.9754 196.309 271.088
181 0 87.1236 13.5669 1182 62.3046 196.437 270.44
182 0 88.2617 15.8053 1395 60.4086 197.062 266.416
183 0 90.1327 15.1998 1370 61.4511 196.905 266.253
184 0 95.0785 15.3978 1464 61.0478 197.29 265.802
185 0 96.1626 15.3698 1478 60.753 196.572 268.782
186 0 94.2662 14.4166 1359 62.5085 196.624 266.113
187 0 101.152 21.1958 2144 54.7146 196.461 262.458
188 0 103.13 16.6392 1716 59.9132 196.906 257.935
189 0 106.092 16.4386 1744 59.9799 196.872 258.93
190 0 108.092 17.5777 1900 59.1311 197.162 258.925
191 0 110.203 18.1121 1996 59.011 197.194 255.282
192 0 113.185 15.7265 1780 61.9534 197.062 253.285
193 0 118.246 17.8865 2115 59.0355 196.982 252.916
194 0 121.187 17.4276 2112 60.1136 197.328 251.424
195 0 124.094 20.1864 2505 56.895 197.051 253.654
196 0 127.085 18.0273 2291 59.5098 196.663 249.686
197 0 130.256 18.3025 2384 59.5147 196.424 249.484
198 0 134.202 17.8984 2402 60.0899 196.449 248.241
199 0 139.294 20.9844 2923 56.8679 196.17 246.285
200 0 139.322 15.2668 2127 64.0917 196.296 242.047
201 0 145.16 19.3993 2816 58.9066 196.818 245.064
202 0 149.225 16.2104 2419 63.1496 196.239 237.928
203 0 151.267 15.7205 2378 63.9479 195.961 235.862
204 1 90.0808 12.622 1137 65.92 195.734 272.747
205 0 91.2282 12.2111 1114 67.8636 195.991 267.879
206 0 97.2178 15.1207 1470 63.6578 196.543 267.531
207 0 98.1057 14.1684 1390 63.8237 196.599 268.332
208 0 101.163 13.0483 1320 65.0053 196.413 267.244
209 0 104.235 13.3257 1389 65.5335 196 263.732
210 0 107.069 14.7102 1575 63.9835 196.136 261.189
211 0 108.177 12.9695 1403 66.0948 196.483 263.535
212 0 110.057 13.175 1450 66.7221 196.474 260.763
213 0 116.084 14.3345 1664 64.6022 196.776 259.346
214 0 120.27 13.4697 1620 65.9198 196.547 257.55
215 0 124.19 14.1155 1753 65.2807 196.452 256.958
216 1 67.0811 11.0761 743 69.5572 197.028 280.351
217 0 74.1292 13.5979 1008 65.5248 195.934 279.554
218 0 74.1558 13.593 1008 66.8849 195.863 276.83
219 0 76.0873 14.9959 1141 65.6196 195.872 276.534
220 0 78.2654 13.2626 1038 68.2437 195.642 275.211
221 0 82.0816 13.5962 1116 68.2428 196.112 272.51
222 0 86.139 14.8829 1282 66.8261 196.896 270.134
223 0 86.1156 13.4238 1156 69.4706 197.214 269.828
224 0 87.0784 12.7356 1109 71.395 196.71 267.447
225 0 91.164 15.6092 1423 66.7948 196.018 268.123
226 1 48.1294 12.2378 589 66.0645 196.739 291.961
227 0 50.1173 11.6327 583 67.9091 196.63 289.748
228 0 49.0658 12.0858 593 68.9494 196.904 289.125
229 0 51.1001 11.2916 577 69.9376 197.111 288.88
230 0 52.1108 12.3967 646 68.3344 197.139 289.308
231 0 53.085 11.8678 630 69.127 196.997 287.637
232 0 55.0533 14.0409 773 66.7374 197.713 287.62
233 0 56.0827 12.5351 703 68.744 197.276 286.488
234 0 57.1153 14.2169 812 67.0037 197.432 285.558
235 0 58.082 12.4307 722 70.4751 197.181 284.066
236 0 60.0751 12.3512 742 70.4461 196.47 281.803
237 0 63.0805 13.6968 864 67.5336 196.791 282.23
238 0 65.0618 12.4036 807 69.6072 196.908 279.834
239 0 68.1743 13.3775 912 67.6107 197.471 280.394
240 0 67.1895 13.3354 896 69.2533 197.191 277.634
241 0 71.1317 13.8335 984 66.3963 197.499 281.029
242 0 72.0474 13.0192 938 68.7996 196.691 277.995
243 0 74.0681 13.7306 1017 67.1858 196.72 276.898
244 0 78.0763 12.5006 976 68.9232 196.811 277.288
245 0 79.1028 12.9705 1026 68.3567 196.566 274.703
246 0 81.0941 14.3537 1164 66.5902 196.547 273.167
247 0 85.0551 12.8152 1090 68.2743 196.006 271.898
248 0 85.1609 13.1633 1121 68.504 195.232 268.854
249 0 86.0554 12.3758 1065 70.0498 194.632 265.617
250 0 89.0933 11.7068 1043 70.5244 195.181 266.844
251 0 94.167 13.7628 1296 67.0309 195.568 266.886
252 1 52.1003 10.7677 561 66.098 195.913 287.116
253 0 54.1114 11.6611 631 64.5103 195.84 286.214
254 0 55.2182 12.1156 669 63.3199 196.054 286.411
255 0 55.1141 12.5195 690 63.2188 196.097 285.77
256 0 58.1575 11.2281 653 63.7075 195.812 285.764
257 0 60.0596 12.2378 735 62.8136 195.449 283.318
258 0 62.0964 10.8863 676 63.7618 195.555 285.115
259 0 65.1667 12.1381 791 61.9039 195.416 283.153
260 0 67.1401 13.7474 923 59.5764 195.779 283.2
261 0 67.1428 11.8851 798 62.4023 195.751 281.025
262 0 70.044 11.4214 800 61.5375 196.462 282.071
263 0 71.1538 11.4962 818 61.1748 196.389 281.531
264 0 73.229 10.9793 804 62.2512 195.891 278.188
265 0 74.1668 11.8382 878 61.4442 196.374 276.595
266 0 76.2078 11.9279 909 61.5677 196.003 273.633
267 0 79.1099 11.6673 923 61.1614 195.973 272.778
268 0 82.4002 11.2136 924 61.671 196.071 271.779
269 0 85.1209 12.2884 1046 59.9914 196.275 271.086
270 0 88.3674 13.3194 1177 58.1308 196.148 270.262
271 0 90.1253 12.3828 1116 60.3853 196.103 267.656
272 0 94.4387 12.2831 1160 59.7371 197.17 269.46
273 0 94.2824 10.7549 1014 61.7998 196.848 267.557
274 1 53.0364 10.785 572 60.5262 197.432 284.953
275 0 55.1626 9.64422 532 61.1353 196.105 285.94
276 0 58.1671 12.189 709 59.5698 196.74 280.86
277 0 62.2249 13.6923 852 57.1901 196.534 282.276
278 0 60.1281 9.87892 594 62.1111 195.926 281.715
279 0 65.1896 13.2537 864 57.2743 195.955 281.446
280 0 65.2775 12.5158 817 58.1359 196.509 279.487
281 0 71.3101 13.6446 973 55.4625 197.027 281.44
282 0 71.1565 16.3583 1164 53.018 197.144 281.079
283 0 71.2124 13.7195 977 56.6039 196.124 276.904
284 0 74.1848 14.72 1092 55.2802 196.322 278.043
285 0 77.2067 13.6128 1051 56.4976 195.749 276.328
286 0 80.1721 13.2091 1059 56.3522 195.94 278.486
287 0 80.0823 13.7983 1105 56.5421 196.431 275.111
288 0 81.2838 12.5117 1017 58.0796 196.249 276.207
289 0 86.5931 14.8049 1282 55.4009 196.346 272.462
290 0 88.0936 13.3948 1180 56.6568 196.408 274.353
291 0 90.3029 16.6329 1502 54.1511 196.304 269.497
292 0 93.2493 15.9572 1488 54.703 196.666 271.458
293 0 95.18 12.4921 1189 58.7393 196.016 271.149
294 0 97.4515 13.4426 1310 57.9107 196.112 270.991
295 1 51.1399 11.8303 605 59.1554 196.443 289.661
296 0 52.1083 13.2033 688 58.3547 196.062 289.945
297 0 55.1204 13.1712 726 58.4945 195.97 287.472
298 0 58.08 13.2748 771 58.6628 196.285 285.518
299 0 58.1082 13.8363 804 57.7413 196.551 288.838
300 0 61.2027 14.4275 883 57.4745 196.564 285.964
301 0 59.1759 12.7755 756 61.5225 195.988 282.349
302 0 63.0862 13.8382 873 59.756 196.872 281.747
303 0 65.2521 12.4747 814 61.3489 196.628 280.859
304 0 70.1688 14.3511 1007 57.8669 196.584 283.206
305 0 68.1127 11.9508 814 62.0197 196.982 281.931
306 0 70.3034 13.6978 963 60.8048 196.651 279.094
307 0 75.2846 15.5809 1173 57.6633 196.42 278.902
308 0 74.3574 13.2603 986 61.6653 196.309 277.836
309 0 78.1775 15.5032 1212 58.7046 197.05 278.245
310 0 79.1544 14.0738 1114 61.5583 196.868 273.861
311 0 82.132 14.9394 1227 60.784 196.362 273.071
312 0 84.0867 13.3909 1126 62.2416 196.408 275.504
313 0 86.1787 14.087 1214 61.9934 196.243 274.006
314 0 91.2258 12.4965 1140 64.5246 196.438 270.184
315 0 93.1633 14.7054 1370 62.0438 196.468 270.311
316 0 95.216 13.6532 1300 64.0854 196.425 266.995
317 0 97.2103 13.7537 1337 64.7255 196.349 264.518
318 0 97.1788 13.3157 1294 64.8099 195.96 263.104
319 0 104.302 21.1118 2202 55.0581 196.508 264.257
320 0 108.174 16.1776 1750 61.0303 196.185 256.725
321 0 111.263 19.054 2120 57.6892 196.844 257.677
322 0 115.164 17.0453 1963 60.3423 196.802 253.485
323 0 118.398 16.9683 2009 60.8024 195.721 253.064
324 1 61.0534 12.5628 767 64.0313 196.313 286.018
325 0 61.1177 12.7132 777 64.6924 196.181 283.956
326 0 64.0565 13.0822 838 65.1527 195.943 282.03
327 0 67.0803 14.4305 968 63.688 195.908 279.124
328 0 66.0899 13.2395 875 66.352 196.009 279.119
329 0 67.0601 13.4804 904 66.6737 196.362 279.823
330 0 72.1445 14.0551 1014 64.788 196.144 279.832
331 0 73.0968 13.188 964 66.9938 195.437 275.711
332 0 76.0875 13.1691 1002 66.4411 195.546 277.395
333 0 78.0693 13.0909 1022 67.3043 195.113 275.492
334 0 81.0937 14.5511 1180 65.7314 195.628 273.314
335 0 82.2195 13.8532 1139 66.7717 195.827 274.098
336 0 85.0965 14.4659 1231 66.104 195.889 273.008
337 0 86.1451 14.0113 1207 67.1491 195.908 270.668
338 0 92.1406 15.726 1449 64.3478 195.68 268.751
339 0 95.0607 15.9372 1515 63.6581 195.514 265.913
340 0 96.1068 12.9543 1245 67.9622 196.089 268.192
341 0 98.2219 17.5928 1728 61.1094 195.936 264.118
342 0 102.198 14.8144 1514 64.9339 195.814 262.256
343 0 105.184 16.4569 1731 62.3478 196.07 259.385
344 0 110.235 16.8096 1853 61.5235 195.674 257.901
345 0 112.107 17.0016 1906 61.1028 195.553 258.217
346 0 115.227 16.6455 1918 61.8592 195.319 253.429
347 0 117.205 16.7912 1968 61.4319 195.926 257.135
348 0 121.147 15.9063 1927 62.9393 194.875 252.115
349 0 125.146 20.496 2565 57.6698 194.967 251.531
350 0 129.38 16.1926 2095 62.6382 194.746 248.415
351 0 131.093 15.8514 2078 63.6429 194.66 243.971
352 0 138.168 16.0384 2216 63.088 194.578 241.862
353 0 140.314 16.6341 2334 62.7532 195.136 241.21
354 1 78.0625 11.478 896 66.4911 195.42 274.811
355 0 82.1801 11.6695 959 67.1919 195.373 272.873
356 0 84.0868 12.5941 1059 65.9415 195.282 273.907
357 0 88.1598 12.795 1128 65.4823 194.947 273.129
358 0 91.1127 13.7742 1255 65.0064 195.147 269.074
359 0 95.2156 12.2144 1163 67.1006 195.114 267.516
360 0 99.233 12.5059 1241 66.8372 195.91 264.375
361 0 101.173 13.9562 1412 65.4101 195.946 262.546
362 0 106.277 12.5521 1334 66.1004 195.906 264.775
363 0 109.145 13.2943 1451 64.9676 196.255 266.629
364 0 110.117 12.1053 1333 67.2986 196.048 259.762
365 1 56.0261 11.8159 662 65.7553 196.184 287.684
366 0 62.04 12.5564 779 64.9345 196.395 285.95
367 0 62.0589 12.8104 795 64.4277 196.312 284.85
368 0 65.1593 14.1193 920 62.5696 196.017 283.438
369 0 66.0731 13.2732 877 63.7218 195.125 282.792
370 0 68.0764 12.2216 832 65.244 195.452 279.722
371 0 74.4205 13.3834 996 62.0763 195.541 280.909
372 0 72.1299 13.3093 960 63.9031 195.321 278.401
373 0 76.1295 13.5821 1034 63.0048 196.272 276.599
374 0 78.0895 13.2412 1034 63.2128 196.27 274.891
375 0 79.0738 13.5822 1074 63.3156 196.345 273.445
376 1 42.1231 11.8462 499 62.994 197.291 289.972
377 0 44.2511 10.5534 467 63.9443 197.278 290.655
378 0 46.1029 11.8648 547 62.34 196.691 289.293
379 0 47.0149 14.6975 691 59.5528 196.603 288.922
380 0 47.0684 11.1965 527 65.0038 197.154 288.083
381 0 51.0568 12.1433 620 62.5161 196.353 287.855
382 0 53.117 12.5572 667 62.3208 196.169 286.72
383 0 53.129 11.8391 629 64.2417 196.094 285.539
384 0 56.2796 13.2908 748 60.9626 196.249 284.697
385 0 58.1706 13.5979 791 60.8887 196.406 284.174
386 0 60.1356 15.066 906 59.1137 196.301 284.064
387 0 60.3322 15.1329 913 59.3932 196.363 282.062
388 0 64.1371 12.5201 803 61.6675 196.46 282.081
389 0 65.1307 14.6475 954 60.3354 196.734 279.42
390 0 67.2708 14.2261 957 60.6855 196.704 278.566
391 0 71.3216 15.0025 1070 59.4645 196.625 275.444
392 0 70.1105 12.0667 846 64.1891 196.716 276.072
393 0 73.2532 12.996 952 62.8036 196.61 273.871
394 0 78.1366 15.1657 1185 57.7097 196.083 279.874
395 0 81.1496 13.8263 1122 60.7825 195.307 272.479
396 0 83.2295 14.0936 1173 60.7246 195.587 272.087
397 1 48.2149 10.0177 483 63.8737 195.571 290.317
398 0 49.2496 12.5077 616 61.9383 196.287 289.015
399 0 51.0574 13.1616 672 60.7351 196.609 288.269
400 0 52.2471 11.7901 616 62.0682 196.808 288.578
401 0 54.0747 11.6136 628 61.879 195.916 287.885
402 0 55.0352 13.6821 753 60.3227 196.319 285.207
403 0 58.203 12.4908 727 61.2572 195.945 286.506
404 0 57.0509 12.5327 715 62.1958 195.741 284.687
405 0 60.0796 13.1326 789 61.1014 195.762 284.224
406 0 63.1765 13.0903 827 61.7509 195.64 280.9
407 0 64.1919 13.7868 885 61.2215 195.856 281.893
408 0 67.1077 14.1564 950 60.8621 195.754 279.684
409 0 71.2367 14.0939 1004 59.8635 195.411 281.013
410 0 69.1073 13.7033 947 61.7244 195.637 277.081
411 0 74.1798 14.5188 1077 60.3129 195.88 276.962
412 0 74.165 11.825 877 63.7252 196.257 278.765
413 0 80.2212 14.298 1147 60.3112 196.225 274.221
414 0 80.1608 13.7474 1102 61.775 195.949 273.116
415 0 83.1976 13.5581 1128 62.3422 196.121 272.021
416 0 84.3094 15.5736 1313 59.4235 196.318 275.155
417 1 48.0467 11.7802 566 61.924 197.131 291.753
418 0 46.0502 11.4006 525 64.5105 196.417 289.688
419 0 50.0574 12.226 612 63.5229 196.632 289.126
420 0 50.0627 11.5056 576 64.5312 196.349 289.929
421 0 53.0883 12.3568 656 64.1601 196.21 286.861
422 0 54.0341 13.0658 706 63.8414 196.135 285.228
423 0 56.0321 13.4744 755 63.502 196.686 286.058
424 0 58.0156 14.4961 841 62.0916 196.824 286.611
425 0 58.0968 13.2882 772 64.3238 196.29 284.597
426 0 62.0903 15.8962 987 60.229 196.646 285.919
427 0 62.0637 13.6795 849 64.457 196.037 283.767
428 0 65.0558 14.2339 926 63.7214 196.483 281.509
429 0 68.0916 14.1427 963 63.4849 196.352 281.339
430 0 68.1086 13.5225 921 65.1878 196.696 279.202
431 0 73.0921 13.5446 990 64.0192 196.817 279.198
432 0 72.1946 13.9207 1005 64.0219 197.281 279.059
433 0 75.137 13.9479 1048 64.4532 196.743 276.102
434 0 81.1731 13.2556 1076 64.7677 196.864 275.796
435 0 82.2041 13.5638 1115 63.8798 196.834 277.933
436 1 46.0884 12.1072 558 66.1487 196.839 292.914
437 0 47.1068 12.5035 589 66.1494 196.024 289.857
438 0 49.0377 12.5414 615 67.3496 196.029 288.036
439 0 51.0525 12.8299 655 66.3282 195.919 289.64
440 0 55.1434 12.2408 675 65.6044 195.91 289.944
441 0 57.1 12.9597 740 65.6446 195.758 286.416
442 0 60.0538 13.5545 814 64.2776 195.692 286.237
443 0 59.0607 12.8681 760 65.4789 195.705 286.646
444 0 61.1923 13.5801 831 64.6955 195.323 285.143
445 0 65.0479 14.4355 939 62.475 194.817 284.644
446 0 64.0825 12.4059 795 65.717 194.886 283.78
447 0 67.2397 13.5485 911 64.4533 195.87 281.078
448 0 72.1134 14.5604 1050 61.8333 195.684 280.927
449 0 72.1399 14.1531 1021 62.6631 195.542 280.706
450 0 74.0971 13.5633 1005 63.6856 195.485 278.458
451 0 80.1757 15.8776 1273 59.9199 195.245 277.089
452 0 83.1401 14.2531 1185 61.757 195.27 276.96
453 0 86.0607 14.5246 1250 61.2792 195.476 275.409
454 0 86.1502 13.7086 1181 62.453 194.985 275.1
455 0 90.1189 14.0925 1270 61.7575 195.535 270.727
456 0 94.1247 15.5432 1463 59.8667 195.18 270.174
457 0 99.2186 16.5594 1643 57.5758 195.472 266.95
458 1 52.0444 11.8553 617 64.684 195.682 289.308
459 0 55.0875 14.9762 825 60.057 195.571 290.354
460 0 57.0962 12.26 700 63.9243 195.366 289.4
461 0 61.1281 14.1833 867 61.7209 195.138 285.584
462 0 63.1314 13.6382 861 62.3577 195.532 284.014
463 0 65.0755 14.414 938 61.3902 195.457 283.659
464 0 66.0902 14.0112 926 62.1533 196.471 282.717
465 0 68.259 13.1997 901 63.4795 197.053 281.155
466 0 71.0486 13.3571 949 63.3203 197.23 280.05
467 0 73.1873 15.7814 1155 60.8372 196.932 279.056
468 0 76.2279 13.0923 998 63.9649 196.914 277.929
469 0 78.1033 14.1863 1108 62.7816 196.478 276.124
470 0 82.0433 13.8098 1133 63.0671 196.53 275.831
471 0 86.1842 14.8983 1284 61.4759 196.029 275.281
472 0 88.1074 14.8909 1312 61.3742 195.835 274.726
473 0 90.0878 13.9642 1258 63.0509 195.854 273.291
474 0 93.1025 13.1468 1224 64.9926 195.704 268.95
475 0 96.2926 15.1102 1455 61.6859 196.01 272.577
476 1 54.1181 13.2118 715 63.6476 196.221 289.869
477 0 58.0841 12.2237 710 65.7676 196.272 287.856
478 0 59.063 11.6147 686 67.1487 196.87 286.188
479 0 60.0865 14.7787 888 63.1385 197.024 285.941
480 0 64.0897 14.5733 934 62.7773 197.169 285.176
481 0 66.1884 14.9422 989 62.4843 196.854 282.64
482 0 68.0998 13.8767 945 63.9153 197.312 281.135
483 0 70.1478 12.8015 898 64.6158 196.071 281.891
484 0 75.1143 16.162 1214 60.2496 196.371 278.96
485 0 77.0855 14.7758 1139 62.2327 196.465 277.013
486 0 77.3154 13.1151 1014 64.5621 196.35 276.754
487 0 82.1472 15.1679 1246 61.7432 196.661 274.381
488 0 85.1306 13.7553 1171 63.2707 196.395 272.518
489 0 89.1107 13.6796 1219 63.397 196.392 271.724
490 0 90.2096 13.8899 1253 63.419 195.868 272.426
491 1 47.1108 13.0755 616 61.7192 196.32 293.343
492 0 49.0224 11.5457 566 64.8834 196.463 288.666
493 0 50.0489 11.9683 599 63.9866 196.16 290.354
494 0 55.1226 13.6423 752 60.8231 195.702 289.972
495 0 54.1192 15.0039 812 60.4594 195.347 287.808
496 0 58.2371 14.6814 855 59.993 195.671 287.63
497 0 59.1008 13.9423 824 61.1153 196.102 285.978
498 0 62.0542 18.0326 1119 56.1787 196.462 285.366
499 0 62.0481 12.6192 783 62.9553 195.918 283.563
500 0 66.0407 15.1422 1000 59.619 195.279 282.261
501 0 67.0388 13.1267 880 61.792 195.466 281.431
502 0 70.1135 12.9219 906 61.3046 196.076 280.978
503 0 74.1666 13.6989 1016 60.6476 196.239 278.882
504 0 77.0846 12.5057 964 61.9284 196.077 277.874
505 0 79.1022 13.4004 1060 60.9991 195.659 275.946
506 0 81.0742 13.1608 1067 61.2709 195.435 275.759
507 0 85.1657 13.2683 1130 60.9239 195.58 274.069
508 0 87.1213 14.3248 1248 59.5497 196.036 274.76
509 1 46.0115 12.4969 575 59.72 197.075 293.976
510 0 49.0266 12.1771 597 60.3283 196.787 292.243
511 0 51.0764 13.0001 664 59.2184 196.726 290.538
512 0 51.1753 13.7176 702 58.688 196.662 289.417
513 0 53.0724 11.5314 612 61.1634 197.139 290.196
514 0 56.0334 13.0815 733 59.487 196.874 288.37
515 0 56.0555 13.5045 757 58.9762 197.338 289.199
516 0 59.0527 13.9875 826 59.3475 196.562 286.89
517 0 61.0979 13.1756 805 60.9727 196.755 285.378
518 0 64.0247 15.3535 983 58.2065 196.434 285.373
519 0 64.0567 12.2079 782 62.2174 195.96 282.116
520 0 66.0429 12.4313 821 62.4421 196.212 280.862
521 0 69.0669 12.915 892 61.8554 196.456 280.446
522 0 73.063 14.3712 1050 60.019 195.392 279.417
523 0 75.0698 14.2934 1073 60.3327 195.641 278.91
524 0 77.1094 13.4355 1036 61.6834 195.726 276.637
525 0 77.1689 13.8916 1072 61.9795 195.843 276.019
526 0 82.1892 14.6005 1200 60.3342 195.593 274.092
527 0 84.096 13.0922 1101 62.1081 195.858 274.132
528 0 90.1088 15.5701 1403 58.9722 196.045 271.83
529 1 48.0617 12.6504 608 61.1464 196.822 289.388
530 0 52.1349 11.8922 620 61.1839 197.34 289.894
531 0 50.1036 10.4583 524 63.3893 196.252 288.74
532 0 53.0503 14.0621 746 60.004 196.509 285.845
533 0 57.0472 12.0427 687 61.4047 196.745 285.475
534 0 58.0293 15.1648 880 57.3216 197.127 287.007
535 0 59.1255 13.7335 812 59.697 196.787 284.913
536 0 62.1393 14.5801 906 57.9912 196.852 284.518
537 0 64.1127 13.601 872 59.789 196.858 282.796
538 0 65.0739 12.3859 806 61.4243 196.462 280.298
539 0 69.2043 13.1495 910 60.0912 196.255 279.399
540 0 73.1525 13.9571 1021 58.2331 196.458 279.83
541 0 74.0811 13.6742 1013 59.234 196.317 276.442
542 0 78.0637 13.489 1053 58.5499 196.23 277.313
543 0 79.1168 12.8544 1017 59.9194 196.341 274.57
544 0 83.1672 12.3606 1028 59.6839 196.044 275.878
545 0 88.3881 14.1082 1247 57.9038 195.769 271.251
546 0 88.0608 12.7298 1121 60.0856 195.909 269.467
547 0 91.1344 12.0152 1095 60.5963 195.64 269.617
548 0 97.1253 13.8069 1341 57.8061 195.576 269.033
549 0 101.183 18.1059 1832 51.3886 195.85 260.41
550 1 55.0809 14.978 825 55.3818 196.636 287.959
551 0 61.2346 15.1058 925 53.0389 197.145 290.641
552 0 57.1168 12.9734 741 58.5304 196.928 285.329
553 0 62.0843 12.6119 783 58.2695 196.682 283.596
554 0 61.0957 12.7505 779 57.9589 196.504 284.501
555 0 65.0957 12.8119 834 57.8873 196.773 282.164
556 0 69.1516 14.2441 985 55.9431 196.751 280.524
557 0 68.0687 13.0456 888 58.2646 196.681 277.899
558 0 72.1834 14.3385 1035 55.6203 196.324 279.754
559 0 73.0833 12.4926 913 58.1139 196.424 277.355
560 0 75.2111 12.7242 957 57.7377 196.153 277.58
561 0 78.1523 13.077 1022 57.6928 195.882 274.769
562 0 82.2339 14.4709 1190 55.7731 196.387 275.889
563 0 85.193 13.1818 1123 57.2093 195.895 272.814
564 0 85.181 15.4025 1312 55.7386 196.169 271.043
565 1 50.156 11.8032 592 58.8294 196.297 287.191
566 0 52.1327 16.4772 859 54.0873 195.909 287.222
567 0 52.0858 12.9978 677 57.3663 196.109 286.901
568 0 57.1131 14.0948 805 55.8174 196.347 284.691
569 0 59.2548 13.4673 798 56.0038 196.229 285.138
570 0 59.1533 12.7634 755 57.5921 196.485 283.649
571 0 63.2226 14.0298 887 55.2999 196.776 284.552
572 0 60.1079 13.2096 794 57.3174 196.659 283.877
573 0 68.1703 13.8917 947 55.9926 196.108 280.573
574 0 69.2759 14.8681 1030 55.0311 196.563 279.353
575 0 68.0911 12.6595 862 58.4455 196.059 276.644
576 0 69.2221 12.8427 889 58.5152 196.164 273.935
577 0 78.1907 17.0736 1335 52.0337 196.71 279.278
578 0 78.1986 13.4146 1049 56.3575 196.42 277.374
579 0 81.1513 15.009 1218 54.5854 196.786 277.185
580 0 85.311 13.2808 1133 56.5137 196.628 274.44
581 0 86.1262 13.19 1136 57.162 196.79 272.752
582 0 88.271 13.9344 1230 57.3569 196.55 266.704
583 1 48.1432 11.6943 563 58.3606 196.488 288.204
584 0 54.3178 13.2553 720 54.8514 196.506 289.229
585 0 55.2272 12.2947 679 57.1296 196.106 286.103
586 0 54.1092 15.3578 831 54.012 195.921 285.477
587 0 55.1822 14.3706 793 55.377 196.121 284.625
588 0 58.1273 12.1114 704 56.6818 196.178 285.591
589 0 61.2475 12.0331 737 57.7788 196.156 282
590 0 64.2399 13.8543 890 55.1899 196.319 282.788
591 0 64.2035 14.0024 899 56.0111 196.069 280.575
592 0 67.1943 12.9773 872 57.0562 196.212 278.283
593 0 72.5519 15.7956 1146 53.3656 195.89 278.192
594 0 75.2616 15.2136 1145 53.9817 196.391 277.541
595 0 74.1018 14.8444 1100 55.6227 196.225 273.83
596 0 77.1909 13.3435 1030 56.9029 196.252 274.073
597 0 80.1904 13.8795 1113 56.7305 195.998 271.36
598 0 84.2629 16.1518 1361 53.8082 195.992 275.622
599 0 85.2631 14.2031 1211 56.7209 196.011 271.509
600 0 89.2053 14.2929 1275 56.8439 195.72 269.092
601 0 92.3562 15.3428 1417 56.259 196.635 266.175
602 0 97.2961 17.2874 1682 53.5196 196.35 267.495
603 0 99.2231 23.0088 2283 48.2589 196.115 260.932
604 1 55.2546 13.8088 763 55.7392 195.984 283.174
605 0 59.1637 13.3528 790 55.8127 196.476 284.216
606 0 61.1217 13.6449 834 55.7842 196.855 284.218
607 0 61.153 11.7737 720 58.2208 196.103 280.81
608 0 63.2098 12.0393 761 58.3009 196.427 278.46
609 0 64.157 13.389 859 57.7707 196.827 277.529
610 0 68.1471 12.5024 852 57.4718 196.548 278.511
611 0 72.1452 13.057 942 57.3355 196.539 276.965
612 0 71.1964 13.2731 945 57.3778 196.146 277.713
613 0 74.157 14.1187 1047 56.8548 195.928 274.238
614 0 75.0821 12.4663 936 58.8397 196.125 273.956
615 0 78.2814 13.2854 1040 57.9346 196.178 270.175
616 0 84.161 13.4148 1129 57.8645 196.041 270.612
617 0 86.1407 12.9788 1118 58.4848 195.746 268.706
618 0 88.0984 17.8664 1574 47.0667 195.306 269.654
619 0 89.2904 12.6777 1132 59.9417 196.198 266.381
620 0 95.16 13.6087 1295 58.6386 195.082 266.271
621 0 97.1152 14.8792 1445 57.9232 195.347 264.51
622 0 101.117 13.7662 1392 58.8743 195.305 263.055
623 0 107.43 20.4412 2196 51.2951 195.361 260.949
624 0 108.279 20.0039 2166 52.6302 195.267 255.646
625 0 112.248 17.1406 1924 55.4922 194.958 255.898
626 1 67.3056 11.9604 805 59.4099 195.706 277.768
627 0 69.2068 13.0623 904 58.5575 195.712 274.746
628 0 73.1654 10.3738 759 60.527 196.076 278.884
629 0 76.1181 13.0061 990 58.6949 195.281 274.485
630 0 77.1326 12.7961 987 59.4225 195.152 271.928
631 0 79.2791 13.6858 1085 58.6433 195.313 270.851
632 0 82.3457 12.9697 1068 58.6301 194.903 272.496
633 0 87.1565 14.4223 1257 57.1376 195.258 269.691
634 0 90.1392 14.4998 1307 57.1653 195.088 267.42
635 0 91.0908 11.2196 1022 60.6272 195.73 269.656
636 0 95.1218 13.8139 1314 58.5845 195.916 264.164
637 0 95.2245 12.5703 1197 60.5931 195.706 262.017
638 0 100.193 13.0348 1306 59.5896 196.277 262.252
639 0 106.093 14.9491 1586 57.2951 196.785 259.792
640 0 110.171 13.3339 1469 58.7931 196.296 258.272
641 0 119.146 20.0762 2392 51.1522 196.158 248.587
642 0 116.126 14.6478 1701 57.0212 196.419 253.725
643 0 119.167 14.744 1757 57.1616 195.814 250.811
644 1 73.0706 11.7968 862 58.0824 196.616 276.741
645 0 73.0488 11.1432 814 59.8182 195.628 274.711
646 0 78.1028 13.3286 1041 57.4822 195.051 273.286
647 0 81.1154 14.091 1143 56.4287 195.475 273.616
648 0 82.1349 14.7197 1209 56.038 194.578 272.348
649 0 83.0529 12.9676 1077 58.5432 195.381 270.714
650 0 87.1212 13.464 1173 56.9787 195.094 271.586
651 0 91.2173 13.7035 1250 56.896 194.632 269.75
652 0 93.0764 12.1406 1130 59.3858 194.55 266.019
653 0 97.1364 12.6317 1227 59.5037 194.746 262.049
654 0 100.134 13.3021 1332 57.967 195 265.736
655 0 109.304 15.3609 1679 55.4133 194.39 257.307
656 0 112.131 17.7827 1994 53.5998 194.854 254.841
657 0 114.115 14.6694 1674 57.5705 195.416 253.828
658 0 118.267 16.4881 1950 56.0928 194.257 250.027
659 1 66.0878 10.7887 713 59.6101 194.338 278.711
660 0 70.1176 12.9212 906 57.9768 194.706 275.728
661 0 71.135 12.2724 873 58.9931 194.394 276.218
662 0 76.0643 12.4763 949 58.0927 194.166 275.638
663 0 76.1181 12.1522 925 59.3092 194.902 273.006
664 0 80.2019 12.3813 993 58.993 194.8 270.763
665 0 81.1955 12.6854 1030 58.765 194.633 272.075
666 0 86.2292 13.4409 1159 57.8266 194.597 270.45
667 0 88.2697 12.3598 1091 58.8937 195.181 271.433
668 0 90.2419 12.943 1168 59.3228 195.182 268.288
669 0 92.1628 11.5339 1063 60.6999 195.475 269.453
670 0 95.1838 13.0484 1242 59.7238 195.396 263.626
671 0 98.1578 13.6311 1338 58.6689 194.774 265.137
672 1 66.0767 6.58326 435 61.8805 195.598 283.821
673 0 65.0889 9.44861 615 60.1772 195.359 280.033
674 0 70.1611 13.0699 917 56.3261 195.489 280.692
675 0 66.1334 13.004 860 57.0267 194.962 279.829
676 0 66.1776 11.7411 777 60.0811 194.745 275.425
677 0 68.2178 11.5073 785 60.7427 194.759 275.211
678 0 74.1199 13.5456 1004 58.007 193.604 273.995
679 0 75.1878 12.5685 945 58.491 194.584 277.36
680 0 75.171 12.1323 912 59.5351 195.001 276.314
681 0 77.1821 14.2391 1099 58.3385 194.933 270.968
682 0 81.1107 13.4507 1091 58.5454 194.896 273.65
683 0 83.1876 13.8843 1155 58.71 194.79 271.223
684 0 87.2177 13.8619 1209 58.512 194.629 271.826
685 0 88.0982 12.679 1117 60.5157 194.573 269.492
686 0 90.2407 11.9569 1079 61.6358 194.311 267.492
687 0 93.0995 11.2353 1046 62.0019 195.108 269.106
688 0 98.1417 13.1443 1290 60.8155 194.885 262.75
689 0 98.1105 11.7113 1149 63.0966 195.016 261.788
690 0 105.149 18.935 1991 53.778 195.424 260.513
691 0 104.18 14.7821 1540 59.5071 194.965 255.697
692 0 110.166 16.4661 1814 56.9493 195.098 257.947
693 0 116.402 21.1852 2466 52.3305 194.831 253.269
694 1 71.1045 12.9246 919 59.4168 195.198 277.699
695 0 73.0672 12.2353 894 61.1365 195.584 276.988
696 0 75.1049 12.9685 974 59.9928 195.394 276.162
697 0 77.4119 13.6671 1058 58.9792 195.009 275.255
698 0 77.263 13.2275 1022 60.6566 195.51 273.127
699 0 81.3151 14.3639 1168 59.1036 195.342 272.3
700 0 84.202 12.5769 1059 61.6544 195.908 269.616
701 0 87.1549 13.4817 1175 59.7149 196.355 271.707
702 0 89.2848 13.5521 1210 61.1182 196.041 265.214
703 0 91.1666 14.117 1287 60.1834 195.858 268.326
704 0 95.233 13.3672 1273 60.9034 195.472 267.705
705 0 96.1395 14.1565 1361 61.0794 195.139 261.04
706 0 102.224 14.1356 1445 59.9772 193.947 264.331
707 0 104.229 12.9522 1350 62.2659 195.039 260.725
708 0 109.17 13.8499 1512 60.1336 194.829 261.253
709 0 112.082 14.4804 1623 60.2951 195.285 256.623
710 1 65.0935 11.1532 726 61.5041 195.019 278.679
711 0 67.0909 14.0407 942 57.1221 194.475 273.9
712 0 68.0987 12.9812 884 59.4864 194.468 274.104
713 0 70.0552 13.161 922 59.679 194.274 273.034
714 0 72.1044 13.633 983 59.3469 194.513 273.232
715 0 74.0782 13.4588 997 58.6479 194.073 274.465
716 0 77.2332 12.404 958 60.7808 193.941 270.82
717 0 80.1068 13.5944 1089 59.2975 193.412 269.831
718 0 82.1631 13.4124 1102 60.2087 193.951 267.945
719 0 84.1759 13.9707 1176 59.7355 194.487 267.898
720 0 88.2226 14.9622 1320 58.4545 194.664 264.101
721 0 91.4553 14.8925 1362 58.3649 195.113 264.038
722 0 93.1413 13.4634 1254 60.1539 195.595 263.542
723 0 93.1367 13.4963 1257 61.1297 195.291 260.462
724 0 98.1757 15.8899 1560 57.7942 195.253 260.653
725 0 102.28 16.1908 1656 56.8025 194.961 256.178
726 0 105.243 17.4833 1840 55.7614 195.566 253.907
727 0 107.321 15.1694 1628 58.4152 195.313 253.437
728 1 64.1824 10.8597 697 61.99 195.32 277.684
729 0 65.084 13.5824 884 60.009 194.655 275.355
730 0 66.1965 12.4478 824 61.7549 195.09 276.246
731 0 70.2562 14.6464 1029 59.8698 195.615 273.824
732 0 73.2437 12.9567 949 61.6617 195.477 273.009
733 0 74.0517 15.3271 1135 59.8581 195.982 272.262
734 0 74.0745 14.7959 1096 61.0465 195.717 269.555
735 0 78.2007 14.1175 1104 61.1839 195.666 270.923
736 0 79.0975 12.2507 969 63.8978 195.576 269.615
737 0 82.2124 13.7327 1129 62.8937 195.366 264.718
738 0 82.1111 13.7253 1127 63.5129 195.661 263.287
739 0 86.2476 14.6323 1262 61.6537 195.794 265.548
740 0 90.1552 15.5842 1405 60.5324 195.431 265.113
741 0 91.1448 14.263 1300 62.4885 195.014 264.477
742 0 94.0667 12.523 1178 64.7861 194.992 261.356
743 0 96.1684 13.7155 1319 64.1092 194.802 258.953
744 0 101.158 15.1051 1528 61.7186 194.98 259.455
745 1 121.419 21.2982 2586 51.546 194.308 243.98
746 0 113.225 18.8032 2129 56.6989 194.73 249.463
747 0 113.155 16.3404 1849 60.1833 194.872 251.551
748 0 113.106 14.6146 1653 63.0762 194.878 250.263
749 1 67.0656 8.46932 568 66.1197 194.699 276.875
750 0 69.109 11.4602 792 64.5732 195.027 271.6
751 0 74.1994 12.6686 940 62.5628 195.916 273.268
752 0 74.059 13.6108 1008 61.754 195.459 271.881
753 0 75.1888 11.6241 874 64.0023 195.566 270.84
754 0 79.1396 12.459 986 63.284 195.579 269.91
755 0 81.1277 12.3755 1004 63.6753 195.311 268.472
756 0 86.157 14.9495 1288 60.6568 195.482 267.311
757 0 86.0579 11.4342 984 65.5488 195.539 265.371
758 0 91.4041 13.6537 1248 62.742 195.142 263.337
759 0 96.3183 13.8499 1334 62.1679 195.305 264.046
760 0 97.1321 13.0338 1266 63.2828 195.006 263.859
761 0 101.192 14.3095 1448 62.2023 195.241 260.868
762 0 105.32 14.0809 1483 62.4295 194.98 259.957
763 1 58.1739 10.1592 591 62.3587 195.692 281.267
764 0 57.0991 12.0317 687 61.1383 195.857 279.734
765 0 61.1848 11.8657 726 60.8678 196.371 280.693
766 0 65.2443 12.5988 822 58.8455 196.169 281.45
767 0 65.5291 12.4525 816 60.1458 196.081 277.768
768 0 68.2594 12.6722 865 60.4081 195.339 276.809
769 0 68.1636 12.514 853 61.3576 195.501 275.359
770 0 71.2417 12.0014 855 60.931 195.629 275.712
771 0 75.4197 13.9751 1054 58.7381 195.478 272.36
772 0 77.4115 12.9051 999 59.7487 195.11 272.086
773 0 81.2389 14.9436 1214 57.7142 195.469 270.024
774 0 84.2164 13.311 1121 59.0544 195.196 270.721
775 0 85.3041 11.7228 1000 61.173 194.616 269.364
776 0 90.2065 14.4446 1303 58.4697 194.919 266.015
777 0 94.2749 13.5879 1281 59.4075 194.133 264.429
778 0 94.2997 12.1421 1145 62.0262 193.765 263.219
779 0 99.2325 13.5036 1340 60.2478 194.304 260.489
780 0 102.108 12.7708 1304 60.8719 193.993 260.294
781 0 106.286 13.1249 1395 60.6581 194.577 257.184
782 0 111.395 15.2161 1695 58.0867 194.971 257.349
783 0 115.407 14.0547 1622 59.3379 195.557 255.35
784 0 121.327 19.328 2345 53.1352 195.605 242.917
785 0 123.358 15.5483 1918 57.7372 195.141 244.836
786 1 71.2003 10.8567 773 59.6688 195.533 273.571
787 0 74.3322 12.4172 923 58.6761 195.754 273.294
788 0 82.3375 14.2462 1173 55.5388 195.361 272.645
789 0 78.1982 12.2765 960 58.2312 195.342 272.089
790 0 83.273 12.9694 1080 57.0269 195.369 268.955
791 0 87.2804 13.5311 1181 56.2693 195.409 265.658
792 0 91.3645 12.2586 1120 57.5634 195.384 265.571
793 0 94.1495 14.5088 1366 55.6669 195.554 262.225
794 0 96.2532 12.8931 1241 57.4891 194.828 262.421
795 0 100.147 13.7997 1382 57.0847 194.684 256.46
796 0 104.176 13.1796 1373 57.7495 194.752 258.004
797 0 109.19 13.014 1421 57.3399 194.652 257.138
798 0 110.206 13.7924 1520 56.3533 194.363 253.01
799 0 118.207 17.7317 2096 51.9752 195.005 248.905
800 0 123.239 19.1659 2362 50.4022 194.347 245.695
801 1 22.0739 12.7753 282 47.8369 195.957 297.174
802 0 20.0034 8.19861 164 51.5793 196.994 298.165
803 0 23.0198 9.77418 225 48.9911 197.062 299.244
804 0 24.0562 11.099 267 46.9401 196.839 299.004
805 0 22.0066 7.67953 169 51.2012 196.716 298.568
806 0 18.0114 8.49464 153 50.366 196.752 299.529
807 0 20.0167 9.64195 193 48.8705 196.363 299.927
808 0 19.0047 11.4709 218 48.0092 195.931 298.716
809 0 20.0323 9.38484 188 50.3245 195.154 299.032
810 0 22.0193 11.5808 255 47.9176 195.902 298.788
811 0 22.0101 9.26846 204 49.348 195.294 300.167
812 0 22.0845 11.1843 247 49.9393 195.413 297.344
813 0 25.0133 9.67484 242 49.8636 195.393 298.248
814 0 22.0317 11.4835 253 49.5336 196.474 297.992
815 0 22.0314 8.76022 193 52.0984 196.311 296.606
816 0 24.006 8.20627 197 51.6041 196.538 296.492
817 0 25.0362 11.1039 278 49.2842 196.716 292.658
818 0 25.0043 8.19859 205 51.5366 196.415 296.629
819 0 24.1505 9.27518 224 51.4241 197.129 299.188
820 0 28.0751 8.61975 242 51.1281 196.893 298
821 0 26.0356 12.5981 328 48.9085 196.22 297.168
822 0 26.0051 10.9979 286 49.2692 195.129 297.643
823 0 26.0119 12.9172 336 46.881 194.92 299.366
824 0 26.0482 12.1314 316 48.5823 195.576 298
825 0 27.0669 8.42358 228 52.0526 194.877 297.439
826 0 25.0703 10.0916 253 50.7787 194.636 297.399
827 0 27.0645 10.4196 282 50.9326 194.858 297
828 0 27.0496 11.8671 321 50.3458 195.243 296.234
829 0 24.004 9.45675 227 52.0837 195.251 295.877
830 0 24.009 7.37224 177 53.2712 194.904 296.655
831 0 27.0109 10.5883 286 49.6958 195.773 297.056
832 0 28.1093 11.4909 323 49.3127 194.598 295.721
833 0 27.0478 10.3521 280 50.8179 194.518 295.754
834 0 25.0455 9.82212 246 52.0407 195.858 296.472
835 0 27.026 10.1014 273 50.4652 195.619 297.249
836 0 30.1335 9.78977 295 50.7831 196.01 295.851
837 0 27.0428 9.87322 267 51.8165 195.682 294.993
838 0 27.0138 10.6982 289 50.9619 195.775 296.533
839 0 25.0917 8.72799 219 52.5434 195.42 295.84
840 0 28.0714 12.2188 343 48.4227 196.137 296.376
841 0 28.076 10.3647 291 50.1375 195.502 295.845
842 0 26.06 8.48045 221 53.2579 195.783 296.652
843 0 30.0512 12.5785 378 49.537 195.82 296.344
844 0 27.0155 10.1053 273 52.5934 196.165 297.256
845 0 29.0498 10.6025 308 52.7695 196.302 296.328
846 0 31.0251 12.7639 396 50.5126 196.455 295.657
847 0 30.0375 10.7199 322 51.8634 195.733 297.065
848 0 28.0176 11.5998 325 53.9446 195.717 293.08
849 0 29.0206 9.13145 265 54.8377 196.664 296.204
850 0 29.0204 10.2686 298 55.5235 195.789 294.762
851 0 33.0146 11.7221 387 52.2636 194.63 295.54
852 0 31.0082 8.70738 270 56.0704 194.833 295.441
853 0 31.0564 10.7224 333 53.5856 195.733 294.255
854 0 31.0955 15.0825 469 50.3902 195.569 293.915
855 0 34.0202 11.4638 390 53.2769 195.2 292.6
856 0 34.0329 10.196 347 53.9568 195.326 294.879
857 0 33.0496 8.98649 297 56.2929 195.323 294.492
858 0 37.0807 11.6503 432 53.3542 195.162 293.924
859 0 37.0099 11.0241 408 55.1348 195.632 293.1
860 0 35.0217 10.0795 353 57.4618 195.3 292.442
861 0 37.1985 11.1832 416 55.1611 194.512 291.882
862 0 35.0522 10.5557 370 56.1351 194.689 292.508
863 0 38.1114 11.9649 456 53.9101 194.704 292.629
864 0 37.0291 11.3154 419 55.8067 195.871 292.241
865 0 38.0179 13.0202 495 55.703 196.202 289.41
866 0 38.0379 11.3308 431 57.3759 196.343 290.854
867 0 38.056 9.22325 351 59.5556 195.778 291.994
868 0 39.0707 10.1355 396 57.5934 195.896 292.881
869 0 39.0983 10.2051 399 59.4185 195.326 291.431
870 0 41.2014 12.1112 499 56.8136 195.804 292.381
871 0 40.1062 12.8409 515 58.7864 196.012 287.449
872 0 40.1569 11.0068 442 60.6222 195.824 288.072
873 0 42.1994 11.5405 487 60.1253 195.899 268.581
874 0 43.1612 12.0015 518 60.0676 195.902 265.002
875 0 41.3085 12.9998 537 60.4544 196.028 264.279
876 0 41.3215 12.1486 502 60.3207 196.171 267.978
877 0 39.106 13.1438 514 60.9786 196.479 265.584
878 0 39.1235 13.7258 537 60.0112 196.143 266.508
879 0 39.1686 11.4377 448 62.1987 196.781 268.125
880 0 40.1706 11.7997 474 62.0042 195.751 267.357
881 0 41.0951 10.9502 450 62.5689 195.889 268.7
882 0 41.0993 13.6985 563 59.4263 196.43 270.657
883 0 41.1119 11.87 488 61.6107 196.488 271.512
884 0 43.1866 13.0596 564 59.8138 196.399 273.2
885 0 39.0618 12.2114 477 62.8239 196.285 274.243
886 0 41.1665 13.5547 558 59.9014 196.674 278
887 0 37.1614 10.1987 379 64.9947 197.24 280.409
888 0 38.1443 11.6662 445 62.3798 196.647 284.146
889 0 37.0787 12.1094 449 62.1982 196.43 287.363
890 0 37.1384 12.6015 468 60.7073 196.338 285.716
