time division length width area intensity CMx CMy
0 0 48.0398 12.5313 602 59.9552 432.243 524.882
1 0 48.0574 12.4434 598 60.3813 431.741 525.336
2 0 49.0444 12.56 616 60.099 432.739 525.213
3 0 50.0955 12.7556 639 59.277 431.743 526.103
4 0 50.1146 12.3317 618 60.4256 431.935 525.036
5 0 52.0582 11.6792 608 60.977 431.161 524.586
6 0 55.0814 14.288 787 57.9301 431.536 521.983
7 0 55.0308 12.4839 687 60.0466 431.643 522.885
8 0 55.0622 13.7844 759 58.8551 431.267 524.468
9 0 59.0393 15.0408 888 56.5236 430.699 523.35
10 0 58.0593 12.9006 749 59.9987 431.826 522.541
11 0 58.1131 12.8715 748 60.6444 431.06 522.874
12 0 61.1129 13.8269 845 59.2544 431.434 521.711
13 0 61.0649 12.4294 759 60.8841 431.557 521.531
14 0 63.045 12.3404 778 61.2455 431.95 520.195
15 0 64.104 12.2457 785 61.4701 431.829 520.6
16 0 66.0686 13.1833 871 60.6843 432.021 519.703
17 0 67.1467 13.061 877 60.5051 431.633 520.692
18 0 70.0717 12.9867 910 61.2835 431.551 517.847
19 0 71.0359 13.9366 990 60.5455 431.455 515.108
20 0 74.1223 14.0983 1045 60.5359 431.961 516.53
21 0 76.1576 13.4064 1021 61.6915 431.759 512.886
22 0 76.1285 11.7433 894 64.16 431.746 515.025
23 0 79.0989 11.5931 917 64.1974 431.025 514.436
24 0 84.0832 11.9287 1003 64.1426 431.132 512.404
25 0 85.0876 13.492 1148 62.8432 430.397 509.275
26 1 43.0269 10.6445 458 67.8493 431.253 528.1
27 0 47.0568 11.5605 544 66.0018 430.798 528.099
28 0 49.0442 13.2126 648 64.1806 430.853 527.71
29 0 51.0447 12.2833 627 65.3286 430.748 526.512
30 0 52.0513 12.8719 670 65.6507 431.009 525.322
31 0 52.0336 10.7238 558 68.3047 430.815 526.964
32 0 52.0701 11.3693 592 67.8868 430.253 524.938
33 0 55.0158 11.1968 616 67.474 431.442 526.24
34 0 56.0347 11.475 643 67.3515 431.235 525.171
35 0 58.0247 10.0647 584 69.6301 431.267 524.334
36 0 60.0774 11.0524 664 67.9774 432.492 522.446
37 0 62.0651 12.0035 745 68.0403 431.664 519.133
38 0 65.0462 11.6071 755 68.3245 432.146 521.026
39 0 66.044 11.2804 745 68.9007 432.319 519.204
40 0 69.097 11.824 817 68.355 432.142 518.723
41 0 72.0582 12.1846 878 68.4624 431.784 517.196
42 0 74.0706 11.3945 844 70.0344 432.474 515.884
43 0 74.0738 11.8125 875 70.112 432.72 514.378
44 1 39.1057 11.7886 461 66.4577 432.28 534.05
45 0 41.0502 9.7198 399 69.8296 431.972 533.529
46 0 41.0404 10.38 426 68.2277 432.608 535.784
47 0 43.0445 13.0795 563 66.3552 432.595 531.654
48 0 42.0414 12.1071 509 68.9273 432.377 530.668
49 0 44.0388 9.7414 429 71.0769 432.012 530.914
50 0 48.0668 11.6712 561 67.2763 432.276 530.622
51 0 47.0378 11.714 551 68.4156 432.55 528.771
52 0 50.028 13.0727 654 65.8303 432.358 528.771
53 0 51.0482 12.4392 635 66.6992 432.009 528.491
54 0 53.091 11.565 614 67.6384 431.881 526.901
55 0 53.011 12.8841 683 66.877 431.17 524.915
56 0 56.0519 12.0602 676 66.8077 432.157 525.956
57 0 57.0648 12.5822 718 66.3426 432.026 524.781
58 0 59.088 10.1882 602 68.8073 432.321 524.832
59 0 61.0586 11.3006 690 68.9058 432.148 521.31
60 0 64.0245 12.0891 774 67.2881 431.779 520.88
61 0 65.0878 11.8916 774 67.7403 431.972 521.275
62 0 68.0704 12.3108 838 67.0907 431.717 520.35
63 0 69.0554 12.4393 859 67.4307 432.542 517.208
64 0 72.042 13.2006 951 66.3849 432.087 517.699
65 0 74.0563 11.4913 851 69.2068 432.222 515.893
66 0 78.1201 13.0568 1020 66.8824 432.293 515.318
67 1 39.0676 11.9281 466 68.0944 432.258 532.127
68 0 43.0435 10.9657 472 67.8941 431.625 532.066
69 0 43.0321 9.87636 425 69.9553 431.765 532.515
70 0 45.0386 11.5235 519 68.8054 432.008 530.023
71 0 46.0707 11.1568 514 69.3774 431.691 530.698
72 0 47.0511 12.242 576 68.7309 431.757 527.78
73 0 48.0939 10.0429 483 71.4286 432.137 528.93
74 0 49.0238 11.9942 588 69.8639 432.258 526.942
75 0 51.0269 11.7193 598 69.995 433.388 525.95
76 0 54.031 11.5859 626 69.4728 432.837 525.267
77 0 54.0671 11.6892 632 70.1155 432.146 524.16
78 0 57.0658 12.0738 689 68.9463 432.189 522.673
79 0 57.0948 12.0501 688 69.8154 432.81 521.427
80 0 60.0511 12.3062 739 68.6604 432.852 521.248
81 0 62.1673 13.4798 838 66.3365 433.154 521.994
82 0 64.0373 12.196 781 68.2036 432.53 519.251
83 0 65.0381 11.7008 761 68.7096 432.753 519.084
84 0 69.0415 11.7466 811 68.0863 433.02 519.164
85 0 70.1018 12.9954 911 66.3172 432.797 517.278
86 0 71.0646 10.9619 779 69.1682 433.451 515.791
87 0 73.0811 12.3561 903 67.485 433.468 515.817
88 0 76.0665 12.6337 961 66.5359 433.87 515.464
89 0 78.0937 10.8203 845 68.9953 432.667 513.321
90 0 80.0839 12.7991 1025 66.8644 433.302 512.807
91 0 80.0964 11.586 928 69.1444 433.397 509.945
92 0 83.0714 10.6535 885 70.1718 433.014 508.477
93 0 87.1163 13.2696 1156 66.3581 432.734 507.782
94 0 88.0246 13.1213 1155 66.5316 432.956 509.95
95 0 90.0828 11.6892 1053 68.3761 432.524 507.464
96 0 93.0706 12.2165 1137 67.7344 432.398 505.58
97 0 97.2209 12.3327 1199 67.2194 432.765 503.452
98 0 101.174 13.9067 1407 64.99 432.633 503.35
99 0 103.185 13.1415 1356 66.1091 432.176 500.345
100 1 57.0792 11.8607 677 64.5377 432.95 524.23
101 0 58.0262 11.5293 669 65.7339 432.009 521.726
102 0 59.0555 11.8025 697 65.2568 432.372 520.66
103 0 59.0404 12.3136 727 64.9587 432.373 518.338
104 0 62.1328 11.7168 728 65.3626 432.543 520.482
105 0 62.0887 11.1292 691 66.5861 432.576 519.359
106 0 65.0274 11.6105 755 65.2106 431.968 518.229
107 0 68.0523 12.99 884 63.5475 432.825 517.819
108 0 68.0833 12.0441 820 65.1159 433.282 515.462
109 0 70.0407 12.0501 844 65.3969 433.173 516.136
110 0 72.0285 13.5224 974 63.8593 432.637 515.261
111 0 73.0631 11.5106 841 67.1308 432.214 512.447
112 0 76.0702 10.7269 816 68.0846 433.276 510.434
113 0 79.0817 11.937 944 66.7881 433.287 510.365
114 1 42.0726 11.908 501 63.5868 432.792 528.19
115 0 42.074 10.1488 427 66.6862 433.176 529.258
116 0 43.0143 11.3683 489 66.8384 433.315 525.575
117 0 45.0307 11.5477 520 66.3 433.429 524.773
118 0 46.0132 10.6708 491 68.4623 433.051 524.385
119 0 47.017 10.5494 496 68.7742 433.262 525.288
120 0 48.0558 11.5699 556 67.4928 432.838 522.664
121 0 51.0994 10.959 560 67.6196 432.116 522.893
122 0 53.0295 12.3139 653 65.8882 432.297 521.541
123 0 53.016 10.6194 563 68.3996 433.107 521.501
124 0 55.051 11.0988 611 66.9214 432.712 522.448
125 0 56.0289 11.4584 642 66.285 431.774 523.037
126 0 57.0712 12.5107 714 66.2647 431.454 518.507
127 0 60.0538 10.5739 635 67.8425 432.301 519.532
128 0 59.046 10.06 594 69.7441 433.577 517.827
129 0 63.0862 10.9374 690 67.9826 433.283 516.886
130 0 66.0856 12.7259 841 65.7027 432.262 515.744
131 0 68.1135 12.4204 846 65.3392 432.671 516.168
132 0 70.108 10.7548 754 67.8634 433.259 514.789
133 0 72.0301 11.4258 823 67.4119 433.401 514.903
134 0 72.1609 10.8646 784 68.264 432.927 513.714
135 0 76.0894 11.8413 901 66.8757 433.223 512.953
136 1 37.0316 7.99317 296 68.5473 433.277 530.872
137 0 38.0276 9.17755 349 66.0659 433.332 531.361
138 0 41.0134 11.6303 477 63.1971 433.277 529.671
139 0 42.0994 11.6629 491 63.9939 433.084 529.069
140 0 43.0281 10.4118 448 66.6942 433.761 526.034
141 0 43.0643 10.4959 452 66.8009 433.128 526.394
142 0 42.0579 9.74847 410 67.0878 433.451 527.305
143 0 47.0284 10.6319 500 65.784 432.112 527.174
144 0 47.0247 10.3137 485 66.7959 433.68 525.033
145 0 49.0902 10.8983 535 66.1794 433.355 522.936
146 0 51.0264 11.641 594 64.9916 433.295 523.182
147 0 50.0939 10.9993 551 66.6461 433.459 521.806
148 0 53.0512 10.8763 577 66.156 433.418 522.05
149 0 54.1101 11.4581 620 65.9952 433.348 519.527
150 0 57.0775 11.7735 672 65.4554 433.393 519.274
151 0 57.0872 11.859 677 66.1403 433.7 517.186
152 0 59.095 12.3868 732 65.3169 434.03 519.69
153 0 62.0973 12.1261 753 65.753 434.072 517.681
154 0 60.0669 10.2885 618 69.1537 433.602 516.236
155 0 67.1114 12.7996 859 64.1455 433.864 517.451
156 0 66.1077 10.9972 727 67.9546 434.169 515.074
157 0 69.0801 10.9293 755 67.5815 433.626 515.26
158 0 69.1109 10.664 737 68.9878 433.623 510.917
159 0 75.1173 12.7268 956 65.4404 433.386 510.209
160 0 76.1174 11.8764 904 67.6316 432.671 509.965
161 0 80.1108 12.0458 965 67.4477 432.782 509.091
162 0 81.11 11.6755 947 68.358 432.811 507.699
163 0 86.0755 11.6874 1006 67.826 432.723 507.563
164 1 43.0094 9.7188 418 66.6818 432.555 526.971
165 0 45.0332 10.4812 472 66.1589 433.271 527.136
166 0 47.0271 11.3126 532 64.9286 433.63 526.617
167 0 47.2102 8.9811 424 68.3443 433.175 526.965
168 0 47.1242 9.46435 446 69.0112 433.117 523.684
169 0 51.1116 9.99773 511 66.957 433.493 525.041
170 0 52.0279 10.4944 546 66.7802 433.484 524.163
171 0 54.0771 11.0028 595 66.005 432.506 523.618
172 0 54.0518 10.4714 566 66.7191 433.085 523.546
173 0 57.0947 11.3496 648 66.1343 433.123 520.75
174 0 57.0668 10.8645 620 66.7806 433.303 520.031
175 0 58.0339 9.99416 580 68.1655 432.453 518.722
176 0 60.0445 10.4756 629 67.3545 432.564 520.208
177 0 63.1832 10.1926 644 68.0093 432.211 517.724
178 0 63.0894 9.0031 568 68.9331 432.32 519.051
179 0 66.0565 11.3691 751 65.6378 433.622 518.573
180 0 68.1024 10.4402 711 67.1617 433.051 518.193
181 0 70.1477 10.093 708 68.7288 432.903 513.595
182 0 73.092 11.3282 828 66.8756 431.842 513.715
183 0 75.0929 9.78788 735 68.781 431.671 513.487
184 0 77.0604 9.23951 712 69.4649 431.299 512.621
185 0 81.0792 12.568 1019 65.3258 431.419 509.685
186 0 85.1554 12.7414 1085 64.8203 431.37 508.355
187 0 86.106 11.2303 967 67.6422 431.006 507.749
188 1 42.0436 10.7032 450 66.0267 430.804 529.029
189 0 44.0985 10.3858 458 66.3275 431.277 528.69
190 0 42.0189 11.1141 467 67.1585 431.411 526.966
191 0 44.0486 10.5565 465 67.4064 430.163 528.243
192 0 45.0667 11.0947 500 67.026 430.352 529.02
193 0 45.0205 10.0177 451 69.3415 430.441 527.772
194 0 47.041 11.9258 561 66.6381 429.775 528.488
195 0 49.1598 11.4728 564 66.7589 429.238 528.19
196 0 50.0577 11.8064 591 66.4619 430.479 528.008
197 0 51.1079 10.0963 516 69.2267 430.56 529.033
198 0 52.095 10.8264 564 68.7766 430.321 527.725
199 0 53.0962 10.8106 574 69.284 429.88 526.627
200 0 55.0721 11.603 639 67.0423 429.476 528.285
201 0 57.0652 13.1604 751 65.1917 428.96 526.571
202 0 58.1739 12.2048 710 66.9014 428.499 526.507
203 0 59.1384 12.1917 721 67.3689 428.449 526.2
204 0 60.2404 11.1553 672 69.6176 428.457 524.707
205 0 64.079 13.733 880 65.8352 428.299 522.047
206 0 66.1008 11.4219 755 69.0146 428.75 525.08
207 0 67.0872 11.6714 783 69.1852 429.098 524.754
208 0 69.1786 10.697 740 71.3324 428.673 522.162
209 1 36.0256 10.3815 374 68.1471 428.062 538.652
210 0 36.1064 10.1921 368 68.5842 427.497 538.989
211 0 38.0912 10.0286 382 67.9005 427.95 540.296
212 0 39.0651 10.8281 423 67.9764 428.047 539.088
213 0 40.0324 10.3666 415 69.5205 427.431 537.853
214 0 41.0789 10.0295 412 69.8301 427.07 538.9
215 0 41.0745 11.1748 459 69.2593 427.656 536.185
216 0 43.05 10.8943 469 69.0149 427.979 536.471
217 0 45.0366 11.5018 518 68.9691 426.375 534.585
218 0 44.0154 10.8598 478 69.795 426.785 535.655
219 0 47.0304 10.6952 503 68.0278 427.02 537.155
220 0 47.0375 11.1401 524 69.5897 426.223 534.363
221 0 48.0268 11.2229 539 69.8015 425.872 533.289
222 0 50.0216 9.85575 493 70.7424 426.903 534.152
223 0 52.0167 11.2079 583 68.9451 426.729 530.762
224 0 53.0414 10.784 572 69.1311 426.774 530.03
225 0 56.0792 11.2876 633 67.9273 426.502 529.502
226 0 55.0903 11.5628 637 68.7504 426.865 526.614
227 0 58.0665 10.3502 601 68.4376 427.131 528.639
228 0 57.1772 9.47931 542 70.1421 427.389 525.961
229 0 60.1067 10.4814 630 68.2571 427.732 524.654
230 0 62.0838 12.5314 778 65.2391 427.266 520.622
231 0 63.0518 9.73803 614 68.0147 427.883 523.651
232 0 65.1269 11.2242 731 66.1067 428.264 520.525
233 0 68.0977 12.0856 823 64.7436 427.708 519.136
234 0 69.1281 11.4136 789 65.161 426.848 518.972
235 0 71.0698 10.8907 774 65.7028 427.916 516.258
236 0 73.0644 11.6336 850 65.1024 428.068 514.313
237 0 75.1655 12.1066 910 64.1154 427.537 514.122
238 0 78.1395 11.2747 881 64.5766 427.299 515.093
239 0 80.0968 11.536 924 64.2543 428.254 515.584
240 0 80.2806 11.983 962 64.7921 427.834 510.006
241 0 83.1061 10.4325 867 65.5444 427.487 512.298
242 0 87.1648 11.6446 1015 63.8552 428.314 510.648
243 0 89.0868 10.6413 948 65.23 427.844 508.078
244 0 92.153 13.0652 1204 62.8397 427.464 504.217
245 0 94.217 10.4227 982 66.2424 428.692 504.687
246 0 96.1274 9.99715 961 66.0926 428.988 505.441
247 0 102.113 11.9084 1216 63.6982 428.715 502.711
248 1 49.0587 12.0264 590 61.2678 429.661 529.146
249 0 50.0466 9.67099 484 64.7273 428.719 528.521
250 0 51.071 10.7106 547 63.0896 428.377 527.85
251 0 54.0857 12.3138 666 59.7988 428.983 529.063
252 0 54.0286 12.4934 675 60.5111 428.671 526.788
253 0 56.0211 11.5849 649 61.6025 428.197 525.296
254 0 57.0359 10.6424 607 62.3163 428.43 527.603
255 0 58.051 10.4908 609 63.2184 428.791 526.856
256 0 60.0726 11.2198 674 62.4451 428.157 524.441
257 0 63.1457 12.3365 779 61.0359 428.884 522.57
258 0 62.1356 11.2979 702 62.9858 428.627 521.906
259 0 66.021 12.6324 834 60.753 428.096 522.962
260 0 71.0865 12.4778 887 60.3844 428.656 522.089
261 0 72.1524 11.739 847 61.4935 428.174 518.614
262 0 74.1039 12.2126 905 60.642 427.898 521.583
263 0 74.0276 9.76662 723 64.462 427.831 517.994
264 0 78.1264 11.7502 918 62.1057 427.934 515.303
265 0 83.0319 12.3326 1024 60.4863 427.19 515.2
266 0 86.0882 11.0236 949 61.7513 426.626 515.676
267 1 44.022 9.88143 435 62.3425 426.761 534.294
268 0 47.042 10.3312 486 61.4424 427.498 534.323
269 0 47.0704 11.4297 538 60.3494 427.203 532.877
270 0 48.031 11.1595 536 60.9944 427.291 530.174
271 0 49.0431 11.4797 563 60.9396 427.938 529.956
272 0 50.0497 9.79026 490 62.9265 427.382 530.512
273 0 52.0536 11.0079 573 61.3333 426.326 528.691
274 0 54.0537 12.0066 649 59.4468 425.812 530.436
275 0 58.1107 10.9274 635 60.737 426.313 528.479
276 0 59.0577 11.6496 688 60.2907 426.368 528.5
277 0 61.092 11.1962 684 61.1652 426.687 527.842
278 0 58.1218 10.1167 588 63.6667 426.721 526.088
279 0 62.0642 11.1659 693 62.1053 426.68 527.439
280 0 65.1657 12.6907 827 60.0339 426.833 523.959
281 0 66.1888 11.6183 769 61.1326 426.138 523.432
282 0 68.1102 12.3036 838 60.5095 426.354 524.206
283 0 71.0678 13.3253 947 59.3052 426.347 520.42
284 0 72.0756 13.0419 940 59.084 426.066 521.097
285 0 74.1027 12.0374 892 60.7287 426.299 519.609
286 0 76.1267 11.297 860 62.0977 426.369 518.056
287 0 81.0856 13.2946 1078 60.2301 426.244 517.01
288 0 82.3681 12.8812 1061 60.4298 425.946 515.192
289 0 86.1428 12.0498 1038 61.6484 426.241 514.46
290 1 44.1312 9.85696 435 63.1586 425.598 533.894
291 0 45.0512 10.9431 493 60.9331 425.592 537.095
292 0 46.039 10.5997 488 62.3566 425.818 535.293
293 0 48.1017 9.95808 479 63.3027 426.088 533.63
294 0 52.0714 12.3484 643 59.4012 426.193 532.463
295 0 53.0577 11.7985 626 59.7157 425.915 531.24
296 0 52.0929 11.6714 608 60.2467 426.003 529.898
297 0 55.064 12.7125 700 58.5314 425.254 529.479
298 0 55.0777 10.8211 596 60.807 424.941 529.94
299 0 57.1338 11.5693 661 60.0635 425.995 524.955
300 0 60.0709 12.1856 732 58.9112 425.51 525.736
301 0 60.0846 11.3174 680 59.9529 424.862 525.538
302 0 62.0891 11.0809 688 60.4404 425.448 523.366
303 0 64.1305 11.8664 761 59.4586 425.06 524.311
304 0 67.1041 12.5626 843 58.8268 424.638 522.257
305 0 68.2851 13.0189 889 58.1788 424.955 522.519
306 0 69.0528 12.2081 843 60.0795 424.465 519.967
307 0 73.1917 12.1325 888 59.5957 425.212 519.89
308 0 75.1936 11.344 853 61.6108 425.701 516.489
309 0 76.1506 11.254 857 62.3372 424.732 515.545
310 0 81.4075 12.7875 1041 60.0711 425.137 514.107
311 1 42.1065 11.0197 464 62.028 425.039 531.67
312 0 46.0958 10.3914 479 62.7119 425.033 531.82
313 0 44.074 8.78068 387 65.4419 424.499 532.829
314 0 48.1056 11.4748 552 61.9909 425.223 532.252
315 0 50.0505 12.0678 604 61.5232 424.954 531.209
316 0 51.109 11.6418 595 62.0655 425.471 530.462
317 0 52.079 11.1753 582 62.5481 425.704 529.495
318 0 53.0754 12.2656 651 61.2949 424.992 529.424
319 0 54.0466 12.3782 669 61.5351 425.647 526.157
320 0 56.1426 10.0815 566 64.2491 425.687 527.465
321 0 58.0336 12.1998 708 61.4915 426.04 525.911
322 0 60.0991 12.0967 727 61.586 425.942 523.818
323 0 62.2821 11.7048 729 61.9273 426.059 524.247
324 0 62.199 11.4311 711 62.166 426.156 523.207
325 0 65.1069 11.2738 734 62.7221 425.981 520.554
326 0 67.2347 11.7648 791 62.4083 426.441 520.408
327 0 68.1269 11.7134 798 62.8208 426.739 519.124
328 0 73.1307 12.5939 921 60.9229 426.561 520.26
329 0 73.1034 13.6382 997 60.4504 426.056 516.481
330 0 78.202 12.3398 965 61.8021 425.923 514.888
331 0 79.1324 13.8628 1097 59.7758 426.091 514.66
332 0 81.1479 12.7791 1037 61.0579 426.621 513.96
333 0 82.0874 11.1345 914 63.6882 426.646 511.238
334 0 86.169 11.1757 963 63.4496 426.319 509.517
335 0 90.2013 12.838 1158 61.0734 425.976 509.154
336 0 92.1486 13.0007 1198 60.5977 426.31 507.792
337 1 49.0373 9.70689 476 63.5462 426.21 529.074
338 0 53.0379 11.916 632 60.4399 426.062 526.934
339 0 53.1714 11.115 591 61.7107 425.601 528.027
340 0 56.0745 11.5382 647 61.5533 425.91 526.241
341 0 57.0356 12.6237 720 60.2389 425.375 525.74
342 0 61.1245 13.039 797 59.8306 425.794 522.617
343 0 60.1313 11.7909 709 61.6291 426.306 523.546
344 0 62.1436 12.3585 768 61.0807 426.167 520.914
345 0 65.1856 12.4414 811 60.5216 426.672 522.898
346 0 66.1506 12.5622 831 61.213 426.152 519.546
347 0 68.0672 12.3554 841 61.5731 426.449 518.321
348 0 68.0585 11.2991 769 62.9168 425.52 519.973
349 0 72.0517 12.6021 908 61.2412 425.175 517.085
350 0 71.0317 10.8684 772 64.2655 426.145 515.065
351 0 76.0893 13.011 990 60.4586 426.533 514.881
352 0 78.1117 12.0341 940 61.9128 426.106 513.721
353 0 81.0467 12.6594 1026 61.0039 425.842 512.935
354 0 83.1275 12.6793 1054 60.8776 426.668 511.219
355 0 87.2095 12.1776 1062 61.533 426.266 511.425
356 1 45.0718 11.3596 512 60.5234 426.77 531.002
357 0 46.1121 11.5805 534 61.3315 426.597 531.133
358 0 47.1221 11.3959 537 61.3985 426.436 529.592
359 0 49.1039 10.7731 529 62.9565 426.395 528.318
360 0 50.1137 10.4961 526 63.4905 426.432 526.867
361 0 52.1078 13.7024 714 59.3235 425.892 527.322
362 0 54.0874 12.7386 689 60.9942 426.11 526.488
363 0 54.0491 10.0464 543 64.8582 426.212 527.225
364 0 55.0233 10.9408 602 62.8472 426.902 527.258
365 0 59.0947 11.9977 709 61.6982 426.504 524.37
366 0 60.1095 11.0631 665 63.7549 426.492 522.041
367 0 60.1128 12.3934 745 62.0899 425.979 520.707
368 0 64.1862 11.6224 746 62.3311 425.961 521.985
369 0 64.0426 12.0701 773 62.5369 425.987 519.899
370 0 67.1346 13.4506 903 60.567 426.857 518.833
371 0 70.1694 12.7263 893 61.5655 426.471 516.245
372 0 72.2161 13.6673 987 59.9716 426.41 519.195
373 0 72.1088 12.2731 885 62.7559 426.185 517.016
374 0 76.2344 12.8682 981 61.4658 426.276 516.233
375 0 77.2092 12.0711 932 62.9603 426.477 515.211
376 0 79.2216 12.7364 1009 62.0139 426.344 515.03
377 0 84.1444 13.1322 1105 61.7765 426.208 511.174
378 1 43.1535 9.54732 412 63.8374 425.294 530.74
379 0 44.0512 10.6467 469 62.8721 424.919 531.098
380 0 45.1283 11.4119 515 62.2291 424.616 530.687
381 0 46.1453 9.49175 438 65.4749 425.057 529.45
382 0 48.1476 10.4678 504 63.7996 424.728 530.54
383 0 49.0636 10.7412 527 64.5161 425.414 528.956
384 0 53.0935 12.9394 687 61.4105 425.642 527.392
385 0 52.1175 11.0903 578 64.4879 425.917 526.822
386 0 53.1113 10.751 571 64.5429 424.956 528.41
387 0 56.1067 11.8346 664 63.1054 425.13 526.012
388 0 57.157 11.8271 676 63.4334 425.737 523.22
389 0 58.0282 11.4082 662 63.9788 425.334 525.495
390 0 61.1208 12.2053 746 62.445 426.489 522.784
391 0 61.065 11.6761 713 63.7167 426.627 521.875
392 0 66.0533 12.7019 839 61.9464 426.293 520.058
393 0 68.1544 11.9288 813 62.5597 426.274 518.619
394 0 70.0991 12.1828 854 62.26 425.656 519.275
395 0 70.123 11.8363 830 63.1 425.225 515.643
396 0 72.0861 10.3349 745 64.2913 425.702 518.901
397 0 75.09 11.6394 874 63.2002 425.743 516.479
398 0 76.1035 12.2333 931 63.073 426.005 514.86
399 0 80.0804 11.3511 909 63.2332 426.011 515.147
400 0 82.0658 10.979 901 63.97 426.013 513.562
401 0 84.0787 12.4288 1045 62.7273 426.374 510.31
402 0 87.0856 12.8839 1122 61.8627 425.954 508.824
403 0 90.1909 11.8416 1068 63.7893 426.722 508.42
404 0 93.2354 11.4549 1068 64.8015 427.146 506.137
405 0 94.1144 11.5179 1084 65.2362 426.677 505.03
406 0 98.0391 12.1584 1192 64.6988 426.288 502.842
407 0 99.1204 11.6525 1155 65.7351 426.249 499.531
408 1 47.043 9.672 455 65.2681 425.787 526.536
409 0 51.0791 10.1803 520 64.8192 425.894 525.585
410 0 52.0249 11.0332 574 64.1289 425.594 525.106
411 0 50.0433 9.5717 479 67.1086 425.566 524.171
412 0 52.0266 8.74553 455 67.8791 425.47 524.967
413 0 55.0973 10.8354 597 65.3099 425.705 522.745
414 0 57.0494 11.6741 666 64.8138 425.578 520.869
415 0 58.0677 11.7794 684 64.8231 425.222 521.057
416 0 58.0316 10.6666 619 66.5186 426.368 521.719
417 0 62.0502 10.9105 677 65.7223 426.744 519.886
418 0 65.1407 12.2197 796 64.5327 426.166 519.008
419 0 67.0583 12.4369 834 64.4137 425.029 516.384
420 0 68.0812 11.5597 787 65.9543 424.921 519.897
421 0 72.0726 12.5013 901 64.9689 424.75 517.315
422 0 72.1046 11.2476 811 67.1221 425.53 517.056
423 0 74.0321 12.8323 950 65.801 425.62 516.944
424 0 76.0818 11.9477 909 67.0979 425.585 514.197
425 0 81.0627 12.8913 1045 65.7923 425.572 514.907
426 0 83.0919 14.1289 1174 64.4583 425.497 512.317
427 0 87.2 14.3922 1255 64.3498 426.267 512.887
428 0 87.1972 13.1426 1146 67.2225 425.539 507.44
429 0 91.0626 12.9691 1181 67.0804 425.198 509.426
430 0 94.2976 13.5104 1274 66.5691 426.071 508.226
431 0 94.0876 13.7638 1295 67.4147 426.01 507.286
432 0 101.14 13.7137 1387 67.0072 425.947 506.567
433 0 101.116 12.6686 1281 68.8361 425.919 503.211
434 1 49.0104 9.38575 460 69.513 425.854 530.05
435 0 52.0249 11.8021 614 65.8485 426.046 529.984
436 0 53.0663 11.8154 627 66.2935 425.927 528.231
437 0 55.0782 12.9634 714 65.2955 425.637 527.085
438 0 57.1318 12.0948 691 66.0217 425.887 527.962
439 0 58.0518 10.7835 626 67.2828 425.676 527.446
440 0 60.0588 11.2223 674 67.7433 424.886 524.739
441 0 60.0651 12.2201 734 65.545 426.071 526.918
442 0 61.0496 12.9731 792 66.3396 426.352 522.095
443 0 66.0465 11.9461 789 66.9772 426.343 522.741
444 0 66.071 13.1223 867 65.8454 425.912 521.483
445 0 69.0894 12.2884 849 67.2485 425.935 522.583
446 0 70.0676 13.0303 913 66.5893 425.786 521.572
447 0 72.0817 11.7228 845 68.8663 425.721 520.333
448 0 75.0893 13.2509 995 67.5628 425.871 517.282
449 0 76.0383 11.5863 881 70.1044 425.415 517.474
450 0 77.0333 11.852 913 70.8631 425.894 514.985
451 0 82.1013 13.3859 1099 68.3976 425.127 514.653
452 0 83.1361 13.3396 1109 69.4842 425.514 512.917
453 0 86.1951 12.7269 1097 69.9608 426.516 514.981
454 0 87.1695 13.078 1140 70.6781 425.444 509.944
455 0 90.055 11.8594 1068 72.6751 426.658 511.648
456 0 92.0902 13.9863 1288 69.8641 426.513 509.194
457 0 95.0954 12.3139 1171 72.9061 426.323 507.279
458 0 98.0914 12.3966 1216 72.4079 426.618 506.224
459 0 101.143 14.5437 1471 68.792 426.084 506.181
460 0 104.113 13.6486 1421 70.1189 426.174 504.46
461 1 53.0879 10.0588 534 72.2828 425.897 527.365
462 0 54.0168 9.73771 526 72.4316 425.207 527.848
463 0 58.06 11.247 653 70.1991 424.972 526.94
464 0 59.0659 11.0724 654 70.9572 425.358 524.849
465 0 61.085 12.7036 776 69.4278 425.29 524.005
466 0 63.0542 12.0373 759 70.4308 425.424 523.061
467 0 66.056 12.6862 838 68.9284 425.864 523.266
468 0 67.1376 11.4243 767 71.1095 425.791 521.952
469 0 70.2882 13.0747 919 67.9543 425.468 523.547
470 0 70.0428 11.8213 828 71.0507 425.436 519.762
471 0 71.1294 11.3033 804 72.5336 425.165 517.739
472 0 76.1153 11.8899 905 71.4221 425.02 518.177
473 0 79.1323 13.0667 1034 68.7456 424.783 517.677
474 0 82.0739 12.2572 1006 70.8519 425.424 515.545
475 0 84.0997 12.0452 1013 71.4502 425.347 515.196
476 0 85.1057 11.2683 959 73.5537 425.291 511.601
477 0 87.0637 11.8074 1028 71.9232 424.832 513.384
478 0 90.1195 11.4071 1028 72.8434 425.287 511.663
479 1 47.102 11.1672 526 70.5133 425.002 532.192
480 0 49.0336 11.5635 567 69.6261 425.162 532.035
481 0 51.1783 11.3525 581 69.432 424.871 530.415
482 0 52.1474 11.9085 621 68.5234 424.395 529.839
483 0 53.0611 11.9296 633 69.0553 425.201 528.272
484 0 53.0838 12.4332 660 69.0258 425.308 527.126
485 0 56.1129 10.9066 612 69.7206 425.544 527.995
486 0 58.0344 11.631 675 68.6444 425.151 526.764
487 0 59.0268 10.419 615 70.6016 425.615 525.265
488 0 60.0948 10.367 623 70.5313 425.493 528.047
489 0 61.1148 12.0593 737 69.3501 424.798 523.623
490 0 65.0845 11.3084 736 69.1345 424.866 524.955
491 0 65.0591 11.3589 739 69.659 425.466 521.855
492 0 66.0717 11.1545 737 70.2782 424.853 520.536
493 0 72.1018 12.8707 928 66.7306 424.233 520.25
494 0 73.0417 11.7056 855 68.9591 425.111 519.284
495 0 73.0672 10.7983 789 70.2814 425.389 518.47
496 0 76.0382 11.3101 860 69.6628 424.266 517.343
497 0 79.0671 12.1416 960 68.499 425.177 515.544
498 0 82.1869 12.2039 1003 68.6879 425.058 514.592
499 0 84.0949 11.4989 967 70.3454 425.122 511.95
500 1 45.0472 10.2115 460 68.5065 424.948 533.037
501 0 46.0336 10.8616 500 68.634 425.832 531.932
502 0 47.0178 11.3361 533 68.4597 424.979 531.103
503 0 48.0249 10.3488 497 69.6197 425.342 528.656
504 0 50.0585 12.3455 618 66.9612 425.351 529.83
505 0 51.059 10.0864 515 69.6796 425.115 529.759
506 0 49.0509 9.62267 472 71.2966 425.093 525.04
507 1 91.0879 8.02522 731 76.0205 425.249 484.085
508 1 54.0462 11.2126 606 74.5248 425.411 469.208
509 0 57.0273 10.2056 582 75.3625 425.364 467.18
510 0 57.088 10.6502 608 69.0049 424.658 523.248
511 0 61.0967 10.6061 648 68.1327 425.42 523.941
512 0 63.0579 11.8304 746 66.5912 424.745 524.117
513 0 67.0868 13.1919 885 64.3141 424.885 523.267
514 0 68.0351 12.2437 833 66.1465 424.998 520.765
515 0 68.062 10.8871 741 67.9825 424.769 523.182
516 0 71.0586 11.8353 841 66.8858 424.71 517.7
517 0 72.0468 10.2711 740 69.1554 424.519 518.988
518 0 74.0896 11.3376 840 67.969 425.201 518.339
519 0 77.0429 11.7337 904 67.6715 424.405 515.316
520 0 79.1231 11.3368 897 68.3467 424.313 514.982
521 0 84.0686 12.4779 1049 66.8017 425.171 515.831
522 1 42.0435 10.4653 440 66.2864 425.057 535.461
523 0 41.0481 10.3781 426 68.1714 424.185 533.937
524 0 44.0578 12.3928 546 64.6777 424.288 535.165
525 0 45.0745 10.7156 483 67.94 424.35 532.039
526 0 47.0997 10.7007 504 68.0675 423.736 532.528
527 0 48.089 12.0194 578 66.4394 424.372 531.469
528 0 47.0882 11.5103 542 68.6033 424.456 530.738
529 0 51.098 10.9985 562 68.79 424.007 531.441
530 0 52.0352 11.7997 614 68.2736 424.09 529.889
531 0 52.0542 10.1817 530 70.8226 424.251 528.809
532 0 54.0329 10.327 558 70.4982 424.079 528.539
533 0 58.0701 11.865 689 68.7068 424.363 526.168
534 0 59.0732 11.071 654 69.0703 424.888 527.763
535 0 60.0888 11.5995 697 69.023 424.875 526.139
536 0 62.0301 12.8002 794 68.4181 424.547 523.156
537 0 63.1526 11.2426 710 70.0296 424.577 523.394
538 0 66.0407 10.8872 719 69.9458 424.759 524.787
539 0 68.0599 10.9169 743 71.2786 424.624 521.179
540 0 70.0658 11.2038 785 71.0127 424.81 518.906
541 0 71.1121 10.8702 773 71.683 424.109 519.41
542 0 74.0299 12.8056 948 69.0496 424.749 517.381
543 0 78.1893 11.5233 901 70.7625 424.628 516.44
544 0 80.1103 13.2942 1065 68.4347 424.867 514.06
545 0 83.1011 12.4186 1032 69.4176 424.476 515.57
546 1 43.0378 11.4086 491 67.0163 424.65 535.898
547 0 44.0331 10.4921 462 67.5931 424.232 535.258
548 0 43.0423 10.176 438 69.6142 424.957 532.724
549 0 44.012 8.61128 379 71.2111 423.947 533.148
550 0 46.042 10.99 506 68.3538 424.138 531.271
551 0 47.0159 10.9537 515 69.3379 423.928 528.726
552 0 49.1554 10.1311 498 69.6446 424.157 530.645
553 0 50.0394 10.4718 524 69.2424 424.51 530.307
554 0 52.0493 10.7014 557 68.4632 423.89 530.246
555 0 53.079 10.9648 582 68.3127 424.146 528.9
556 0 55.1037 11.6145 640 66.8188 424.217 526.919
557 0 56.1053 10.5338 591 68.0152 424.296 527.968
558 0 58.134 12.2476 712 65.9663 425.084 525.351
559 0 61.0973 11.6699 713 65.7307 423.917 525.626
560 0 63.0955 10.6505 672 67.8438 424.449 523.013
561 0 63.1032 10.9979 694 67.964 424.818 522.336
562 0 67.11 12.5615 843 65.5469 424.821 520.624
563 0 70.084 11.8287 829 66.3221 425 520.865
564 0 71.0962 11.8572 843 66.6987 424.611 518.045
565 1 38.0658 9.79882 373 65.244 423.775 537.885
566 0 39.0153 9.63725 376 65.2872 424.09 537.771
567 0 39.0312 9.65894 377 66.1618 424.777 534.851
568 0 39.0341 10.145 396 66.096 424.543 534.707
569 0 41.0545 10.0842 414 64.7681 424.604 537.029
570 0 42.0383 12.56 528 62.8182 423.752 533.301
571 0 43.0569 9.80098 422 66.1303 423.675 533.903
572 0 44.0255 10.3576 456 65.9956 424.581 532.728
573 0 46.0095 11.5194 530 64.4717 425.177 530.381
574 0 48.0373 11.4703 551 64.6679 425.494 527.993
575 0 51.1208 12.3433 631 63.168 425.276 528.895
576 0 50.0327 10.3532 518 66.4131 425.014 528.878
577 0 53.034 9.93702 527 66.2941 425.962 529.228
578 0 54.0505 11.2857 610 65.3312 426.252 526.512
579 0 55.0253 11.6128 639 64.8826 426.477 526.407
580 0 57.0974 10.736 613 65.8907 427.085 527.139
581 0 58.0629 10.2647 596 66.3188 426.908 525.082
582 0 61.0917 11.9492 730 63.2575 426.482 524.551
583 0 61.0424 10.9268 667 64.9265 426.43 522.789
584 0 64.0448 10.8362 694 64.8357 426.269 519.713
585 0 64.1035 10.9978 705 64.8667 425.601 519.762
586 0 65.0479 9.80816 638 67.5846 424.765 516.4
587 0 67.0814 10.5245 706 65.9122 424.915 517.426
588 0 73.0416 12.1575 888 62.8559 425.333 518.333
589 0 73.1053 11.2441 822 64.7348 424.352 514.6
590 0 75.2089 11.5279 867 64.4694 423.616 513.121
591 1 34.0577 7.54602 257 67.2257 424.529 534.471
592 0 36.0622 8.48535 306 66.6373 424.663 533.915
593 0 40.0934 9.9767 400 63.4075 424.775 535.372
594 0 39.0443 9.57887 374 65.516 424.586 531.652
595 0 42.0165 11.9953 504 61.7798 424.978 532.986
596 0 43.0192 9.50738 409 65.6699 425.222 532.682
597 0 45.0112 10.4641 471 63.6582 424.002 533.04
598 0 47.0579 10.8802 512 63.9434 425.111 529.463
599 0 49.0872 12.5084 614 61.7378 424.845 530.606
600 0 50.0811 10.9223 547 64.7879 424.733 529.704
601 0 52.1965 12.0123 627 63.4147 425.383 527.472
602 0 55.0893 11.8535 653 63.7305 425.404 527.167
603 0 57.0714 11.0388 630 64.1206 426.071 528.89
604 0 57.0568 9.97251 569 65.8805 425.471 528.207
605 0 58.1102 12.4763 725 63.3214 425.385 524.359
606 0 61.0905 12.6861 775 62.5819 425.517 523.862
607 0 63.1037 11.1879 706 64.8074 425.97 524.984
608 0 63.1067 10.9497 691 65.796 425.389 523.013
609 0 64.0488 11.1165 712 65.9438 425.718 520.192
610 0 67.1643 11.3155 760 65.1658 424.808 518.726
611 0 70.3305 13.3086 936 61.7062 425.619 520.578
612 0 73.3719 13.0977 961 61.8408 425.337 518.126
613 0 76.1265 11.8356 901 63.7092 425.451 516.06
614 0 73.1116 10.2446 749 66.5874 426.139 516.057
615 0 79.2308 11.4854 910 64.3429 425.803 512.029
616 0 84.2004 12.4109 1045 62.7694 425.954 513.278
617 0 84.1874 10.4054 876 65.6906 426.078 513.204
618 0 86.0916 11.1974 964 65.1307 425.671 508.811
619 1 45.0561 10.4314 470 65.2106 425.645 530.84
620 0 48.0825 9.92045 477 66.9413 425.987 528.528
621 0 48.1283 11.0122 530 64.9076 425.806 528.779
622 0 48.0243 10.6821 513 65.5517 425.055 527.99
623 0 50.0927 10.5604 529 65.2684 425.446 528.777
624 0 50.0854 10.2425 513 67.191 424.71 527.595
625 0 52.0256 10.7447 559 67.0089 425.59 527.283
626 0 56.059 11.2382 630 65.4603 425.173 525.443
627 0 56.0582 12.4514 698 63.5501 424.878 527.225
628 0 59.0394 11.8904 702 63.6396 425.513 525.487
629 0 60.0326 11.0607 664 65.8479 425.586 524.562
630 0 61.1041 12.5851 769 63.5137 425.36 522.41
631 0 63.0717 11.812 745 64.094 424.713 521.46
632 0 65.0693 11.5262 750 65.0213 425.107 519.283
633 0 67.1627 11.2711 757 65.3818 425.741 518.608
634 0 69.0636 12.9446 894 62.4083 424.998 516.907
635 0 72.1414 13.2102 953 62.0483 425.299 515.168
636 0 72.1601 11.5438 833 64.8595 426.131 512.636
637 0 76.1158 12.5204 953 62.2434 426.37 516.232
638 0 78.2868 11.2024 877 64.2486 426.023 513.026
639 0 82.1638 12.2195 1004 62.492 425.598 513.839
640 0 81.1033 10.7394 871 65.1355 425.188 512.387
641 0 85.1498 12.5309 1067 62.2324 425.747 510.457
642 1 42.0556 8.48876 357 65.0392 425.899 531.12
643 0 44.0455 9.83075 433 63.5935 425.372 528.988
644 0 45.1111 11.3497 512 60.4941 425.381 528.148
645 0 48.0138 10.1637 488 61.3586 425.529 527.941
646 0 50.0714 11.3837 570 60.0912 425.947 527.356
647 0 50.0471 10.7699 539 60.731 425.271 527.087
648 0 52.105 9.6344 502 62.4422 424.502 525.643
649 0 53.1074 11.2602 598 60.9699 425.209 526.018
650 0 55.0822 10.8747 599 61.7496 426.362 523.634
651 0 57.067 11.653 665 60.9293 426 523.532
652 0 59.1208 10.8253 640 62.0406 425.883 523.591
653 0 59.1432 10.9565 648 61.7716 425.738 524.713
654 0 60.0467 11.1913 672 61.5253 425.423 521.679
655 0 62.0633 12.874 799 59.3479 425.802 519.476
656 0 64.0416 11.0865 710 61.4211 425.187 520.849
657 0 65.0523 11.7136 762 60.3793 425.587 521.23
658 0 68.0437 12.5508 854 59.5866 425.376 520.409
659 0 68.1083 9.80791 668 62.9865 425.466 519.225
660 0 71.0517 11.5409 820 61.0073 426.185 518.02
661 0 73.103 12.7081 929 59.6717 425.911 516.978
662 0 74.0801 12.0545 893 59.9429 426.024 518.886
663 0 76.0375 12.0993 920 61.5196 425.522 517.349
664 0 78.0759 11.5016 898 61.6648 425.209 516.931
665 1 41.0383 9.13782 375 62.6933 425.851 532.464
666 0 42.1158 8.42913 355 64.4338 425.865 531.344
667 0 46.1582 11.1356 514 60.9261 425.918 531.041
668 0 46.0559 10.0747 464 62.3772 425.709 530.498
669 0 48.0924 11.9977 577 59.8042 425.407 529.34
670 0 48.1585 9.86326 475 62.3158 425.779 527.238
671 0 49.07 10.4748 514 61.6732 426.093 528.409
672 0 51.0656 11.9063 608 60.0181 425.646 527.873
673 0 52.0515 10.3551 539 62.1911 425.77 527.347
674 0 55.1064 11.378 627 60.2472 425.9 526.558
675 0 53.0551 8.38751 445 64.9775 425.874 524.128
676 0 56.2132 10.8338 609 61.908 426.847 525.317
677 0 57.0676 9.05942 517 63.9729 426.188 523.342
678 0 59.0468 9.85659 582 62.1031 426.033 524.962
679 0 61.066 9.8418 601 62.1847 425.304 523.622
680 0 64.1607 11.1439 715 60.1608 424.947 522.513
681 0 65.0827 10.1102 658 61.5502 426.03 523.035
682 0 67.1078 10.8184 726 61.354 426.382 519.415
683 0 71.125 12.7663 908 59.0969 426.572 520.986
684 0 74.112 10.9564 812 61.2882 426.586 518.906
685 0 74.0903 10.5142 779 62.6765 426.204 517.028
686 1 40.0274 11.3173 453 59.5232 425.868 533.837
687 0 39.03 7.99385 312 62.9776 425.683 536.651
688 0 40.0486 11.6109 465 60.3441 425.841 532.994
689 0 42.0342 10.3249 434 61.417 425.272 531.864
690 0 43.0604 10.8452 467 61.773 425.886 532.7
691 0 47.0878 10.6185 500 61.606 426.058 530.906
692 0 46.0223 10.4514 481 62.8025 425.692 531.834
693 0 48.0203 10.2457 492 63.9695 425.272 529.75
694 0 49.0334 10.707 525 64.1448 425.663 528.573
695 0 53.1131 12.9723 689 59.9173 425.946 529.747
696 0 53.0462 13.2149 701 60.9743 425.572 526.542
697 0 53.0613 11.2888 599 64.0384 425.581 527.204
698 0 55.0724 12.4926 688 63.3256 425.749 524.68
699 0 56.0698 12.7341 714 63.098 425.104 523.881
700 0 56.1231 12.2944 690 63.9826 426.348 525.196
701 0 60.083 12.5493 754 62.9138 426.066 525.732
702 0 61.0443 11.6145 709 63.7377 425.56 525.884
703 0 62.149 12.7436 792 63.0619 426.17 524.198
704 0 62.1163 11.2531 699 66.5722 425.997 520.009
705 0 66.0484 12.2486 809 64.5019 426.279 523.274
706 0 66.1096 11.0423 730 66.7082 426.505 521.168
707 0 68.1102 11.2465 766 66.3629 426.268 522.606
708 0 71.0871 12.9419 920 64.0424 425.415 520.712
709 1 37.0321 11.5845 429 65.2098 426.044 536.389
710 0 38.0861 11.0802 422 65.8863 425.749 537.583
711 0 41.0186 10.7268 440 66.7886 425.825 537.9
712 0 40.0817 10.9526 439 67.59 426.367 535.95
713 0 43.019 11.3438 488 65.9754 426.586 535.652
714 0 45.0922 12.1972 550 66.5836 426.987 533.356
715 0 46.0771 11.8931 548 67.0894 426.445 534.192
716 0 45.0298 10.9705 494 69.2024 426.289 533.36
717 0 46.046 11.836 545 68.4514 426.752 531.407
718 0 49.0637 10.8634 533 68.773 426.266 532.257
719 0 50.0183 13.0752 654 65.5398 426.42 532.472
720 0 50.0967 10.5995 531 68.7401 425.388 530.394
721 0 50.0603 11.2864 565 68.508 426.727 530.733
722 0 54.0653 13.2248 715 64.3385 425.18 530.338
723 0 56.0207 12.9952 728 64.0453 425.497 529.666
724 0 57.071 11.5821 661 67.2027 426.139 527.395
725 0 56.0779 12.6075 707 66.5969 425.632 525.069
726 0 60.0474 12.7233 764 65.5262 426.23 525.389
727 0 59.0619 11.9874 708 67.0367 425.438 526.041
728 0 62.1206 12.3952 770 65.9312 425.683 525.777
729 0 65.0912 11.8449 771 66.3632 425.372 525.525
730 0 65.0774 11.3557 739 66.9323 425.093 525.586
731 0 67.128 11.843 795 66.7572 424.755 522.981
732 0 71.127 11.6693 830 66.8482 425.224 523.092
733 0 72.0522 12.3938 893 65.7536 425.104 519.1
734 1 37.0306 10.9909 407 65.344 424.555 536.71
735 0 37.0429 9.93444 368 65.1359 425.864 538.163
736 0 38.0698 9.92912 378 65.8598 426.283 536.831
737 0 38.0516 11.4581 436 64.4014 424.929 536.255
738 0 40.0394 10.9642 439 64.5444 425.23 534.681
739 0 41.046 12.0596 495 62.6424 424.568 534.303
740 0 42.0353 10.8242 455 64.9758 425.171 532.31
741 0 42.1005 9.52482 401 66.4564 425.297 533.604
742 0 45.0342 12.7237 573 62.5131 425.937 532.787
743 0 45.019 10.6177 478 65.4435 424.939 532.814
744 0 45.0364 11.0133 496 64.9173 425.018 532.5
745 0 49.0313 13.4404 659 60.9621 425.174 531.067
746 0 50.0329 11.8122 591 62.9645 425.032 529.083
747 0 52.0362 13.433 699 61.2275 424.707 528.14
748 0 52.0566 11.718 610 62.8148 425.995 529.584
749 0 54.0392 12.3244 666 62.6426 425.712 527.94
750 0 56.0322 12.3144 690 62.6087 425.475 526
751 0 56.1635 11.2885 634 63.5442 426.162 526.588
752 0 60.2273 11.8219 712 62.9902 426.461 524.47
753 0 62.0517 11.9255 740 62.1365 426.328 527.151
754 0 63.4375 11.5547 733 62.749 426.161 526.651
755 0 66.1729 11.4397 757 64.0185 425.65 521.934
756 0 67.1564 12.2996 826 62.5956 425.587 523.717
757 0 69.0496 11.3831 786 64.3142 425.732 522.293
758 0 74.1824 12.7389 945 62.0762 426.329 519.64
759 0 75.0805 11.3345 851 63.5617 425.962 519.639
760 0 78.1699 13.7265 1073 60.0634 426.403 519.533
761 0 79.1471 11.1943 886 64.5655 425.83 513.362
762 1 41.0726 8.98409 369 65.4959 425.93 532.829
763 0 47.0512 10.8392 510 62.2667 425.741 532.216
764 0 47.1334 9.18668 433 64.2564 425.672 532.39
765 0 48.0161 10.3715 498 63.0201 426.016 532.341
766 0 52.1054 11.4767 598 61.6973 427.04 530.666
767 0 51.0873 11.0008 562 62.7295 425.947 530.452
768 0 53.0847 10.3608 550 63.9491 425.565 529.355
769 0 52.0943 10.5194 548 64.3394 425.367 526.228
770 0 56.1787 10.342 581 63.1274 425.043 530.606
771 0 56.1306 11.0278 619 64.1696 425.441 526.365
772 0 58.1502 11.711 681 63.2526 426.053 525.993
773 0 62.0589 13.5839 843 60.4603 425.211 524.334
774 0 64.0793 12.3285 790 61.9747 425.724 524.395
775 0 64.0571 11.2087 718 64.0237 425.815 522.058
776 0 66.1375 12.5194 828 62.0085 426.011 522.958
777 0 68.0637 12.1798 829 62.5778 425.577 519.655
778 0 71.0492 12.7658 907 61.1169 425.555 518.569
779 0 72.0868 11.0839 799 63.7922 425.915 519.235
780 0 76.086 11.1321 847 63.451 425.718 517.503
781 0 76.1323 12.0974 921 62.2356 425.912 518.009
782 0 79.0998 12.4147 982 61.723 425.886 516.931
783 0 82.2302 10.9692 902 63.1973 426.343 512.083
784 0 83.1256 10.6706 887 63.5772 426.014 512.091
785 0 89.3814 12.6089 1127 60.819 425.618 509.705
786 1 44.0728 8.53135 376 62.75 425.439 532.287
787 0 47.1082 9.7223 458 61.2991 425.146 532.954
788 0 48.1615 11.0046 530 60.7019 424.883 528.587
789 0 50.0605 10.3275 517 62.2843 425.261 528.501
790 0 51.0455 10.8531 554 61.7004 425.32 527.421
791 0 52.1453 11.1036 579 61.7789 424.387 525.142
792 0 54.1066 11.2925 611 61.856 425.124 526.646
793 0 54.1076 10.9966 595 62.0655 425.602 526.14
794 0 57.0342 11.9577 682 61.3431 425.287 523.207
795 0 59.0648 12.2746 725 60.76 425.269 522.52
796 0 59.1055 10.6589 630 62.9952 424.905 522.808
797 0 60.0432 10.7256 644 63.2702 425.075 519.924
798 0 63.0468 11.769 742 61.6671 424.925 519.179
799 0 66.0418 12.5224 827 60.4184 425.133 521.097
800 0 67.065 13.1812 884 59.8518 424.613 520.868
801 0 72.097 12.719 917 59.9869 424.998 516.917
802 0 72.1559 12.4591 899 60.8554 424.503 513.026
803 0 73.1173 11.6115 849 62.2014 424.866 514.36
804 0 79.0882 12.9602 1025 59.8576 424.9 513.907
805 0 81.143 13.4454 1091 59.8515 424.986 512.582
806 0 84.1274 12.2315 1029 60.9378 424.364 508.398
807 0 87.2111 12.3494 1077 60.8338 425.266 510.988
808 0 88.1843 11.0791 977 62.9611 425.438 510.115
809 1 42.0902 9.64596 406 62.8744 425.232 531.52
810 0 45.0303 10.6373 479 60.9687 425.407 531.697
811 0 46.0312 10.9057 502 60.8606 425.823 530.327
812 0 48.0699 11.941 574 59.4791 425.622 531.185
813 0 47.0946 9.70387 457 62.6324 425.225 530.468
814 0 50.1609 12.0014 602 59.9767 425.824 529.782
815 0 51.0357 10.9139 557 61.4129 424.907 528.858
816 0 54.0858 10.1136 547 62.6837 424.934 528.234
817 0 57.1131 10.5755 604 61.5447 424.935 525.818
818 0 58.1414 11.4548 666 60.1877 425.111 526.878
819 0 60.0948 9.93431 597 61.809 424.6 525.814
820 0 62.034 12.2514 760 59.3132 424.804 522.836
821 0 63.062 12.1626 767 59.0326 424.94 525.597
822 0 62.0263 11.35 704 60.8366 424.778 520.886
823 0 68.0671 11.6062 790 59.881 425.465 523.422
824 0 70.1387 12.1759 854 59.5094 425.174 522.724
825 0 69.0582 11.8161 816 60.5784 425.479 520.652
826 0 76.1103 12.1534 925 59.3762 424.891 519.749
827 0 74.1233 12.8974 956 59.795 425.145 517.559
828 0 77.0711 11.3142 872 61.883 424.378 516.937
829 0 80.0682 12.9515 1037 59.7088 424.003 517.649
830 0 81.2414 11.2258 912 62.6316 424.816 514.751
831 1 46.0479 9.729 448 61.1451 425.018 534.147
832 0 46.1141 11.1896 516 60.4322 424.64 532.161
833 0 49.1418 10.3578 509 60.8526 425.124 532.487
834 0 47.0568 10.4555 492 61.9654 424.996 529.955
835 0 51.0584 10.5565 539 61.7774 424.085 531.395
836 0 51.1317 10.2676 525 63.0571 423.813 528.225
837 0 54.1264 11.9905 649 60.9969 424.026 527.978
838 0 55.133 13.0956 722 59.6413 424.204 529.633
839 0 59.053 12.057 712 60.5183 424.267 528.464
840 0 59.0854 12.5242 740 60.2189 425.185 528.074
841 0 61.1236 11.1414 681 62.3935 424.937 527.814
842 0 63.0863 13.6163 859 59.6019 425.009 525.943
843 0 63.2038 12.784 808 61.198 424.55 523.911
844 0 67.0954 12.0724 810 61.2753 424.488 523.053
845 0 68.1413 13.4133 914 59.4311 425.246 524.743
846 0 71.2037 12.9909 925 61.0811 425.098 521.768
847 0 74.1961 13.963 1036 60 424.733 521.817
848 0 76.1342 13.8571 1055 60.4123 425.258 519.672
849 0 75.2828 11.1314 838 64.4666 425.087 518.988
850 1 39.0427 11.116 434 61.1406 424.804 538.507
851 0 42.035 10.4675 440 62.2409 425.311 537.507
852 0 42.0768 13.1189 552 60.1739 425.518 535.879
853 0 44.1153 10.5859 467 63.364 425.375 535.889
854 0 46.0289 11.6666 537 62.5475 425.458 534.732
855 0 47.037 11.5228 542 63.6199 425.441 532.635
856 0 49.0391 13.3771 656 61.0899 424.811 531.637
857 0 50.0263 12.0537 603 63.1625 425.322 532.426
858 0 51.0816 11.8242 604 64.5381 425.109 529.967
859 0 52.1167 12.3761 645 63.4388 425.132 531.034
860 0 55.0918 10.6005 584 68.0531 425.527 530.303
861 0 57.1653 11.4755 656 67.0991 425.273 529.375
862 0 59.0187 11.5726 683 66.3411 424.663 529.958
863 0 61.1004 12.4876 763 65.8807 425.097 527.114
864 0 62.2144 11.9104 741 66.9784 425.653 526.541
865 0 62.0538 11.071 687 68.7263 425.643 525.587
866 0 66.0574 11.9593 790 66.5304 425.601 526.12
867 0 67.066 13.4793 904 64.9535 425.393 522.561
868 0 69.1579 13.5776 939 65.6166 425.445 520.117
869 0 72.1992 11.5929 837 67.3357 425.883 520.74
870 0 74.2693 11.5256 856 66.5654 425.223 522.041
871 0 77.2407 12.5193 967 65.728 425.267 518.679
872 0 81.1566 13.2337 1074 64.23 425.106 518.048
873 0 82.1591 11.9524 982 66.2077 425.076 515.12
874 0 86.1066 13.0187 1121 64.6146 425.203 513.682
875 1 45.0139 10.9522 493 64.284 425.002 535.178
876 0 47.0617 9.2007 433 66.4018 424.968 534.633
877 0 48.0563 12.1524 584 63.2791 424.777 532.015
878 0 49.0821 11.4706 563 63.1314 424.645 533.135
879 0 50.0338 11.2324 562 64.0391 424.324 531.109
880 0 51.0223 10.9168 557 64.5566 424.467 531.74
881 0 53.1049 11.8068 627 63.4067 424.864 529.651
882 0 54.0231 12.5687 679 61.8071 424.798 531.854
883 0 56.0231 12.3699 693 62.5123 424.704 529.514
884 0 56.1015 11.604 651 63.8203 424.166 529.17
885 0 60.0287 12.8105 769 61.5397 425.146 527.934
886 0 61.0516 12.2028 745 61.5732 425.793 529.698
887 0 61.0671 12.0359 735 62.9497 425.284 526.865
888 0 63.0374 12.9288 815 59.9926 425.279 530.167
889 0 65.0585 11.5588 752 62.863 424.798 523.906
890 0 68.0672 12.2526 834 51.0492 423.662 525.711
891 0 69.1331 10.9788 759 62.1976 425.468 522.549
892 0 70.1235 10.2961 722 63.8241 425.693 521.561
893 0 74.094 11.4179 846 62.4137 425.233 517.21
894 0 77.1089 12.2813 947 61.1436 425.347 518.862
895 0 79.1116 12.1348 960 61.2719 425.838 516.346
896 0 81.2054 11.28 916 62.7238 425.845 514.662
897 0 87.1154 14.3373 1249 58.0584 425.497 515.778
898 0 86.0823 11.2451 968 63.2211 425.961 509.136
899 0 89.0677 10.8794 969 63.2322 425.419 511.234
900 0 92.1324 12.482 1150 61.2017 425.884 510.741
901 0 96.2096 11.5477 1111 62.522 425.906 506.602
902 1 48.0277 9.24467 444 62.0225 425.865 531.764
903 0 51.0431 10.2267 522 61.9253 425.467 528.295
904 0 53.0801 11.4356 607 60.4613 425.292 529.549
905 0 55.1477 12.6751 699 58.7682 424.897 528.647
906 0 56.1032 10.7659 604 61.7914 425.515 527.276
907 0 56.0684 9.54191 535 62.8897 424.542 527.787
908 0 61.1425 10.7781 659 61.2701 425.434 527.496
909 0 61.0937 11.6051 709 61.5896 426.391 525.862
910 0 65.1328 11.0083 717 61.7531 426.725 523.642
911 0 63.2074 10.5842 669 63.1614 427.124 524.41
912 0 66.0264 10.4958 693 63.1486 427.564 524.491
913 0 68.0775 11.9716 815 61.2442 427.158 519.132
914 0 72.0877 13.1923 951 58.8097 427.076 523.006
915 0 75.0841 12.1997 916 59.9814 426.444 521.666
916 0 75.1123 12.9273 971 59.8249 426.779 516.984
917 0 78.1678 11.6288 909 60.934 426.821 519.109
918 0 82.0586 13.076 1073 59.2367 426.43 516.308
919 0 83.133 11.5718 962 61.2578 426.042 516.762
920 0 84.2112 10.9605 923 63.0563 426.121 515.05
921 1 44.0206 10.8813 479 59.5595 426.359 536.052
922 0 44.0107 9.56586 421 60.361 426.587 536.622
923 0 45.0115 10.264 462 60.4459 425.649 535.318
924 0 46.0583 9.85707 454 61.185 425.696 533.833
925 0 48.0898 10.9587 527 59.8046 425.611 535.163
926 0 52.0277 13.1084 682 56.9326 425.538 530.735
927 0 51.0288 10.4451 533 61.576 426.034 528.385
928 0 54.0281 11.0128 595 59.7076 425.634 530.958
929 0 54.016 10.3858 561 60.9608 424.977 530.872
930 0 55.0186 10.0148 551 61.3158 425.301 530.575
931 0 56.0492 10.9011 611 60.3813 425.069 529.8
932 0 57.0785 12.1412 693 59.2294 425.325 529.626
933 0 58.0472 10.4742 608 61.1168 424.632 529.265
934 0 62.0708 11.7769 731 59.3215 424.808 528.016
935 0 63.0779 9.84498 621 61.0242 424.981 528.01
936 0 65.0375 10.7476 699 60.1373 425.522 524.64
937 0 63.1603 10.3071 651 62.5023 425.203 521.777
938 0 69.0565 11.6426 804 59.6343 425.456 522.315
939 0 69.0891 11.1161 768 60.8685 425.931 522.52
940 0 73.0724 13.2882 971 58.0803 425.527 521.408
941 0 73.1847 11.0815 811 61.979 425.539 520.068
942 0 76.1175 11.745 894 61.1734 425.49 517.82
943 1 41.0898 9.54008 392 60.2168 425.571 536.694
944 0 42.0595 9.79564 412 60.7015 424.743 535.189
945 0 43.055 9.33689 402 61.709 425.57 533.741
946 0 45.0554 10.476 472 60.2542 426.174 536.068
947 0 46.1785 11.0224 509 60.1002 425.678 533.961
948 0 50.0423 10.5711 529 59.9357 425.329 533.943
949 0 48.0627 12.026 578 59.5571 425.405 530.858
950 0 50.0859 10.5219 527 60.5294 426.074 532.15
951 0 52.068 11.7923 614 60.3534 426.249 527.822
952 0 52.0673 11.4083 594 60.8232 425.645 527.766
953 0 55.0509 11.9889 660 60.15 425.17 530.364
954 0 55.0942 12.0158 662 60.6148 426.171 529.193
955 0 57.0633 9.63842 550 63.7291 425.967 528.495
956 0 60.0617 11.8878 714 61.1611 425.24 525.204
957 0 62.0724 12.8237 796 59.4749 425.808 526.742
958 0 63.1231 10.8835 687 61.9927 425.384 524.501
959 0 67.0293 13.1733 883 59.3307 426.011 522.489
960 0 65.106 11.5965 755 62.0013 426.254 520.434
961 0 70.0709 11.6596 817 60.9204 426.476 521.616
962 0 70.044 12.0781 846 60.5177 425.798 519.845
963 0 70.0413 10.3225 723 63.3928 425.743 520.819
964 1 42.0358 8.75445 368 61.9076 425.913 536.791
965 0 41.0104 12.1189 497 60.0543 425.946 533.68
966 0 41.0268 9.89596 406 63.2512 425.941 533.345
967 0 42.0293 10.0168 421 63.1972 426.083 533.758
968 0 43.0822 9.91128 427 62.7939 426.012 534.145
969 0 45.0112 10.9973 495 61.9475 425.636 530.412
970 0 46.0914 11.0867 511 61.544 425.992 532.331
971 0 47.0369 11.374 535 61.6019 425.766 529.817
972 0 46.0879 9.87243 455 63.8198 426.16 530.002
973 0 53.0264 11.598 615 60.4634 425.868 530.569
974 0 52.0578 10.4499 544 61.9835 426.511 530.557
975 0 53.0762 11.2103 595 61.5866 426.541 528.671
976 0 53.0754 10.3626 550 63.0291 425.978 528.555
977 0 56.0898 12.6226 708 59.9604 425.432 528.833
978 0 57.0562 11.515 657 61.7519 425.798 526.295
979 0 58.0792 11.0022 639 62.6776 426.602 525.053
980 0 61.0934 11.9325 729 61.1097 426.273 525.366
981 0 63.1327 11.7847 744 60.8629 426.012 525.84
982 0 65.0658 12.5873 819 60.5018 425.973 521.38
983 0 67.1416 13.1066 880 59.7352 425.97 521.784
984 0 68.0638 12.0181 818 60.9804 426.034 521.48
985 0 71.0788 12.4791 887 60.3878 426.424 519.728
986 0 72.0704 12.0438 868 60.7661 426.135 522.126
987 1 38.0174 12.0208 457 60.3807 425.764 535.53
988 0 40.0659 10.6574 427 60.6019 426.262 536.881
989 0 42.0254 11.9689 503 59.1074 426.427 536.103
990 0 41.0401 10.8674 446 61.9417 426.191 535.619
991 0 42.0422 11.5598 486 61.1872 425.874 536.082
992 0 43.0437 13.0565 562 60.9359 426.692 534.413
993 0 44.0132 11.5193 507 63.4911 426.337 533.667
994 0 49.0415 12.2549 601 61.5374 426.077 533.088
995 0 50.1534 12.043 604 62.1821 426.227 532.68
996 0 50.0578 12.0461 603 63.1857 426.285 531.537
997 0 52.0611 11.1215 579 64.8601 425.665 530.943
998 0 53.0427 12.4805 662 64.0665 426.326 530.279
999 0 53.0187 12.5993 668 63.7021 426.376 531.606
1000 0 55.0846 12.1631 670 63.5328 425.918 531.561
1001 0 58.0923 12.6006 732 64.3333 425.674 528.102
1002 0 60.1407 12.4042 746 63.5188 425.883 528.52
1003 0 62.0324 13.0738 811 63.2466 425.16 526.159
1004 0 63.1113 12.5334 791 64.4867 425.659 524.528
1005 0 65.0844 12.9371 842 63.3789 425.791 526.432
1006 0 66.0709 12.4412 822 64.2019 426.068 526.382
1007 0 69.0928 13.7062 947 63.4541 426.063 522.553
1008 0 71.0824 12.2534 871 64.8921 425.596 522.504
1009 0 73.1015 12.5032 914 64.953 426.419 520.76
1010 0 75.1533 13.1066 985 64.9259 425.669 517.318
1011 0 77.0667 13.6765 1054 64.0512 425.47 520.192
1012 1 42.0294 11.7775 495 63.3071 425.327 538.36
1013 0 41.0754 11.0285 453 64.2274 425.119 537.7
1014 0 42.0374 12.5602 528 63.7614 425.193 535.754
1015 0 45.0264 10.4383 470 65.2447 425.645 537.17
1016 0 46.0375 12.946 596 62.4245 425.069 535.582
1017 0 43.0223 9.57644 412 68.2937 424.908 534.444
1018 0 47.0236 11.1008 522 66.6284 425.169 533.314
1019 1 95.1708 14.1115 1343 64.8801 425.414 510.185
1020 1 49.0313 12.2575 601 64.7221 425.123 533.126
1021 0 53.1636 12.9224 687 63.8501 424.645 531.221
1022 0 55.0852 11.9451 658 64.8921 425.099 530.128
1023 0 51.0426 10.4227 532 67.6372 425.468 529.184
1024 0 55.1606 11.6025 640 65.825 424.98 528.583
1025 0 57.092 11.2976 645 64.8046 424.245 530.564
1026 0 59.108 12.7901 756 63.5436 424.697 527.971
1027 0 60.0486 11.7072 703 65.229 424.051 527.488
1028 0 64.0167 12.075 773 63.8461 424.666 528.825
1029 0 66.0562 12.5045 826 63.0448 424.872 527.719
1030 0 67.0738 12.7472 855 62.9883 425.094 525.904
1031 0 69.0594 13.3943 925 62.3859 425.291 523.986
1032 0 69.0714 11.3216 782 64.6829 424.179 522.134
1033 0 72.1417 11.1309 803 64.878 424.362 521.379
1034 0 76.1173 9.97145 759 64.6956 424.851 525.433
1035 0 77.071 12.0279 927 63.2071 424.165 522.334
1036 0 79.0784 10.6603 843 64.9241 424.478 520.935
1037 0 82.172 9.6018 789 66.3688 424.549 516.237
1038 0 83.1143 10.8886 905 65.7856 424.655 514.254
1039 0 86.1406 13.211 1138 63.058 424.452 515.655
1040 0 90.133 12.6036 1136 62.9428 424.2 515.081
1041 0 93.103 12.513 1165 63.1648 424.288 515.396
1042 0 94.2609 10.6407 1003 65.2702 423.985 516.997
1043 1 49.0555 10.7022 525 63.939 424.442 534.436
1044 0 51.0422 12.0293 614 62.6319 424.691 534.078
1045 0 51.0376 10.6588 544 64.3952 424.237 533.296
1046 0 53.1191 10.3353 549 64.479 424.004 530.195
1047 0 53.0754 12.3598 656 62.5412 424.45 531.748
1048 0 58.0644 9.79946 569 64.007 424.325 532.991
1049 0 61.0369 13.369 816 61.2574 423.788 529.135
1050 0 61.1058 12.6338 772 62.3355 424.152 528.816
1051 0 60.0313 9.29515 558 66.7778 424.28 526.656
1052 0 65.1369 9.65658 629 64.8617 424.014 530.555
1053 0 68.0626 10.461 712 65.7458 423.497 525.815
1054 0 69.0806 10.1041 698 65.99 423.9 526.696
1055 0 71.0913 10.8171 769 65.9324 424.005 522.179
1056 0 77.0792 12.2082 941 63.8215 423.377 524.238
1057 0 78.0829 11.3085 883 66.4926 423.934 518.922
1058 1 42.0223 10.5896 445 66.2045 423.364 539.193
1059 0 45.03 12.3695 557 63.6427 423.704 539.316
1060 0 44.0869 11.1144 490 67.2776 423.339 538.29
1061 0 46.0417 10.7294 494 68.251 424.3 538.109
1062 0 48.0314 10.8262 520 68.1058 424.783 537.996
1063 0 52.1113 12.9339 674 65.4258 425.033 536.04
1064 0 52.0744 11.9828 624 67.4167 424.127 535.537
1065 0 53.0756 11.5307 612 68.0147 424.739 534.789
1066 0 56.1081 12.066 677 67.1241 424.468 533.657
1067 0 57.0652 13.0728 746 65.5375 424.468 533.013
1068 0 59.0724 12.1038 715 67.186 424.344 531.778
1069 0 61.0449 13.2525 809 65.848 424.215 529.173
1070 0 61.0647 11.5943 708 68.6271 424.496 527.364
1071 0 67.0496 12.7518 855 66.3719 425.272 528.489
1072 0 67.0592 12.3622 829 66.8239 424.875 529.413
1073 0 71.0425 12.0914 859 66.4016 425.122 526.147
1074 0 71.0536 12.6102 896 66.6451 424.586 525.227
1075 0 74.0635 11.9492 885 66.8475 424.721 524.85
1076 0 78.1283 13.0298 1018 65.4823 424.606 524.023
1077 0 79.2092 12.7763 1012 64.8982 424.787 522.798
1078 1 41.053 11.0589 454 65.1388 424.786 541.526
1079 0 42.0305 10.0879 424 66.2807 425.502 541.238
1080 0 45.0261 11.9042 536 64.709 425.793 539.914
1081 0 44.027 10.5617 465 67.2151 425.813 538.688
1082 0 48.0917 12.8089 616 63.7338 425.606 538.193
1083 0 49.0399 12.8467 630 64.219 424.965 537.395
1084 0 50.1148 12.0523 604 64.558 424.919 537.407
1085 0 52.0651 14.5779 759 61.5863 424.084 536.378
1086 0 53.0322 12.4641 661 64.0711 424.631 536.082
1087 0 54.0488 12.0632 652 65.3129 424.738 534.891
1088 0 56.0653 11.9325 669 64.8416 425.356 535.188
1089 0 58.085 13.3253 774 63.8954 425.288 531.267
1090 0 59.0583 13.3597 789 63.4487 425.459 532.057
1091 0 60.102 13.2608 797 64.261 425.222 531.834
1092 0 66.0924 12.3917 819 64.4982 425.028 530.788
1093 0 66.0638 12.5939 832 64.6478 424.865 527.776
1094 0 69.0467 13.2664 916 63.5098 424.48 527.194
1095 0 69.137 12.4246 859 65.2584 425.424 524.241
1096 0 75.1284 13.1774 990 63.6475 425.286 524.588
1097 0 74.0662 13.0559 967 64.6846 425.263 524.131
1098 0 78.1053 12.5728 982 65.0367 424.844 521.333
1099 0 81.2082 12.9544 1052 63.7053 425.547 522.238
1100 0 85.1211 13.7451 1170 62.5231 425.774 519.787
1101 0 85.1269 12.0291 1024 65.8428 425.778 518.02
1102 1 42.0432 10.0611 423 66.4894 425.712 540.563
1103 0 46.0367 11.4908 529 65.6749 425.841 537.639
1104 0 50.0728 11.8028 591 64.0288 425.416 537.558
1105 0 50.0407 14.1285 707 62.4866 425.069 535.399
1106 0 50.0891 12.6375 633 64.7362 426.248 534.847
1107 0 52.1463 11.8896 620 65.2661 426.624 533.579
1108 0 54.0881 13.0713 707 63.7383 426.095 531.533
1109 0 54.0189 12.9584 700 63.9329 425.959 532.446
1110 0 56.076 12.8575 721 64.2857 425.571 531.326
1111 0 59.0986 11.5908 685 65.0818 425.707 530.664
1112 0 62.0329 12.7835 793 63.7629 425.842 528.629
1113 0 63.1012 12.2026 770 64.5143 425.855 529.287
1114 0 64.0538 11.7401 752 65.9973 425.654 525.737
1115 0 66.0257 13.7371 907 63.4024 425.879 524.75
1116 0 68.3215 12.9096 882 64.3651 426.135 523.868
1117 0 71.0968 12.8276 912 63.5899 425.948 525.874
1118 0 71.0945 12.8561 914 64.6827 425.708 520.653
1119 0 75.0876 12.9848 975 64.402 425.531 519.854
1120 0 79.1623 13.7313 1087 63.3441 424.874 521.155
1121 0 80.1418 13.0394 1045 64.1962 425.221 519.959
1122 0 82.0533 13.735 1127 64.1233 425.441 517.606
1123 0 86.1335 12.6316 1088 65.3024 425.617 516.662
1124 1 46.0825 9.54809 440 67.5909 426.427 534.557
1125 0 48.0216 12.2237 587 64.6474 425.908 534.198
1126 0 48.0731 11.2745 542 67.0258 426.365 532.135
1127 0 52.0843 14.3229 746 63.2024 426.395 532.123
1128 0 52.0461 9.83743 512 68.5762 425.891 532.166
1129 0 53.0549 11.2902 599 67.8698 425.821 526.902
1130 0 57.1963 12.8505 735 64.5687 425.313 527.593
1131 0 57.0199 12.0484 687 65.9185 425.785 528.221
1132 0 61.0493 12.8421 784 64.213 426.378 525.524
1133 0 62.1179 11.6553 724 65.1188 426.512 526.454
1134 0 64.0782 13.3119 853 63.646 425.581 524.498
1135 0 66.071 12.6985 839 64.4255 425.528 522.448
1136 0 69.1041 13.9644 965 62.6383 425.328 522.333
1137 0 68.0567 11.1231 757 66.1757 425.324 522.419
1138 0 75.0903 13.557 1018 62.7456 425.458 520.198
1139 0 76.221 13.4215 1023 63.4702 426.299 517.564
1140 0 79.1046 13.539 1071 63.3315 426.196 517.472
1141 0 81.123 14.891 1208 61.8618 426.111 517.334
1142 0 81.1096 12.2674 995 65.9387 425.815 514.809
1143 0 86.104 13.1934 1136 64.2227 425.435 513.9
1144 0 88.0887 12.4193 1094 65.8355 425.837 511.812
1145 1 44.116 10.155 448 67.1406 425.902 532.036
1146 0 46.0866 12.6718 584 62.8904 425.694 534.277
1147 0 48.0503 11.1342 535 65.2019 425.935 533.327
1148 0 51.0138 11.3499 579 65.6839 426.104 530.627
1149 0 52.0742 12.4438 648 64.6605 425.86 530.81
1150 0 51.0676 11.5925 592 66.3851 425.632 531.383
1151 0 55.0407 12.2818 676 64.5888 425.695 530.601
1152 0 58.0571 13.0044 755 63.3099 425.473 531.2
1153 0 57.1405 12.9505 740 63.9338 426.636 529.291
1154 0 61.0311 12.5674 767 63.5893 426.733 530.051
1155 0 63.1141 11.9625 755 64.2742 426.591 527.318
1156 0 63.056 12.8457 810 63.1802 426.54 529.164
1157 0 65.0843 13.229 861 62.8165 426.149 525.315
1158 0 69.1442 11.8593 820 63.8683 425.59 523.501
1159 0 71.0845 13.702 974 61.7053 425.415 522.804
1160 0 74.1696 12.4849 926 62.7829 426.035 521.875
1161 0 74.0974 10.5267 780 65.1231 424.962 523.849
1162 0 78.1067 11.9708 935 63.7358 425.67 519.451
1163 0 81.0445 11.1667 905 64.5801 425.473 520.225
1164 1 44.0123 11.9512 526 60.9772 426.338 538.838
1165 0 45.1007 11.1307 502 62.4223 425.865 536.46
1166 0 45.1226 11.1696 504 64.0615 425.363 532.204
1167 0 47.0437 11.84 557 63.1077 425.391 532.711
1168 0 49.0848 12.2237 600 62.3083 425.842 534.193
1169 0 51.1673 12.4298 636 62.0519 426.237 533.404
1170 0 54.0697 11.5961 627 62.3987 426.426 534
1171 0 52.0214 9.34231 486 66.1646 426.123 531.73
1172 0 56.0727 11.8418 664 62.9533 425.866 531.017
1173 0 57.0528 11.0073 628 64.4586 426.363 529.182
1174 0 60.0757 12.2013 733 61.9932 425.4 529.377
1175 0 61.2161 13.1828 807 60.8327 425.653 528.623
1176 0 66.0874 13.3914 885 60.1514 425.516 528.106
1177 0 64.1324 11.3671 729 63.8052 426.631 526.107
1178 0 68.0678 12.9136 879 62.0273 426.503 524.012
1179 0 70.1678 11.9571 839 63.4148 426.436 522.547
1180 0 72.0458 12.5059 901 62.6837 426.519 520.22
1181 0 73.14 11.143 815 64.3767 426.456 519.345
1182 0 76.0568 13.2007 1004 62.0757 426.222 519.171
1183 0 81.1003 12.7866 1037 62.0839 425.806 517.895
1184 0 82.1566 11.9284 980 62.9306 426.001 517.081
1185 0 84.1283 12.053 1014 63.1479 426.212 515.738
1186 0 86.0836 10.5827 911 64.4281 426.071 516.011
1187 0 91.1995 14.6163 1333 59.5574 425.92 512.258
1188 0 93.1119 13.8006 1285 60.677 426.289 511.241
1189 0 95.0815 11.8214 1124 63.5996 426.456 507.568
1190 0 97.1612 11.4552 1113 64.0512 425.916 507.903
1191 0 102.263 12.5265 1281 62.8009 425.415 505.016
1192 0 106.17 12.3952 1316 62.4749 426.404 506.812
1193 1 55.0324 10.3575 570 62.821 426.102 530.421
1194 0 57.0552 12.2688 700 61.0486 426.116 527.099
1195 0 59.0267 12.7908 755 60.4967 426.415 525.68
1196 0 58.0762 9.7286 565 64.5664 425.991 525.143
1197 0 63.0618 11.7662 742 61.5418 426.225 525.146
1198 0 66.0604 12.2615 810 61.2136 425.454 524.23
1199 0 67.0659 11.69 784 62.3622 425.438 523.173
1200 0 69.0476 12.3538 853 61.3494 425.638 523.011
1201 0 71.042 11.8662 843 62.6168 425.603 517.865
1202 0 76.1164 11.2591 857 62.944 425.909 519.498
1203 0 76.0745 11.8831 904 62.0299 425.569 521.211
1204 0 78.0974 11.921 931 62.8367 425.557 518.024
1205 0 83.1017 12.0335 1000 62.259 426.131 515.179
1206 0 85.2273 11.7451 1001 63.036 425.558 512.961
1207 0 88.1156 12.9149 1138 61.2742 425.661 513.389
1208 1 46.0541 11.2694 519 62.5934 426.131 533.144
1209 0 48.0463 13.6119 654 59.6758 425.76 533.252
1210 0 49.0612 12.3519 606 62.2178 425.464 530.652
1211 0 48.0283 10.7437 516 65.1008 425.756 528.614
1212 0 51.0699 13.2368 676 61.8151 425.851 527.7
1213 0 52.0605 11.1409 580 64.181 425.843 528.788
1214 0 56.1039 11.7461 659 62.7481 426.269 528.668
1215 0 57.07 13.8777 792 60.3472 425.807 525.34
1216 0 61.0612 12.6267 771 61.5551 426.449 526.284
1217 0 60.1592 11.935 718 62.7869 426.12 522.749
1218 0 63.0717 11.4949 725 62.9779 426.297 523.339
1219 0 65.1029 11.8889 774 62.3243 426.251 522.326
1220 0 65.1373 10.3627 675 64.0415 426.182 522.252
1221 0 68.2343 12.4278 848 61.704 426.557 517.761
1222 0 70.0697 11.6598 817 62.8972 425.838 517.601
1223 0 77.2628 13.0334 1007 59.6554 425.616 518.635
1224 0 77.0893 11.9991 925 61.4508 426.406 515.622
1225 0 78.1238 11.6098 907 62.1378 425.474 514.152
1226 1 40.0948 11.1486 447 59.9709 425.662 535.374
1227 0 43.0321 10.039 432 61.6111 426.132 533.009
1228 0 45.047 11.9209 537 59.7393 425.663 530.475
1229 0 45.0332 11.0807 499 62.0341 425.156 530.347
1230 0 46.0766 12.4141 572 60.3549 425.404 529.292
1231 0 50.0797 11.5216 577 60.104 425.47 530.48
1232 0 52.0359 11.4152 594 61.2593 425.579 530.906
1233 0 53.0618 12.5514 666 59.7357 426.039 529.515
1234 0 53.0507 13.1195 696 58.8477 426.68 527.181
1235 0 55.1111 11.9758 660 60.4364 426.086 524.898
1236 0 57.0866 11.649 665 60.0496 426.204 526.424
1237 0 58.0416 11.5951 673 60.6062 425.99 522.147
1238 0 60.0862 12.4321 747 59.3347 426.282 521.171
1239 0 63.0806 14.2199 897 56.9967 425.931 522.679
1240 0 61.0415 10.8942 665 61.0361 425.753 522.453
1241 0 65.1015 12.8415 836 58.61 425.799 520.48
1242 0 67.1005 12.5334 841 59.1867 425.336 517.616
1243 0 70.0735 11.4451 802 60.1471 425.618 517.949
1244 0 74.1059 13.3997 993 57.2679 425.177 518.951
1245 0 75.1122 11.9155 895 59.6011 426.139 514.337
1246 0 75.0925 11.4792 862 60.3805 426.362 513.689
1247 0 78.0587 10.9021 851 60.4618 426.276 513.184
1248 0 82.1131 12.1053 994 58.8752 425.519 512.33
1249 1 43.0673 7.80175 336 61.0684 425.723 530.307
1250 0 43.0373 10.8511 467 58.0128 425.777 532.308
1251 0 44.0722 9.64326 425 60.6282 426.402 527.264
1252 0 49.0687 9.92485 487 59.6571 426.52 529.374
1253 0 50.0951 10.9192 547 58.7093 426.55 528.254
1254 0 52.0283 13.2812 691 56.0478 426.391 527.509
1255 0 53.0585 10.8371 575 58.9148 426.435 526.751
1256 0 55.0439 11.3001 622 57.9453 426.158 528.209
1257 0 55.0742 11.8023 650 58.4969 425.8 525.763
1258 0 58.1241 11.8711 690 58.0971 425.542 523.358
1259 0 60.0605 10.4894 630 59.2714 426.089 524.235
1260 0 62.1028 11.1267 691 58.6744 425.809 523.447
1261 0 64.1452 13.5006 866 56.0751 426.06 521.279
1262 0 65.0871 11.1082 723 58.296 426.414 521.4
1263 0 68.041 11.4343 778 57.7108 426.675 521.148
1264 0 72.0801 11.1959 807 57.7026 426.413 519.484
1265 0 74.0614 11.5175 853 58.1407 426.635 517.205
1266 0 72.1018 10.5268 759 59.0461 426.248 517.775
1267 0 78.0886 11.3461 886 57.3375 426.281 517.251
1268 0 80.1774 11.4247 916 57.6736 426.606 514.247
1269 0 84.2667 12.8758 1085 56.2433 426.359 514.192
1270 0 87.146 11.6471 1015 56.5931 425.966 518.252
1271 0 89.1057 10.7288 956 57.9111 425.847 513.733
1272 0 93.2018 15.5254 1447 53.0007 425.692 514.149
1273 0 96.0798 13.3743 1285 55.7689 426.237 509.039
1274 0 98.1189 11.6593 1144 57.2299 425.853 508.7
1275 1 51.0634 10.6534 544 57.579 425.046 529.423
1276 0 51.1992 12.7541 653 55.7917 425.729 529.026
1277 0 53.0472 12.4795 662 55.9577 426.014 528.494
1278 0 54.0238 12.2538 662 56.7553 425.793 527.417
1279 0 56.2035 11.8676 667 56.5487 425.616 528.66
1280 0 57.0486 11.3938 650 58.0938 426.043 525.745
1281 0 61.1333 11.4013 697 57.7288 426.069 523.313
1282 0 64.1304 13.4102 860 55.3837 425.914 523.991
1283 0 64.0659 12.6588 811 56.6548 425.455 523.391
1284 0 64.0996 10.5929 679 58.7423 425.851 525.471
1285 0 68.2142 13.5749 926 55.6706 425.987 523.442
1286 0 70.0676 13.801 967 54.9049 425.741 524.639
1287 0 72.0831 12.7908 922 57.1193 426.136 517.527
1288 0 72.0406 11.1465 803 58.6675 426.745 521.174
1289 0 74.0866 12.6744 939 58.2226 426.49 517.613
1290 0 78.1003 12.4711 974 58.3747 426.151 517.766
1291 0 80.2585 13.8428 1111 57.1422 425.701 514.974
1292 0 81.2015 12.4382 1010 58.7762 425.778 516.147
1293 0 84.1509 12.133 1021 59.1655 425.905 515.13
1294 0 87.15 12.5531 1094 58.9351 426.783 515.498
1295 1 47.0866 11.5532 544 58.5717 425.676 534.7
1296 0 48.0899 11.936 574 58.9286 425.195 534.058
1297 0 50.1359 12.7254 638 58.7665 426.18 531.784
1298 0 50.0574 11.8064 591 60.2098 425.741 529.777
1299 0 51.1086 10.8788 556 61.5396 425.358 528.813
1300 0 53.1213 11.7655 625 60.6592 425.854 528.552
1301 0 55.0793 11.7285 646 60.6006 426.393 526.204
1302 0 55.1185 11.2303 619 61.601 426.404 527
1303 0 59.0774 12.2551 724 59.9489 426.11 527.742
1304 0 59.0732 12.476 737 60.3568 426.038 525.533
1305 0 60.0596 11.6717 701 61.4565 425.823 525.836
1306 0 65.1386 12.7421 830 60.1928 426.122 525.443
1307 0 67.1063 13.5755 911 59.9286 425.802 525.4
1308 0 66.0995 9.8034 648 64.608 426.301 524.789
1309 0 69.1207 11.2267 776 62.9381 426.4 523.487
1310 0 70.0837 12.6848 889 61.6288 425.886 522.184
1311 0 72.0907 12.8311 925 61.8519 425.511 520.701
1312 0 77.3131 12.8956 997 61.5517 425.993 519.55
1313 0 80.2074 14.0511 1127 60.4099 425.907 518.908
1314 0 81.0836 13.1716 1068 62.0262 425.504 517.221
1315 0 84.186 13.0307 1097 62.0483 425.629 518.481
1316 0 86.0935 12.8814 1109 63.0893 426.586 514.467
1317 0 89.0438 13.0498 1162 63.1256 425.88 512.528
1318 1 46.1918 10.9976 508 64.0413 425.646 535.64
1319 0 49.0425 12.6625 621 62.9002 425.196 535.05
1320 0 49.1111 12.8484 631 63.6482 425.198 533.425
1321 0 52.0312 14.4144 750 60.8733 424.976 533.284
1322 0 51.0461 14.8101 756 61.0966 425.542 531.749
1323 0 54.0433 11.2502 608 65.1102 425.87 531.783
1324 0 56.043 13.9714 783 62.1877 425.573 529.835
1325 0 58.1748 13.1157 763 62.8702 426.239 530.409
1326 0 59.0401 12.4492 735 63.5401 425.648 530.208
1327 0 60.0234 14.1945 852 61.52 425.013 529.217
1328 0 62.1171 12.8628 799 63.1677 425.252 526.998
1329 0 66.0878 14.3597 949 60.8925 426.106 526.092
1330 0 66.0848 14.2696 943 61.5143 425.367 526.66
1331 0 69.1346 13.7558 951 62.1041 425.258 525.309
1332 0 72.0196 13.6074 980 62.7296 425.976 524.469
1333 0 75.0637 13.7084 1029 62.7658 425.866 521.79
1334 0 77.1104 12.9165 996 64.7028 425.486 521.242
1335 0 81.0464 13.7452 1114 63.211 425.64 521.396
1336 0 82.1221 14.6976 1207 62.5195 425.929 518.125
1337 1 44.0676 11.4597 505 64.2158 425.269 540.141
1338 0 46.0523 12.9418 596 62.9262 424.834 538.183
1339 0 47.127 12.3284 581 63.9484 424.838 539.496
1340 0 48.0315 15.5939 749 60.6462 425.64 537.979
1341 0 48.0595 13.296 639 64.8576 424.936 534.202
1342 0 49.082 11.4299 561 67.1551 425.064 535.077
1343 0 51.0802 12.1574 621 66.1498 425.259 535.639
1344 0 52.2201 10.9345 571 67.8827 425.615 532.7
1345 0 57.0585 12.8289 732 65.1312 425.884 532.87
1346 0 57.0938 14.3799 821 63.5761 425.116 530.268
1347 0 58.1839 12.6496 736 66.3139 424.836 529.875
1348 0 62.1036 15.2165 945 62.1958 424.803 530.032
1349 0 63.048 12.5777 793 65.4805 425.411 529.781
1350 0 64.184 14.7389 946 63.7072 424.741 526.918
1351 0 68.0434 14.138 962 64.0094 425.074 527.046
1352 0 69.2163 13.6384 944 64.4608 424.988 526.218
1353 0 73.1023 14.938 1092 61.881 425.936 526.592
1354 0 75.2683 14.6941 1106 62.6031 425.186 524.743
1355 0 77.1391 14.5322 1121 63.0348 424.671 522.12
1356 0 78.0764 13.2947 1038 64.7611 424.863 524.763
1357 0 81.1942 12.9443 1051 65.2645 424.967 521.409
1358 0 84.0588 13.9902 1176 64.3206 425.264 519.088
1359 0 87.1946 14.3587 1252 64.1821 425.318 517.165
1360 0 90.1122 14.493 1306 63.2044 425.743 519.338
1361 1 41.0291 11.4309 469 66.8145 425.62 538.657
1362 0 45.0892 12.7747 576 64.7222 425.701 536.979
1363 0 46.097 12.9727 598 64.5502 425.413 537.013
1364 0 47.0918 13.3357 628 64.5016 425.432 536.666
1365 0 50.1078 14.1695 710 62.6592 425.156 536.568
1366 0 49.0659 13.5532 665 64.1534 425.347 535.959
1367 0 53.147 14.6198 777 62.8777 425.745 533.983
1368 0 53.0547 13.5143 717 64.8368 426.219 531.729
1369 0 54.1854 13.0847 709 65.5007 425.063 532.018
1370 0 57.114 15.3202 875 62.4309 424.439 532.074
1371 0 59.044 12.9734 766 65.1723 424.495 531.56
1372 0 60.1095 13.8747 834 64.3429 424.472 529.766
1373 0 62.1085 12.8324 797 65.2685 425.726 529.226
1374 0 65.1773 13.1641 858 64.1329 425.857 530.859
1375 0 67.1653 14.5909 980 62.6061 424.88 526.716
1376 0 70.1001 14.3794 1008 62.3601 425.253 527.607
1377 0 72.1912 13.7828 995 63.1487 425.758 527.935
1378 0 73.129 12.5805 920 64.6717 425.165 526.663
1379 0 75.1678 13.104 985 64.7381 425.087 524.707
1380 0 79.1145 13.2845 1051 64.3606 425.244 524.284
1381 0 78.107 12.3292 963 67.1641 425.411 521.371
1382 0 83.1211 15.1827 1262 63.1918 425.857 520.021
1383 1 40.0726 10.6058 425 65.6518 425.847 543.746
1384 0 42.0856 12.4033 522 65.546 425.383 539.044
1385 0 43.11 12.3637 533 66.6135 425.274 539.7
1386 0 46.236 13.2581 613 64.4845 425.036 539.303
1387 0 46.0872 15.0584 694 63.4164 425.023 538.964
1388 0 49.083 12.8965 633 65.7299 425.34 538.72
1389 0 47.181 13.268 626 66.8898 424.901 536.728
1390 0 50.0431 11.7299 587 67.7325 425.378 538.651
1391 0 54.1205 14.8557 804 63.3134 424.794 536.811
1392 0 52.0797 13.0761 681 66.6696 424.063 534.634
1393 0 57.1051 13.9567 797 65.0527 425.205 534.536
1394 0 58.1337 16.3244 949 62.275 425.804 531.578
1395 0 58.0855 13.5662 788 65.7893 425.272 535.005
1396 0 61.1046 14.2706 872 64.5654 425.76 529.912
1397 0 62.0976 14.5738 905 63.8254 425.964 532.619
1398 0 64.1683 13.3088 854 65.4602 426.299 529.301
1399 0 65.1852 13.1471 857 66.3092 425.853 529.84
1400 0 70.1866 13.9628 980 64.2214 425.124 529.842
1401 0 69.1652 14.7039 1017 64.2488 425.242 529.159
1402 0 72.1627 13.1647 950 66.2737 425.684 527.358
1403 0 75.2568 13.3011 1001 65.991 425.02 525.51
1404 0 77.1801 15.0686 1163 63.7292 425.439 523.869
1405 0 78.1875 13.506 1056 66.0426 425.754 523.317
1406 0 82.229 15.0069 1234 63.8849 425.899 522.613
1407 1 40.1201 12.7866 513 66.9259 425.852 541.023
1408 0 42.1391 13.408 565 66.4159 425.696 538.782
1409 0 45.1921 14.1396 639 64.3584 425.349 540.211
1410 0 45.0929 13.0397 588 65.4932 425.468 542.515
1411 0 46.1764 14.0548 649 65.4268 425.792 539.479
1412 0 47.2065 13.4092 633 66.2496 425.662 539.371
1413 0 49.1545 14.1187 694 65.3574 425.058 538.396
1414 0 51.1631 14.3072 732 65.224 425.078 536.708
1415 0 52.2356 13.1711 688 66.6657 426.074 537.677
1416 0 53.0594 14.4743 768 65.7474 426.006 534.859
1417 0 54.2901 13.1332 713 67.0337 426.355 535.624
1418 0 59.2663 15.54 921 63.1998 426.346 534.693
1419 0 59.1751 14.4655 856 65.403 426.981 533.401
1420 0 63.1888 15.3825 972 63.7634 426.406 532.451
1421 0 63.1207 14.195 896 66.4498 426.058 531.357
1422 0 65.149 14.4899 944 66.5932 426.732 529.949
1423 0 68.0826 14.8937 1014 65.8955 426.755 528.532
1424 0 69.0873 13.4468 929 68.5296 426.224 528.875
1425 0 72.2187 16.5747 1197 64.462 426.219 526.945
1426 0 73.1908 14.6876 1075 67.6763 425.933 526.175
1427 0 76.2643 15.2365 1162 67.2943 426.043 524.059
1428 0 78.4027 16.0071 1255 66.1713 426.695 522.857
1429 0 80.2908 14.0738 1130 69.0044 426.258 522.83
1430 0 82.364 12.8211 1056 70.5152 426.461 522.902
1431 0 83.0922 14.8389 1233 68.4193 427.045 519.688
1432 0 87.3169 14.1324 1234 69.2796 426.659 519.346
1433 1 45.0559 13.1836 594 69.4461 425.754 539.36
1434 0 47.2949 12.8344 607 69.1614 426.117 537.819
1435 0 49.1119 12.5224 615 68.7545 425.824 540.405
1436 0 50.1731 14.7091 738 66.7385 425.463 537.927
1437 0 50.1626 12.3 617 69.6742 426.086 538.353
1438 0 53.0859 14.2976 759 66.9104 425.833 535.142
1439 0 56.1417 13.7865 774 66.8346 425.925 535.027
1440 0 57.1514 14.2079 812 66.8461 425.982 532.616
1441 0 58.1004 15.5076 901 65.3507 425.238 532.453
1442 0 59.2122 14.7098 871 67.0218 425.741 530.736
1443 0 62.2331 14.0922 877 66.4071 425.07 531.266
1444 0 62.1351 15.241 947 66.0539 425.154 528.572
1445 0 65.2597 15.4613 1009 65.2547 425.025 529.703
1446 0 66.27 14.4409 957 66.7356 424.875 530.181
1447 0 69.0942 14.1112 975 67.6297 425.943 529.244
1448 0 71.1311 14.2272 1012 67.8379 425.748 527.813
1449 0 72.0629 16.3191 1176 65.5034 425.895 528.618
1450 0 76.3282 15.0272 1147 67.585 426.232 526.717
1451 0 77.1718 14.0336 1083 70.0591 425.679 525.54
1452 0 81.2243 15.5003 1259 67.7712 425.731 523.074
1453 0 82.1353 15.3162 1258 68.5851 425.502 522.115
1454 0 86.096 15.3317 1320 68.5447 425.908 521.957
1455 1 39.2205 13.4114 526 71.2224 425.321 544.049
1456 0 43.1033 13.7344 592 69.7888 426.003 542.091
1457 0 42.2035 12.961 547 71.298 426.044 542.015
1458 0 46.0817 13.0421 601 71.6672 425.471 539.755
1459 0 48.0658 13.9184 669 70.6084 425.401 539.671
1460 0 49.0589 12.9436 635 72.5496 426.178 539.052
1461 0 51.0472 12.89 658 73.5091 426.157 537.003
1462 0 51.1943 14.0445 719 73.0264 426.139 536.296
1463 0 53.199 12.9326 688 73.4404 426.307 537.695
1464 0 56.1073 14.2049 797 71.8143 425.316 536.627
1465 0 58.1379 14.7752 859 72.2165 425.881 534.772
1466 0 59.1055 13.3152 787 73.9479 426.173 535.255
1467 0 63.0833 13.4584 849 73.232 426.093 533.841
1468 0 65.1886 14.6958 958 71.7818 425.846 533.476
1469 0 65.1645 14.2562 929 73.5554 426.369 529.803
1470 0 70.1588 15.0231 1054 72.1376 425.869 529.19
1471 0 70.1353 16.2258 1138 71.2443 426.3 529.128
1472 0 72.166 14.6607 1058 73.604 426.876 528.136
1473 0 75.1422 15.0115 1128 73.1215 426.075 527.837
1474 0 76.1799 14.1113 1075 75.0995 425.207 527.539
1475 0 77.2353 13.9444 1077 76.3185 425.647 525.241
1476 0 82.3355 14.5502 1198 73.8272 425.487 524.405
1477 0 84.1702 16.229 1366 72.1464 425.323 524.34
1478 0 86.2478 15.8613 1368 73.7442 424.944 519.086
1479 0 89.1837 14.0609 1254 76.3357 424.92 520.171
1480 0 93.4678 16.4656 1539 72.3769 425.332 519.929
1481 0 95.2207 15.7214 1497 73.3013 425.97 518.615
1482 1 44.0454 13.7812 607 74.1862 424.936 541.491
1483 0 45.0343 13.7451 619 75.0921 424.952 541.006
1484 0 47.1357 14.1082 665 74.8827 425.104 540.072
1485 0 48.0574 15.3982 740 74.3324 425.482 538.393
1486 0 48.1127 13.406 645 77.8248 425.053 537.67
1487 0 50.0476 13.0476 653 78.1838 424.594 538.075
1488 0 52.0318 13.3572 695 77.5914 425.332 538.655
1489 0 54.029 14.2701 771 75.9118 425.248 539.082
1490 0 58.0378 13.8358 803 76.9091 425.318 537.001
1491 0 57.0358 13.1847 752 78.6622 424.883 536.304
1492 0 60.073 14.5656 875 76.6491 425.11 533.318
1493 0 64.0512 15.2534 977 74.3142 424.436 534.104
1494 0 66.1163 15.2761 1010 74.5782 424.852 533.796
1495 0 67.0657 14.6274 981 77.1835 424.984 532.199
1496 0 68.0755 15.0128 1022 76.3894 425.379 531.953
1497 0 70.2323 14.509 1019 77.0824 425.679 530.671
1498 0 72.056 14.4887 1044 77.4579 425.034 528.944
1499 0 74.0493 13.8016 1022 78.3454 425.022 528.753
1500 0 77.0441 13.5117 1041 78.4131 424.958 527.523
1501 0 77.1405 14.2597 1100 77.9518 425.297 526.32
1502 0 80.0762 13.687 1096 78.5411 425.789 526.119
1503 0 81.0774 12.7409 1033 80.1065 425.652 524.086
1504 0 84.1035 14.1373 1189 77.6585 425.609 523.254
1505 1 41.0132 13.5078 554 77.843 425.765 542.43
1506 0 44.084 14.5858 643 75.7418 425.537 542.162
1507 0 43.0062 13.2539 570 78.621 425.663 543.321
1508 0 44.0532 15.1862 669 76.3856 424.984 542.126
1509 0 45.0532 12.9846 585 79.094 424.723 541.597
1510 0 46.0306 13.2086 608 79.426 425.023 542.15
1511 0 48.1945 13.155 634 80.0726 425.271 540.151
1512 0 49.089 13.8116 678 78.4174 425.133 540.83
1513 0 49.0944 12.5473 616 82.1282 425.994 538.899
1514 0 52.0494 13.737 715 80.1413 425.613 537.88
1515 0 53.0166 13.9768 741 80.0459 425.514 537.502
1516 0 56.0978 13.7439 771 81.2322 425.505 535.633
1517 0 58.0808 13.0508 758 82.6847 425.719 534.497
1518 0 60.04 14.5236 872 79.6055 425.239 535.925
1519 0 60.038 13.6747 821 83.0049 425.162 533.188
1520 0 63.0501 13.6875 863 83.2375 425.11 532.85
1521 0 63.0302 12.9462 816 85.065 425.044 533.672
1522 0 68.0293 13.9205 947 83.057 426.082 531.927
1523 0 68.0819 12.7493 868 86.2235 425.374 530.607
1524 0 70.0674 14.1435 991 83.5812 425.446 529.516
1525 1 35.0946 12.3381 433 85.1316 425.053 546.284
1526 0 35.033 12.3312 432 87.1296 425.711 546.025
1527 0 37.0504 12.8474 476 84.2416 425.292 546.731
1528 0 39.1005 12.6853 496 84.9778 424.976 545.548
1529 0 37.0391 12.9593 480 86.2625 425.612 544.66
1530 0 41.0363 13.5003 554 83.5632 425.016 544.486
1531 0 41.0275 13.3569 548 84.2281 425.323 543.823
1532 0 41.041 13.5474 556 84.5683 424.908 543.844
1533 0 44.0066 13.6343 600 83.6833 425.972 543.263
1534 0 46.0761 13.5428 624 81.9663 425.957 542.962
1535 0 46.0751 15.1492 698 79.563 425.292 542.408
1536 0 48.1941 13.4249 647 82.544 425.009 541.414
1537 0 47.0395 13.2017 621 84.0258 425.602 540.262
1538 0 52.0603 13.1962 687 81.8704 425.485 539.562
1539 0 52.074 14.3258 746 80.5174 425.223 538.665
1540 0 53.0531 14.7399 782 80.3619 425.161 535.198
1541 0 57.0396 13.4468 767 81.146 424.657 536.559
1542 0 59.118 13.0755 773 82.0492 423.969 534.969
1543 0 58.0277 13.4074 778 83.1967 424.567 534.096
1544 0 64.1084 14.2883 916 80.2893 424.469 532.536
1545 0 65.0644 14.2628 928 80.9019 424.921 531.797
1546 0 68.0327 13.6993 932 81.6277 425.534 532.27
1547 1 33.032 11.6856 386 82.8186 425.062 546.814
1548 0 33.0725 12.5482 415 83.9374 425.07 545.036
1549 0 34.0338 13.2222 450 82.7333 425.229 544.718
1550 0 34.0173 13.1992 449 82.6548 425.403 545.771
1551 0 36.0257 13.074 471 82.5117 425.454 544.635
1552 0 37.0328 12.9885 481 81.4657 425.337 544.054
1553 0 37.0631 13.0049 482 82.0851 425.826 543.32
1554 0 38.0401 12.6708 482 82.3465 425.093 542.183
1555 0 40.1906 12.8388 516 81.1085 425.397 542.407
1556 0 43.1099 13.0364 562 79.9253 425.082 541.854
1557 0 46.0926 13.1692 607 78.1532 424.74 539.88
1558 0 46.0324 13.056 601 78.3294 424.706 540.359
1559 0 48.0527 14.9003 716 75.007 425.2 540.122
1560 0 48.1015 13.5339 651 77.8449 424.851 537.922
1561 0 49.0483 14.0881 691 77.4761 424.812 537.178
1562 0 49.0362 13.745 674 78.4362 424.905 535.166
1563 0 53.0844 13.0358 692 78.0564 425.003 536.422
1564 0 55.0526 13.4962 743 77.0336 425.094 534.904
1565 0 55.0521 12.9332 712 78.7935 425.669 534.306
1566 0 59.0968 13.1141 775 77.6568 425.196 532.373
1567 0 61.0829 14.1775 866 75.731 425.106 531.286
1568 0 61.0847 12.5563 767 77.9648 425.063 532.893
1569 0 65.081 13.2911 865 76.8116 425.207 530.912
1570 1 31.0177 9.6719 300 80.5533 425.41 545.143
1571 0 33.0902 11.8464 392 75.9082 424.918 544.523
1572 0 35.0078 12.0259 421 77.5558 425.211 543.504
1573 0 36.0088 11.6916 421 77.639 425.162 543.036
1574 0 37.0237 12.0463 446 76.8386 425.446 542.48
1575 0 39.0187 12.3787 483 76.5611 424.698 541.176
1576 0 38.0259 11.9392 454 77.7952 425.295 541.405
1577 0 41.0488 12.2781 504 77.6567 424.936 539.657
1578 0 43.0268 12.8292 552 75.4456 425.359 540.234
1579 0 43.0149 12.9258 556 76.4101 424.362 538.662
1580 0 45.0874 11.5332 520 77.9577 425.058 539.425
1581 0 47.0324 12.098 569 76.8137 425.062 538.265
1582 0 46.0252 12.6018 580 77.35 425.172 537.269
1583 0 49.0702 12.8795 632 76.0079 424.989 536.386
1584 0 52.0981 13.0907 682 74.6422 425.125 535.183
1585 0 53.0915 12.9023 685 75.362 425.32 534.092
1586 0 52.0997 12.1114 631 76.6466 425.583 533.094
1587 0 56.058 12.826 719 75.4395 425.401 532.103
1588 0 60.057 12.9377 777 73.7336 424.456 532.084
1589 0 61.0855 12.3434 754 74.9363 424.659 529.911
1590 0 61.2566 12.9129 791 74.9608 425.487 529.412
1591 0 65.1535 13.0768 852 74.1009 425.623 527.468
1592 0 64.0909 11.8582 760 76.9882 425.162 525.983
1593 0 66.1586 12.0317 796 76.392 425.264 526.923
1594 0 71.1658 12.9978 925 74.3503 424.965 525.774
1595 1 37.0602 11.8726 440 72.4818 425.048 541.793
1596 0 36.046 13.0389 470 72.6064 424.904 541.611
1597 0 38.0616 11.2187 427 73.9461 424.845 542.548
1598 0 39.0562 12.6741 495 73.4646 424.784 539.242
1599 0 40.043 12.2368 490 73.5857 424.69 539.949
1600 0 39.0398 11.9365 466 76.0043 424.994 540.489
1601 0 40.0999 13.2918 533 72.9587 425.578 540.578
1602 0 42.0235 11.2556 473 75.7569 425.078 540.235
1603 0 45.0582 12.0289 542 72.9539 425.085 539.41
1604 0 44.1314 11.9416 527 74.5294 425.213 537.438
1605 0 45.1462 12.5149 565 74.7522 425.563 535.802
1606 0 45.0611 12.2944 554 74.7672 424.931 535.148
1607 0 49.0961 12.7709 627 72.5439 425.144 536.584
1608 0 50.07 13.3613 669 71.7519 424.936 534.697
1609 0 51.086 12.9781 663 72.4012 424.953 533.593
1610 0 50.0998 11.6368 583 74.2076 425.678 533.918
1611 0 54.146 11.9492 647 72.8254 426.253 532.938
1612 0 56.1097 12.7251 714 71.1008 425.067 531.686
1613 0 58.0704 13.8797 806 69.1526 424.909 530.883
1614 0 60.1084 13.9581 839 69.2396 425.21 527.883
1615 0 61.0703 12.3464 754 71 425.725 529.7
1616 0 64.0629 14.3453 919 68.3025 424.814 528.329
1617 0 66.176 14.1592 937 68.3639 425.24 526.88
1618 0 67.0476 12.5135 839 70.4541 425.131 525.886
1619 0 70.1561 13.2562 930 69.1398 424.949 523.513
1620 0 72.0856 13.262 956 69.0052 425.687 523.355
1621 0 75.1294 13.6298 1024 67.666 425.337 523.851
1622 0 76.0828 11.7109 891 70.6408 426.362 520.996
1623 1 39.0709 12.2598 479 67.8956 425.407 539.424
1624 0 39.0888 10.6424 416 70.5962 424.553 538.57
1625 0 43.0222 12.1333 522 67.8716 425.42 537.619
1626 0 42.1115 11.1371 469 69.0107 425.239 538.228
1627 0 44.0747 12.6603 558 67.1667 425.633 535.798
1628 0 45.0582 12.2064 550 68.8218 425.089 534.133
1629 0 45.1642 12.5763 568 68.2482 424.489 532.491
1630 0 50.0484 12.7677 639 66.2363 424.942 533.344
1631 0 50.0566 12.4459 623 67.0658 425.106 532.658
1632 0 52.0796 12.1929 635 67.8898 424.587 529.839
1633 0 54.0762 12.9077 698 66.1977 424.702 531.166
1634 0 57.0978 13.6257 778 65.1877 424.779 530.634
1635 0 55.0474 12.9343 712 67.2388 425.239 526.871
1636 0 57.0318 12.2037 696 68.1135 425.063 528.241
1637 0 61.0357 12.4353 759 67.7391 425.1 526.602
1638 0 63.1103 11.472 724 69.5801 425.275 526.307
1639 0 64.1277 11.7734 755 69.1497 425.344 526.38
1640 0 68.0696 12.6341 860 68.064 425.102 522.331
1641 0 71.1242 13.9896 995 66.5025 424.773 522.326
1642 0 72.0574 11.9766 863 69.2793 424.531 524.417
1643 0 74.0638 11.9357 884 69.6527 424.553 520.845
1644 1 39.1011 11.2529 440 69.3886 424.786 538.827
1645 0 39.0165 10.1239 395 71.2253 424.537 538.008
1646 0 42.1223 10.2321 431 70.3527 425.019 538.791
1647 0 43.1115 11.8066 509 69.4322 424.65 537.929
1648 0 47.0244 12.4616 586 67.8498 424.217 537.884
1649 0 47.1018 12.0165 566 69.1961 424.675 536.511
1650 0 48.0569 12.6725 609 67.9491 424.588 536.374
1651 0 50.0713 11.903 596 69.4866 424.646 533.866
1652 0 51.0303 12.1692 621 68.4944 424.952 535.188
1653 0 54.1502 12.7608 691 67.3878 424.314 532.389
1654 0 56.1446 12.2184 686 66.9184 423.929 533.061
1655 0 57.0868 11.7015 668 68.5599 424.37 529.6
1656 0 60.038 13.7746 827 64.474 424.537 530.215
1657 0 61.0549 13.3159 813 65.4871 424.487 529.562
1658 0 62.0737 12.0985 751 66.759 424.586 528.754
1659 0 63.1114 11.6619 736 67.7717 425.11 526.318
1660 0 67.0636 11.8992 798 67.0113 425.303 524.736
1661 0 69.1223 10.6912 739 67.774 424.483 524.996
1662 0 72.0773 11.1963 807 67.0843 424.579 524.408
1663 0 75.0672 11.9227 895 66.3028 424.752 522.559
1664 0 78.1028 12.3939 968 65.2521 424.713 521.768
1665 0 82.0748 13.11 1076 65.1125 424.661 518.391
1666 0 81.0782 12.6174 1023 66.1789 425.017 517.91
1667 0 87.1455 12.3586 1077 65.7697 425.302 517.97
1668 1 45.0791 10.3374 466 63.4785 425.006 537.682
1669 0 47.039 11.4586 539 62.4193 425.063 536.21
1670 0 47.0225 10.0165 471 64.242 424.881 537.011
1671 0 48.0633 10.0076 481 65.0416 425.002 534.064
1672 0 49.0341 10.9516 537 63.6574 424.985 533.767
1673 0 51.0199 11.9757 611 62.7512 424.822 532.514
1674 0 53.027 12.0505 639 62.2066 424.365 531.721
1675 0 52.0395 10.7418 559 64.6261 424.428 531.535
1676 0 56.0345 11.9034 667 62.1664 424.846 530.781
1677 0 58.1146 11.5634 672 62.9524 425.498 527.592
1678 0 61.0349 11.6982 714 62.4062 425.014 527.884
1679 0 64.0757 12.5945 807 61.0149 425.099 526.424
1680 0 66.0313 10.389 686 62.605 425.2 527.424
1681 0 67.1535 10.5579 709 63.4626 424.543 524.807
1682 0 70.0916 10.1439 711 63.3854 425.572 525.744
1683 0 71.1513 11.7215 834 62.4532 424.5 523.386
1684 0 74.0697 10.4091 771 64.2983 424.726 520.84
1685 0 78.1548 9.41721 736 64.4361 425.092 524.352
1686 1 39.0883 9.28667 363 61.7906 425.168 542.281
1687 0 42.0234 9.68509 407 62.4717 424.978 539.899
1688 0 40.0501 9.03868 362 64.2486 425.24 538.503
1689 0 43.2135 9.53405 412 63.0947 424.333 540.51
1690 0 44.0898 8.73218 385 65.0701 424.642 539.449
1691 0 48.0904 11.52 554 60.556 424.787 538.437
1692 0 49.0874 10.6545 523 61.8757 424.889 537.287
1693 0 50.1122 10.716 537 62.6778 424.523 536.19
1694 0 53.1154 11.0514 587 62.2845 424.712 535.794
1695 0 53.169 9.94942 529 65.4839 425.2 535.155
1696 0 55.1156 10.9225 602 64.8422 425.071 533.204
1697 0 57.063 11.5311 658 63.6094 425.544 532.263
1698 0 59.2263 9.47214 561 65.4064 424.274 530.881
1699 0 61.0856 10.6572 651 64.1459 425.157 529.799
1700 0 62.0652 10.1184 628 64.8057 424.833 530.18
1701 0 63.0817 10.0663 635 64.6378 424.915 529.238
1702 0 67.0862 10.2704 689 63.9245 425.565 526.142
1703 0 67.1193 10.8762 730 63.5356 425.512 525.659
1704 0 69.0911 10.9421 756 62.8347 425.112 526.392
1705 0 72.0902 10.5007 757 62.963 424.987 525.987
1706 0 74.1171 10.6588 790 63.8734 425.54 518.929
1707 0 77.1047 12.3079 949 61.4015 425.643 519.223
1708 0 79.199 10.7072 848 63.0094 425.642 518.808
1709 0 82.0573 10.7364 881 63.1442 424.985 516.81
1710 0 86.1482 9.34436 805 64.9925 424.919 514.738
1711 1 44.0247 10.1761 448 61.4241 425.473 536.216
1712 0 45.0402 8.94756 403 62.7469 425.002 536.231
1713 0 46.1241 10.1465 468 61.1795 424.538 537.053
1714 0 47.0437 9.71437 457 62.1488 424.182 535.414
1715 0 50.095 10.5799 530 61.6528 424.957 534.483
1716 0 50.132 9.99362 501 62.7186 424.848 532.709
1717 0 52.1696 10.6576 556 61.3291 425.04 535.196
1718 0 55.1057 10.6704 588 61.8792 425.655 530.068
1719 0 56.0904 11.214 629 61.4817 425.692 530.55
1720 0 58.111 11.9599 695 60.2259 424.63 530.577
1721 0 59.0584 11.5648 683 60.9795 424.805 531.392
1722 0 61.0781 10.9859 671 61.8212 425.1 529.924
1723 0 61.096 10.2134 624 63.6394 425.109 529.918
1724 0 64.1542 10.2098 655 63.4504 424.78 527.653
1725 0 66.18 10.0937 668 63.274 425.792 529.166
1726 0 68.0769 11.9718 815 60.9252 426.113 526.142
1727 0 69.1303 10.9648 758 63.0858 425.558 526.195
1728 0 72.0879 10.9172 787 62.615 425.518 526.409
1729 0 74.1228 13.1134 972 60.2047 425.034 522.826
1730 0 75.1724 10.0835 758 64.1847 424.945 520.731
1731 0 81.2135 12.8796 1046 59.9981 424.772 521.526
1732 0 82.0993 11.2668 925 62.9222 424.924 518.294
1733 0 84.063 11.3724 956 62.8316 425.506 516.817
1734 0 86.1849 11.3477 978 62.8661 425.494 513.785
1735 1 46.1843 9.98175 461 62.026 425.592 536.579
1736 0 47.0474 10.2875 484 62.5826 425.43 535.5
1737 0 48.1811 10.2737 495 62.3859 424.986 536.644
1738 0 50.0668 10.5659 529 62.2741 424.522 535.456
1739 0 53.0649 11.8534 629 60.5978 425.754 535.504
1740 0 53.0925 12.6948 674 60.8516 425.537 533.671
1741 0 54.0929 11.1475 603 62.7695 424.968 533.189
1742 0 56.1044 11.7103 657 62.0183 424.746 531.935
1743 0 56.0828 10.9481 614 63.614 425.094 532.86
1744 0 57.0995 12.4695 712 62.368 425.545 530.104
1745 0 60.0675 12.4194 746 61.8056 425.244 531.158
1746 0 61.0727 11.8875 726 62.2135 425.435 532.748
1747 0 62.0676 11.4714 712 63.7725 425.466 530.308
1748 0 65.0683 11.3727 740 63.4284 425.495 528.991
1749 0 66.107 11.1486 737 64.2917 425.757 526.562
1750 0 68.054 10.5064 715 64.7455 425.694 527.116
1751 0 71.1251 12.3023 875 63.0377 425.797 523.842
1752 0 72.0993 11.7061 844 64.141 426.022 523.444
1753 0 76.1049 12.036 916 63.0731 426.228 521.934
1754 0 76.1369 11.5319 878 63.91 425.958 521.601
1755 1 40.0198 11.5942 464 60.7543 426.218 538.996
1756 0 39.043 8.73396 341 64.7067 426.428 538.818
1757 0 43.0204 10.7856 464 61.972 426.149 538.119
1758 0 41.0786 8.86107 364 64.0385 425.415 537.475
1759 0 45.0285 11.2595 507 60.7475 425.665 536.584
1760 0 47.0346 11.4171 537 60.8063 425.35 536.415
1761 0 49.069 11.2902 554 61.6895 424.679 534.549
1762 0 48.1158 10.4332 502 63.6116 424.446 534.765
1763 0 49.0123 11.9562 586 62.7611 425.06 533.94
1764 0 49.028 10.7694 528 64.4924 424.875 535.114
1765 0 52.0255 11.3022 588 64 424.403 534.258
1766 0 52.0719 11.8106 615 63.7837 424.309 533.779
1767 0 57.0746 12.7027 725 61.7531 425.204 532.106
1768 0 55.0507 10.9535 603 64.3532 424.763 532.993
1769 0 57.0564 12.7243 726 62 424.762 533.106
1770 0 57.0417 12.0263 686 64.0277 424.822 529.499
1771 0 58.0459 12.6107 732 63.2637 424.999 528.902
1772 0 62.0814 12.5158 777 62.4504 425.068 528.564
1773 0 63.0629 12.2259 771 62.9014 424.949 528.231
1774 0 66.0321 10.8432 716 64.6564 424.489 528.535
1775 0 67.0418 14.1852 951 60.5983 423.941 528.386
1776 0 68.126 11.9338 813 64.4317 425.308 525.814
1777 0 71.1499 12.3261 877 63.935 424.155 525.881
1778 0 72.1405 11.242 811 66.0358 424.503 524.745
1779 0 76.1245 13.2809 1011 62.9842 424.794 524.078
1780 0 76.0808 12.237 931 64.9807 425.057 522.929
1781 1 40.0607 10.1096 405 63.2 423.985 542.852
1782 0 39.0143 10.6371 415 63.3349 424.41 542.675
1783 0 40.0128 11.4713 459 62.2505 424.148 543.159
1784 0 43.1058 9.53469 411 65.9708 424.148 540.849
1785 0 41.0295 10.4315 428 66.3435 423.808 540.456
1786 0 44.0213 12.2441 539 63.1688 424.115 539.378
1787 0 45.0657 11.9381 538 64.013 424.543 538.357
1788 0 45.0484 12.7862 576 63.2656 425.014 536.991
1789 0 46.0805 11.8705 547 64.4479 425.132 537.291
1790 0 48.04 12.219 587 64.3748 425.554 537.985
1791 0 49.0773 11.3698 558 65.4212 424.948 538.801
1792 0 51.0264 13.738 701 63.0314 424.66 533.762
1793 0 52.0599 11.9094 620 65.4016 425.195 535.063
1794 0 52.0196 12.1685 633 66.1485 424.311 534.632
1795 0 54.0352 12.5844 680 66.0809 425 532.216
1796 0 53.0884 11.2642 598 68.9599 425.135 534.007
1797 0 58.0219 12.9434 751 66.2224 425.265 532.381
1798 0 57.0508 12.9884 741 66.9501 424.525 532.328
1799 0 59.0726 13.3057 786 66.9886 424.728 530.496
1800 0 61.0344 12.4192 758 69.252 424.797 528.992
1801 0 63.0524 13.354 842 68.0451 424.096 527.173
1802 0 64.0319 13.587 870 68.3942 424.462 526.53
1803 0 66.0565 13.3976 885 69.5254 424.781 525.292
1804 0 67.0781 13.2979 892 69.685 424.165 525.146
1805 0 69.0244 13.4735 930 70.1409 424.827 524.778
1806 0 73.0534 13.7434 1004 69.6245 424.305 523.168
1807 1 35.0144 11.9094 417 70.4245 423.998 541.566
1808 0 36.0064 9.80382 353 72.7507 424.105 542.544
1809 0 35.0188 10.7656 377 72.5889 424.358 542.443
1810 0 37.0325 11.8275 438 72.2854 423.995 540.31
1811 0 38.0212 11.9144 453 71.5916 425.057 540.634
1812 0 40.0563 11.5587 463 72.4363 424.337 539.229
1813 0 40.0463 10.8874 436 73.4312 424.732 540.25
1814 0 40.0762 10.7545 431 74.297 424.527 538.838
1815 0 42.0202 11.7562 494 71.6478 424.318 539.542
1816 0 43.0352 11.2931 486 73.3416 424.296 537.35
1817 0 44.0902 10.6146 468 73.7671 423.538 538.487
1818 0 45.0258 11.0603 498 72.9458 424.331 536.524
1819 0 47.0347 10.5879 498 72.994 424.367 537.709
1820 0 49.0097 11.814 579 71.6097 424.684 533.988
1821 0 51.0528 11.5958 592 70.7399 424.436 536.331
1822 0 52.1152 11.7624 613 71.1762 424.863 534.008
1823 0 51.0298 11.4639 585 72.9607 424.773 533.636
1824 0 54.0378 11.4734 620 72.1145 424.853 532.021
1825 0 56.0742 11.1281 624 72.2196 425.612 531.178
1826 0 57.0797 10.7394 613 71.8108 425.093 531.414
1827 0 61.0163 11.8329 722 69.7507 425.096 530.058
1828 0 63.0532 11.9581 754 70.2918 425.304 528.667
1829 1 31.0156 11.2846 350 69.3571 424.583 541.994
1830 0 31.0132 10.3827 322 70.5497 424.64 542.63
1831 0 33.064 10.646 352 68.8324 425.307 542.824
1832 0 32.0858 10.6589 342 71.8392 425.529 541.485
1833 0 38.024 11.7031 445 67.4719 424.82 541.434
1834 0 38.0379 11.1731 425 68.7412 424.859 540.52
1835 0 38.0314 11.9375 454 68.9648 424.542 539.251
1836 0 38.0363 11.2787 429 70.69 424.203 539.361
1837 0 39.0242 10.3525 404 71.4381 424.648 539.53
1838 0 43.011 11.0204 474 70.2405 424.665 539.316
1839 0 43.0225 10.6688 459 70.3137 424.346 538.747
1840 0 44.0149 12.5185 551 69.3176 424.751 535.869
1841 0 44.0894 11.5674 510 70.5255 425.137 536.345
1842 0 46.0847 11.7175 540 69.6167 424.541 535.598
1843 0 48.0384 10.6998 514 70.7101 424.383 535.261
1844 0 49.0566 12.1288 595 68.4723 424.346 534.311
1845 0 53.0483 11.3105 600 69.3133 424.552 533.133
1846 0 53.0285 12.4461 660 68 424.182 531.808
1847 0 54.0502 11.6743 631 68.8574 423.165 530.54
1848 0 57.0607 11.5842 661 68.5824 424.89 530.448
1849 0 56.0298 11.6188 651 69.3702 424.298 530.905
1850 0 60.0389 12.2421 735 68.1456 424.027 528.789
1851 0 61.0648 11.9545 730 68.6671 424.305 526.441
1852 0 62.0407 11.1056 689 69.4064 424.538 525.508
1853 1 31.0264 11.1518 346 67.7861 425.373 543.202
1854 0 31.0062 9.51424 295 69.6915 425.051 543.349
1855 0 32.0336 11.4879 368 66.9538 424.644 542.188
1856 0 33.0177 10.8124 357 68.1849 424.955 541.944
1857 0 35.086 11.8566 416 66.5962 424.411 542.579
1858 0 36.097 13.1313 474 64.6899 424.679 541.352
1859 0 37.0132 11.2122 415 68.1253 424.277 539.61
1860 0 38.1552 11.3746 434 67.1567 424.353 539.931
1861 0 39.1151 11.6323 455 67.2374 424.681 540.143
1862 0 40.0603 11.957 479 66.739 424.76 539.649
1863 0 41.0494 12.424 510 66.2647 425.353 538.929
1864 0 44.029 11.8104 520 66.4538 425.394 538.915
1865 0 41.0157 11.6784 479 68.215 425.599 538.265
1866 0 43.0686 12.1202 522 67.5632 425.284 536.448
1867 0 46.0626 13.308 613 64.9657 425.067 536.243
1868 0 47.0535 12.0289 566 66.6837 424.682 534.157
1869 0 47.0177 12.1869 573 66.4293 423.902 533.953
1870 0 50.0333 13.7308 687 63.9665 423.854 533.54
1871 0 51.0344 12.6973 648 65.179 424.557 533.671
1872 0 52.0446 12.3164 641 65.7878 424.577 534.357
1873 0 53.0299 10.6355 564 67.8777 424.638 534.02
1874 0 53.1532 14.0537 747 64.3802 424.154 529.6
1875 0 55.0813 12.0731 665 66.2165 423.886 531.338
1876 0 56.072 11.7884 661 67.1679 423.545 528.634
1877 0 59.0811 12.0512 712 66.7725 423.386 527.135
1878 0 60.0888 11.9989 721 67.2233 423.886 527.907
1879 0 63.0544 12.9571 817 66.0037 424.087 526.607
1880 0 67.0493 12.4535 835 66.7928 424.299 526.102
1881 0 68.0891 12.5571 855 66.9427 424.898 525.415
1882 0 70.282 13.332 937 66.285 424.434 522.078
1883 0 72.1611 13.0818 944 67.0064 424.079 522.42
1884 0 74.0278 11.3201 838 70.0262 424.042 519.808
1885 1 40.0332 12.3897 496 67.6814 424.319 537.657
1886 0 40.055 10.4107 417 71.3405 423.583 537.06
1887 0 41.0103 12.1677 499 69.5912 424.565 536.204
1888 0 43.0541 11.4275 492 70.7398 424.51 537.837
1889 0 44.0725 12.2525 540 69.7537 424.324 536.93
1890 0 45.0819 12.9764 585 69.4496 424.622 536.395
1891 0 47.0735 13.2346 623 69.6661 424.334 533.857
1892 0 49.046 12.5596 616 70.1461 424.135 534.106
1893 0 50.089 11.9587 599 71.7179 424.723 533.978
1894 0 50.0308 12.3324 617 73.0989 424.971 532.841
1895 0 54.0757 13.8879 751 71.1851 425.158 531.626
1896 0 54.032 13.2329 715 72.0769 424.274 532.701
1897 0 58.0747 13.7582 799 70.9287 424.692 531.932
1898 0 56.0469 13.0962 734 74.1226 424.816 529.198
1899 0 58.1484 11.8146 687 76.2868 424.918 529.783
1900 0 60.0604 12.7205 764 75.1715 424.876 528.709
1901 0 62.1428 13.5816 844 73.8969 425.092 527.35
1902 0 66.0477 13.8082 912 72.7533 425.435 528.065
1903 0 67.1055 13.3372 895 74.8525 424.956 524.749
1904 0 70.1266 14.3455 1006 73.2555 424.558 524.752
1905 0 73.1178 14.1005 1031 73.4869 424.699 522.95
1906 0 74.0932 12.5518 930 75.9806 425.618 524.07
1907 0 76.0823 13.5774 1033 74.5954 425.165 520.448
1908 0 79.0483 14.8137 1171 73.029 425.194 520.073
1909 0 82.1648 13.4121 1102 75.1878 425.159 519.797
1910 1 44.0365 13.3526 588 75.8214 425.206 537.231
1911 0 43.0393 13.267 571 77.2119 424.743 534.511
1912 0 46.0667 12.3082 567 76.9824 424.481 535.441
1913 0 49.0207 12.5253 614 75.7394 424.919 535.521
1914 0 49.1129 12.8276 630 75.6651 425.254 535.143
1915 0 51.0721 13.6474 697 75.7532 425.019 530.528
1916 0 51.1265 12.1072 619 77.8465 425.703 532.782
1917 0 54.0478 13.9876 756 74.4603 425.386 531.772
1918 0 57.045 14.4973 827 73.3616 424.643 531.686
1919 0 56.0686 12.128 680 77.6603 425 531.303
1920 0 59.0325 13.7213 810 75.2531 425.059 529.018
1921 0 58.0994 12.754 741 77.8799 424.783 526.677
1922 0 62.1171 12.2672 762 77.1601 425.181 528.65
1923 0 64.0348 12.0091 769 78.0572 425.629 526.538
1924 0 65.0569 11.9434 777 78.5663 425.601 524.282
1925 0 65.0573 11.8357 770 79.5143 425.3 523.992
1926 0 69.0455 11.1376 769 79.8414 425.143 521.815
1927 0 72.051 12.1858 878 77.8064 424.557 522.757
1928 0 73.1007 12.8727 941 77.4091 425.409 522.558
1929 0 78.1015 13.6489 1066 76.2195 425.501 520.122
1930 1 38.043 10.6458 405 80.1012 425.736 539.477
1931 0 39.0447 9.88611 386 81.5389 425.622 539.723
1932 0 42.0763 10.172 428 80.1192 425.357 538.741
1933 0 43.1192 12.3379 532 77.8233 425.147 536.338
1934 0 46.0587 13.1788 607 75.7924 424.382 536.784
1935 0 46.0937 11.6285 536 77.8116 425.222 538.017
1936 0 47.0538 12.2413 576 77.6684 424.708 535.366
1937 0 49.1205 11.6652 573 78.4398 424.353 537
1938 0 51.0588 12.28 627 77.7847 424.344 534.523
1939 0 53.0362 11.6524 618 78.4337 424.749 534.358
1940 0 56.1008 14.5987 819 73.5971 424.269 533.418
1941 0 55.1131 10.9593 604 79.0993 424.426 535.038
1942 0 60.062 12.7868 768 75.2461 423.462 533.572
1943 0 61.0674 13.7553 840 74.2167 423.787 531.37
1944 0 63.1713 15.086 953 72.3137 423.813 531.251
1945 0 66.0939 13.3749 884 74.3235 423.2 529.462
1946 0 68.0511 12.9755 883 74.7622 423.011 529.978
1947 0 69.053 12.7438 880 75.6239 423.535 527.368
1948 0 72.083 13.4845 972 73.9537 423.387 527.6
1949 0 75.0629 13.4021 1006 73.6998 423.059 525.522
1950 0 76.0556 13.385 1018 73.7102 422.873 525.788
1951 0 78.0426 12.16 949 76.0685 422.811 522.497
1952 0 81.0896 14.2682 1157 72.2558 422.481 522.978
1953 0 84.0721 12.8342 1079 74.1057 422.354 521.831
1954 0 86.1441 13.3962 1154 73.5754 423.043 520.641
1955 1 48.1026 12.7436 613 71.5628 422.843 540.29
1956 0 48.0215 11.953 574 73.8693 422.81 538.624
1957 0 50.1009 12.7343 638 72.7915 422.356 537.356
1958 0 52.0318 13.338 694 70.794 423.032 538.202
1959 0 52.0757 12.7699 665 72.4692 423.296 536.895
1960 0 54.0562 13.8745 750 70.356 423.711 534.639
1961 0 56.0294 12.6541 709 72.1467 423.643 534.22
1962 0 58.0906 12.3944 720 71.9944 423.576 532.639
1963 0 58.1447 13.002 756 72.045 423.186 529.245
1964 0 60.0654 11.7871 708 72.5381 423.079 530.339
1965 0 63.1096 12.6605 799 72.1902 422.985 527.272
1966 0 64.029 12.2601 785 72.4217 423.061 526.566
1967 0 68.1257 12.198 831 71.8472 423.16 527.273
1968 0 70.0593 12.8463 900 71.5744 424.414 524.089
1969 0 71.0641 12.3691 879 72.5893 424.229 521.969
1970 0 74.0354 12.1428 899 72.9244 424.71 524.02
1971 0 78.1264 12.211 954 72.5828 424.304 521.189
1972 0 80.0611 13.0275 1043 72.1956 424.526 519.815
1973 0 80.1008 12.734 1020 73.4 424.255 518.114
1974 1 40.0225 8.82004 353 75.6544 424.272 538.314
1975 0 44.0148 11.4734 505 72.0495 424.515 536.576
1976 0 45.095 12.0856 545 71.9523 424.402 535.556
1977 0 46.034 12.2301 563 71.7069 424.282 534.703
1978 0 45.0754 11.4253 515 73.6602 424.262 535.437
1979 0 49.0829 11.9594 587 72.2334 425.635 533.455
1980 0 50.0585 12.6252 632 71.4953 424.54 532.508
1981 0 52.0669 11.4468 596 72.6862 425.136 531.527
1982 0 52.0649 11.7738 613 72.3573 425.117 530.635
1983 0 54.0484 12.3778 669 71.0703 424.472 532.043
1984 0 55.2134 11.3922 629 72.7186 424.898 530.45
1985 0 60.0673 12.1364 729 70.69 425.255 528.612
1986 0 62.0891 13.0941 813 69.5978 425.708 527.342
1987 0 64.0567 14.4247 924 67.645 426.058 525.516
1988 0 66.0546 12.1869 805 70.7168 425.194 523.875
1989 0 67.0548 12.8253 860 70.5546 425.345 523.107
1990 0 70.1021 13.4661 944 68.9036 425.335 523.256
1991 0 72.095 13.3158 960 69.8875 424.63 520.189
1992 0 73.0922 12.1627 889 72.1181 425.618 517.469
1993 0 77.0368 15.3174 1180 67.2263 425.755 516.858
1994 0 78.089 12.1656 950 72.8379 426.603 515.432
1995 0 82.1074 14.5297 1193 69.0034 426.674 516.868
1996 1 40.0788 9.98034 400 72.065 425.715 536.518
1997 0 43.0559 9.29026 400 73.2 425.422 535.122
1998 0 46.0343 11.7956 543 70.2026 425.668 534.328
1999 0 46.0885 10.7402 495 71.9737 425.578 534.495
2000 0 47.0697 10.9625 516 72.2151 425.874 533.074
2001 0 49.0547 10.8654 533 71.5929 426.105 533.925
2002 0 51.0726 11.7676 601 71.0616 426.082 530.732
2003 0 53.0133 11.3556 602 71.0581 425.545 528.777
2004 0 54.0389 12.2319 661 70.0197 425.309 528.07
2005 0 56.041 11.1525 625 70.744 425.816 529.338
2006 0 59.0338 11.9762 707 69.0325 425.526 526.914
2007 0 62.118 11.5908 720 68.7875 425.335 527.151
2008 0 63.1444 12.0201 759 68.9512 425.925 523.675
2009 0 63.0433 11.2462 709 69.7588 425.841 523.801
2010 0 67.0333 12.725 853 67.1641 425.26 523.355
2011 0 69.0175 12.7214 878 67.0877 424.341 523.498
2012 0 72.0988 12.1777 878 67.1333 424.339 521.715
2013 0 76.0512 12.7546 970 66.2536 424.97 519.047
2014 0 76.1373 11.9915 913 67.4096 425.238 518.226
2015 0 78.0671 11.362 887 68.7091 425.096 514.924
2016 0 82.0859 11.5976 952 67.6775 424.572 514.568
2017 0 86.0591 12.4333 1070 66.128 424.019 515.087
2018 0 88.0989 11.9979 1057 67.1864 424.034 513.863
2019 0 91.1295 11.95 1089 66.9614 423.847 511.964
2020 0 94.0966 12.6891 1194 65.8157 424.318 511.523
2021 0 96.0729 12.095 1162 66.5525 424.735 508.898
2022 1 49.0722 9.12941 448 67.4353 424.688 534.062
2023 0 51.0247 11.9354 609 65.1051 424.424 532.604
2024 0 53.099 10.5463 560 67.3589 424.777 530.493
2025 0 55.0602 11.8053 650 65.0354 424.609 530.218
2026 0 57.0602 11.5843 661 65.7292 424.687 527.452
2027 0 60.0875 11.8993 715 64.7315 424.105 529.55
2028 0 60.0978 12.0803 726 65.0317 423.879 527.599
2029 0 64.0938 12.0136 770 64.5403 423.669 525.422
2030 0 63.2055 10.7269 678 67.1608 424.816 525.771
2031 0 66.1262 12.3249 815 64.4712 424.205 525.837
2032 0 67.2183 12.0652 811 65.5734 423.98 522.38
2033 0 72.167 12.3464 891 64.5118 423.997 521.832
2034 0 72.0596 12.2399 882 65.2324 424.687 520.192
2035 0 75.1154 11.8218 888 65.4989 424.232 520.791
2036 0 77.1134 11.2302 866 65.7621 423.801 522.117
2037 0 81.1747 11.9003 966 65.4348 423.977 520.145
2038 0 85.194 12.677 1080 64.3241 424.907 518.332
2039 0 85.0681 12.5076 1064 65.6457 424.93 515.221
2040 0 87.0898 12.0565 1050 66.4857 424.716 516.6
2041 0 91.0622 13.1998 1202 65.4043 424.755 513.177
2042 0 93.0674 12.8939 1200 66.1433 424.401 513.59
2043 0 95.1366 13.5384 1288 65.5295 424.71 512.713
2044 0 100.162 13.0888 1311 66.2448 424.944 508.523
2045 0 100.079 11.1611 1117 69.1817 424.452 510.942
2046 1 54.0967 11.3501 614 67.9349 423.454 532.834
2047 0 58.0763 11.2783 655 66.9893 423.482 531.681
2048 0 57.083 10.4059 594 69.4394 423.532 527.859
2049 0 61.1048 11.4394 699 67.7096 423.918 528.26
2050 0 60.1169 11.8103 710 68.193 423.527 527.194
2051 0 64.0584 11.6612 747 67.7564 423.706 527.572
2052 0 67.1286 12.7367 855 67.0819 423.551 525.463
2053 0 69.2886 11.5748 802 68.1396 423.936 524.512
2054 0 73.0471 13.0874 956 64.9801 423.131 526.024
2055 0 76.1282 12.9781 988 65.8785 423.662 521.937
2056 0 78.4248 13.0061 1020 66.0284 423.674 521.034
2057 0 81.1712 12.7632 1036 66.2635 422.579 517.683
2058 0 84.0982 12.5686 1057 65.9461 423.202 516.114
2059 0 86.1639 11.0023 948 69.8544 423.783 517.176
2060 0 91.0906 12.504 1139 68.4188 423.574 515.619
2061 0 94.1308 12.4401 1171 68.3501 423.133 512.229
2062 1 50.076 11.5824 580 65.7741 422.548 532.524
2063 0 51.0335 12.6388 645 65.3101 423.054 532.949
2064 0 51.0669 10.7506 549 67.9526 423.25 533.26
2065 0 55.0692 13.1653 725 64.7917 423.539 533.51
2066 0 54.0721 11.4477 619 68.1066 424.15 532.533
2067 0 58.0714 13.2596 770 65.5 423.316 530.57
2068 0 56.0116 11.4619 642 68.7617 423.843 531.087
2069 0 60.1085 12.1613 731 67.3598 423.216 528.349
2070 0 61.0413 12.3851 756 66.4577 422.967 529.173
2071 0 63.0945 11.3005 713 68.4334 423.034 527.425
2072 0 65.1091 12.5482 817 66.8201 423.103 525.852
2073 0 66.0911 12.1953 806 67.4541 423.186 525.803
2074 0 70.0721 11.4739 804 67.5647 422.664 525.454
2075 0 68.1627 11.722 799 68.0376 422.821 524.07
2076 0 73.1078 12.1738 890 66.8809 422.876 522.09
2077 0 73.1335 11.4038 834 68.518 423.382 519.026
2078 0 77.0783 12.3122 949 66.49 423.35 518.333
2079 0 79.1315 11.2597 891 67.7295 423.23 517.778
2080 0 83.1111 12.5134 1040 65.6452 423.34 515.98
2081 1 39.0809 9.00696 352 66.625 423.838 536.097
2082 0 41.1058 9.60934 395 66.3291 423.922 535.481
2083 0 45.0522 11.2314 506 64.4051 424.569 537.496
2084 0 43.0524 9.66265 416 68.4639 424.269 536.579
2085 0 43.0364 9.94508 428 69.472 423.722 537.175
2086 0 47.0841 11.5538 544 65.5827 423.358 535.586
2087 0 49.0321 12.0941 593 65.8887 423.219 533.16
2088 0 49.0561 11.1097 545 67.0294 423.497 533.376
2089 0 53.0638 11.4202 606 65.9059 423.272 533.082
2090 0 53.0421 12.7257 675 64.4311 423.481 531.918
2091 0 55.0384 12.2823 676 65.4882 423.805 530.899
2092 0 56.0458 13.489 756 63.7897 423.491 530.701
2093 0 58.1143 14.3166 832 62.5974 422.938 529.162
2094 0 60.1178 11.7602 707 66.0721 423.42 529.181
2095 0 59.0959 11.2529 665 67.397 423.92 528.463
2096 0 65.147 11.4664 747 65.5796 423.398 529.044
2097 0 66.1077 13.2511 876 63.629 423.508 527.541
2098 0 67.0854 13.2219 887 63.7926 422.614 526.284
2099 0 68.0875 11.7349 799 66.2478 422.955 523.208
2100 0 71.1077 13.36 950 63.7284 422.6 521.223
2101 0 73.1355 11.1164 813 66.8536 422.471 522.46
2102 0 74.0937 12.7946 948 65.1108 422.444 519.843
2103 1 41.0565 9.88881 406 65.5222 422.549 538.177
2104 0 39.0309 8.7879 343 66.93 422.42 539.087
2105 0 42.0601 9.98571 420 65.9262 422.033 536.21
2106 0 42.029 11.3017 475 64.301 422.895 537.208
2107 0 43.0234 11.18 481 64.7235 423.019 536.721
2108 0 45.1371 12.4067 560 62.9911 422.625 536.455
2109 0 46.1829 11.8009 545 64.8917 422.413 535.332
2110 0 47.0426 12.2017 574 63.7718 423.439 536.446
2111 0 50.0906 11.9184 597 63.9648 423.08 536.983
2112 0 50.0538 10.6685 534 65.6461 423.642 536.3
2113 0 51.1496 11.0265 564 65.7394 422.883 534.638
2114 0 53.0667 11.25 597 65.1323 423.486 533.883
2115 0 53.0452 11.4242 606 65.4521 422.934 532.158
2116 0 55.0918 11.2176 618 66.144 423.942 532.168
2117 0 57.1013 12.2764 701 64.5264 423.984 531.785
2118 0 59.1877 11.0665 655 66.8794 423.922 528.289
2119 0 59.0557 10.5663 624 66.9519 423.287 528.319
2120 0 62.075 11.8888 738 65.4932 422.679 525.606
2121 0 65.1472 12.1417 791 64.4349 423.675 527.015
2122 0 67.1702 12.2078 820 64.6122 423.543 526.578
2123 0 70.1792 12.6106 885 63.4576 423.521 526.708
2124 0 69.0503 12.7733 882 64.4943 423.934 523.777
2125 0 71.0723 11.9596 850 65.4694 423.836 523.798
2126 1 34.0448 9.6931 330 65.9727 423.488 541.958
2127 0 37.0718 10.4932 389 64.2134 423.524 540.445
2128 0 39.0523 11.0621 432 63.8704 423.576 539.565
2129 0 38.0062 10.1825 387 65.4444 423.137 539.287
2130 0 38.059 10.3261 393 66.3893 423.008 538.845
2131 0 41.0345 11.7706 483 64.0145 423.029 538.778
2132 0 41.0395 11.2087 460 65.6804 423.257 536.837
2133 0 43.0647 11.8659 511 65.1292 423.127 534.121
2134 0 43.0355 10.8283 466 66.7167 423.133 536.642
2135 0 45.1037 11.4847 518 66.1699 423.446 535.359
2136 0 46.0108 10.9757 505 66.998 423.475 535.739
2137 0 46.0319 10.9924 506 68.1067 423.773 533.686
2138 0 46.0312 10.1236 466 69.7768 423.436 534.208
2139 0 50.0194 12.835 642 65.8209 423.469 533.544
2140 0 51.0158 11.7415 599 67.8548 423.371 531.77
2141 0 54.0185 12.7919 691 65.5876 422.781 532.259
2142 0 54.1513 10.3599 561 69.1622 423.271 532.864
2143 0 54.0314 10.4199 563 70.254 423.629 529.293
2144 0 58.0493 11.852 688 67.2994 423.494 531.493
2145 0 57.0308 10.9941 627 68.8421 423.633 531.699
2146 0 59.0629 10.8698 642 69.8069 423.805 529.816
2147 0 61.0641 11.8564 724 68.4613 423.765 526.298
2148 0 63.107 11.0764 699 69.1345 423.409 527.213
2149 0 65.0351 12.4394 809 67.6712 422.975 526.271
2150 0 67.0326 13.0683 876 66.9201 423.853 524.248
2151 0 69.0602 12.0909 835 68.0766 422.847 524.331
2152 0 71.0761 12.1841 866 67.7818 422.6 523.294
2153 0 73.1104 11.9272 872 69.047 422.893 520.572
2154 0 76.0644 12.0424 916 68.4159 423.349 520.666
2155 1 36.0344 9.87945 356 70.6826 423.374 538.598
2156 0 38.0344 9.30736 354 70.4746 423.695 538.147
2157 0 40.0181 11.4698 459 68.3028 422.577 536.941
2158 0 42.0924 10.7145 451 68.7361 423.007 537.705
2159 0 42.0107 11.9017 500 67.788 422.99 534.318
2160 0 44.0267 11.8337 521 67.7044 423.61 535.894
2161 0 44.0308 11.3103 498 69.6606 423.331 532.384
2162 0 44.0282 10.8794 479 71.0793 423.472 533.557
2163 0 46.0235 12.0156 553 68.5425 423.817 533.465
2164 0 47.0591 11.0924 522 70.0306 423.663 531.644
2165 0 51.0418 12.5192 639 67.4507 423.244 532.297
2166 0 48.0354 8.78519 422 73.2725 422.974 531.455
2167 0 41.0732 7.01187 288 74.7396 423.104 523.764
2168 0 47.0662 8.13747 383 74.1332 423.499 526.59
2169 0 50.0589 8.92949 447 72.689 423.635 526.38
2170 0 56.0712 10.558 592 70.2162 423.392 530.046
2171 0 62.0535 11.8768 737 67.3094 423.092 528.079
2172 0 63.0339 12.8026 807 66.461 422.967 526.861
2173 0 66.0306 13.1151 866 66.2171 423.687 525.408
2174 0 68.027 12.8919 877 65.992 423.677 525.402
2175 0 71.0356 12.7682 907 66.0011 423.214 522.417
2176 0 71.0334 12.4167 882 66.881 423.494 521.483
2177 0 73.0823 12.7801 934 66.636 423.388 520.866
2178 0 77.1311 12.0315 928 67.8405 423.293 518.277
2179 0 77.0217 11.7629 906 68.7384 423.787 518.478
2180 1 42.1045 10.6402 448 66.7522 424.221 537.969
2181 0 43.0326 12.3162 530 65.0698 423.658 537.085
2182 0 43.0172 11.1816 481 67.6715 422.917 535.189
2183 0 45.1072 11.6611 526 66.9601 422.681 533.414
2184 0 45.016 11.7958 531 67.5254 423.345 534.341
2185 0 47.0676 11.2816 531 67.5009 423.266 534.529
2186 0 47.0566 10.753 506 68.2233 423.565 534.107
2187 0 49.0472 10.5817 519 68.9403 423.258 532.326
2188 0 51.0348 11.6195 593 67.5599 423.017 529.917
2189 0 54.0325 11.7337 634 66.6514 422.842 528.954
2190 0 56.0381 13.0625 732 64.8634 423.165 528.377
2191 0 58.0963 11.894 691 65.6961 422.996 529.563
2192 0 59.0299 11.5873 684 67.0453 423.275 527.227
2193 0 60.0294 11.9275 716 67.0545 423.176 526.645
2194 0 63.0444 14.3074 902 63.2639 423.192 526.499
2195 0 63.1026 11.8696 749 67.3952 422.83 526.021
2196 0 67.0929 12.669 850 66.3176 423.225 523.834
2197 0 68.0468 12.2269 832 66.8426 422.7 522.806
2198 0 71.0914 12.1956 867 68.2422 422.579 521.263
2199 0 74.102 11.8215 876 67.9829 422.36 522.234
2200 0 75.1263 12.0198 903 68.1672 422.029 522.276
2201 0 79.1076 13.4753 1066 66.5281 422.69 519.326
2202 0 80.1862 11.8973 954 68.8187 422.711 520.107
2203 1 43.0154 11.4378 492 67.4146 423.238 538.598
2204 0 43.0291 11.0855 477 69.3166 422.92 535.08
2205 0 46.0882 10.4365 481 69.6653 422.827 535.938
2206 0 46.0475 12.2699 565 67.6549 422.743 534.687
2207 0 47.03 10.4827 493 69.9432 422.637 534.791
2208 0 48.1174 11.9707 576 68.1128 422.488 532.632
2209 0 51.0996 12.4267 635 66.6457 423.006 532.246
2210 0 52.0806 12.6343 658 66.3769 423.198 532.836
2211 0 52.1319 10.4542 545 69.5578 422.699 532.154
2212 0 55.0932 12.0341 663 66.7029 423.124 531.991
2213 0 56.0336 11.3146 634 67.9022 423.773 530.402
2214 0 59.1088 11.1997 662 67.707 422.992 527.823
2215 0 59.0279 9.91058 585 69.4017 422.759 528.665
2216 0 64.139 11.9272 765 65.3856 422.571 529.039
2217 0 66.0315 12.8726 850 64.4471 421.904 526.74
2218 0 68.1241 11.9635 815 65.2564 423.339 527.758
2219 0 70.0363 11.3084 792 66.6313 423.111 525.207
2220 0 73.0214 11.5446 843 65.4828 422.955 522.943
2221 0 75.1084 12.1691 914 64.6805 423.359 522.277
2222 0 77.0678 11.9375 920 65.2935 422.864 520.623
2223 1 39.03 9.14682 357 66.7787 422.824 539.627
2224 0 41.0623 10.7641 442 64.4389 422.719 539.604
2225 0 43.0214 10.3437 445 65.1708 423.148 537.969
2226 0 45.0402 11.2344 506 63.9624 423.543 537.597
2227 0 46.0304 9.38511 432 66.3449 424.507 537.935
2228 0 47.044 11.3936 536 64.319 423.636 534.869
2229 0 50.0469 11.0297 552 63.6703 424.072 535.123
2230 0 49.0679 11.2905 554 65.2653 423.368 532.504
2231 0 51.0545 10.9295 558 64.8477 422.676 534.615
2232 0 54.0644 10.284 556 64.7572 423.424 534.646
2233 0 56.0584 11.5594 648 64.0556 423.755 531.735
2234 0 54.0339 10.5119 568 66.1004 424.121 530.857
2235 0 58.0261 11.9257 692 64.026 424.426 527.623
2236 0 58.2431 12.2761 715 64.1636 423.961 529.578
2237 0 62.0615 11.3275 703 65.1422 424.021 526.979
2238 0 62.0558 10.9256 678 65.6755 423.72 528.878
2239 0 66.0434 12.9612 856 62.7757 423.71 526.599
2240 0 68.1867 11.6152 792 64.4053 423.958 525.894
2241 0 71.087 12.4214 883 63.8154 423.889 525.087
2242 0 72.2334 11.8643 857 64.5823 424.494 522.742
2243 0 74.1034 10.2559 760 66.9645 424.714 518.524
2244 0 76.1673 10.4244 794 66.8111 424.902 519.946
2245 1 38.0924 9.52946 363 65.1956 424.51 539.521
2246 0 38.1161 9.86459 376 65.5213 424.492 539.83
2247 0 40.0676 10.1578 407 64.688 423.764 540.174
2248 0 43.0496 10.7086 461 64.1302 424.416 539.104
2249 0 45.0988 10.6655 481 63.8503 424.391 539.555
2250 0 45.1498 11.7608 531 63.3277 424.036 537.97
2251 0 46.2606 11.7811 545 62.9009 423.769 539.338
2252 0 48.0476 11.3637 546 63.663 424.32 537.48
2253 0 50.0712 11.4437 573 63.2304 424.408 536.962
2254 0 52.0704 11.9262 621 62.591 424.275 536.702
2255 0 51.1389 11.9674 612 63.8154 424.627 534.309
2256 0 54.0709 12.761 690 62.4478 424.749 534.084
2257 0 55.068 11.3133 623 64.3949 424.719 535.38
2258 0 58.0313 12.8207 744 62.7258 424.413 534.063
2259 0 58.1135 12.2003 709 64.323 424.759 532.388
2260 0 62.218 13.2277 823 62.9368 424.038 531.208
2261 0 62.0909 11.9824 744 65.9718 424.379 529.652
2262 0 64.0726 12.1737 780 65.0064 424.35 529.878
2263 0 69.0664 13.639 942 62.0732 424.208 529.73
2264 0 69.141 12.8578 889 64.1687 424.952 528.215
2265 1 36.0236 10.6874 385 64.8779 425.473 544.816
2266 0 35.0306 10.9047 382 64.8874 424.623 544.031
2267 0 34.0591 10.4818 357 66.1429 424.566 544.269
2268 0 39.0212 11.7372 458 62.5044 424.201 543.319
2269 0 38.0145 10.5486 401 65.5012 424.396 543.04
2270 0 40.0559 11.6837 468 63.5406 423.673 542.592
2271 0 41.0257 10.2862 422 65.4905 423.545 542.481
2272 0 43.0223 11.6916 503 64.2088 422.964 541.203
2273 0 42.0207 12.0179 505 64.6 424.238 540.554
2274 0 44.0479 12.1913 537 64.7412 424.02 539.622
2275 0 45.0336 12.4796 562 64.5178 422.964 538.772
2276 0 46.0391 11.6423 536 66.2202 423.494 537.142
2277 0 47.0491 11.3924 536 66.5578 422.976 538.625
2278 0 49.0611 11.5978 569 66.0211 422.652 539.257
2279 0 51.0099 12.0173 613 66.1354 422.692 537.093
2280 0 51.0127 9.97791 509 68.8075 423.617 538.291
2281 0 53.0423 11.4437 607 67.687 423.82 537.412
2282 0 53.0793 11.4169 606 68.5875 423.914 536.992
2283 0 55.105 12.9934 716 66.5824 423.522 533.318
2284 0 56.0842 12.196 684 68.0819 424.243 531.205
2285 0 59.134 12.4801 738 67.3306 424.347 531.789
2286 0 61.0596 13.0528 797 66.2171 424.016 532.961
2287 0 63.1007 13.7399 867 66.1822 424.346 529.67
2288 0 63.0244 12.3286 777 68.5959 424.116 529.288
2289 0 67.1496 12.8668 864 67.4514 423.954 527.863
2290 1 33.0619 10.0115 331 70.3807 424.402 543.347
2291 0 36.0431 11.9024 429 66.3916 423.916 545.576
2292 0 37.0544 12.4142 460 67.2196 424.307 542.92
2293 0 37.0794 12.0822 448 68.1138 423.326 543.795
2294 0 36.0263 10.8254 390 70.741 424.059 543.785
2295 0 38.059 9.7743 372 71.7016 424.228 543.075
2296 0 42.0517 11.6999 492 69.3638 424.138 542.173
2297 0 43.0414 11.8026 508 69.8268 423.974 540.217
2298 0 43.1138 12.4554 537 69.1117 423.953 539.588
2299 0 45.0302 11.4146 514 68.3444 424.311 540.409
2300 0 45.0967 11.1538 503 70.1471 424.217 539.829
2301 0 46.0568 11.1601 514 70.3152 423.628 537.677
2302 0 48.0387 13.1144 630 67.7111 424.297 535.456
2303 0 49.0507 11.743 576 69.7726 424.536 536.517
2304 0 50.0419 12.7093 636 69.3994 424.701 533.898
2305 0 51.0735 12.8834 658 68.9119 424.289 534.065
2306 0 55.0866 13.0522 719 67.7956 423.946 533.414
2307 0 55.0525 13.1329 723 68.9004 424.05 530.3
2308 0 55.0211 11.9772 659 70.4795 424.408 532.724
2309 0 59.0615 12.6986 750 68.8333 424.892 530.976
2310 0 59.0998 12.9273 764 69.4306 424.497 530.995
2311 0 63.1409 13.2244 835 68.4228 424.823 529.237
2312 0 64.0735 14.062 901 67.2697 424.099 529.465
2313 0 66.0412 14.0064 925 67.3784 423.792 529.241
2314 0 68.1679 14.831 1011 66.9001 423.41 525.439
2315 0 68.0485 12.447 847 71.0154 424.133 525.791
2316 0 73.0624 15.1514 1107 66.2276 424.642 524.254
2317 0 75.0318 12.648 949 70.3256 424.296 522.802
2318 0 75.0368 11.8075 886 72.3476 423.927 522.546
2319 1 41.0634 11.1291 457 70.8884 423.109 538.713
2320 0 41.0204 11.994 492 70.9228 423.752 537.618
2321 0 42.0236 12.3026 517 71.617 423.617 536.12
2322 0 45.026 11.7265 528 71.0568 424.258 537.553
2323 0 45.0356 11.8795 535 71.9794 424.265 535.495
2324 0 45.0634 11.4505 516 72.9438 424.198 536.05
2325 0 45.0087 11.6422 524 73.687 424.256 533.63
2326 0 48.0248 11.4524 550 73.7545 423.867 534.864
2327 0 48.086 11.8746 571 73.2644 424.14 535.151
2328 0 50.1074 12.0341 603 73.0663 424.113 533.012
2329 0 53.0379 12.048 639 72.8654 424.221 530.975
2330 0 53.0205 12.6555 671 72.9225 424.301 532.149
2331 0 58.0504 14.0051 813 69.722 424.724 532.022
2332 0 59.0683 13.0696 772 71.8174 424.466 531.513
2333 0 62.0315 14.5571 903 69.515 424.716 529.332
2334 0 63.1344 11.9111 752 74.0745 424.206 527.782
2335 0 63.0776 13.4438 848 72.605 424.873 526.678
2336 0 66.0811 11.6523 770 74.7909 424.54 528.74
2337 0 70.0879 13.4973 946 72.1184 424.499 527.069
2338 0 73.0376 15.2387 1113 69.5768 424.933 524.207
2339 0 74.1094 14.2492 1056 71.7879 424.688 524.21
2340 0 77.0727 14.4409 1113 71.6379 424.464 521.771
2341 0 79.1107 13.7782 1090 73.356 423.915 520.263
2342 1 40.0329 11.3657 455 74.0791 424.451 541.494
2343 0 41.0311 12.4783 512 74.7148 424.828 539.414
2344 0 43.0463 12.4053 534 74.8521 424.745 538.073
2345 0 43.0379 11.9662 515 76.1748 424.468 537.384
2346 0 43.0156 12.6466 544 75.7261 423.886 537.461
2347 0 45.0488 13.7185 618 73.754 423.699 537.615
2348 0 46.0436 12.0538 555 76.3568 424.989 536.917
2349 0 48.063 11.7762 566 69.4912 424.438 534.551
2350 0 53.0208 13.7116 727 64.6726 424.66 535.392
2351 0 51.02 12.6813 647 66.0464 425.054 535.383
2352 0 53.0712 12.5492 666 66.1036 424.926 533.883
2353 0 57.0477 13.5325 772 64.263 425.341 533.598
2354 0 57.1195 13.8482 791 64.914 424.276 530.874
2355 0 58.0374 13.5085 784 64.8138 424.929 532.958
2356 0 60.058 11.6388 699 68.1459 424.8 530.006
2357 0 63.067 13.7631 868 65.3145 424.703 527.972
2358 0 64.0312 13.2904 851 65.9777 424.881 526.919
2359 0 68.1273 13.1959 899 66.2013 425.06 525.905
2360 0 68.099 12.2469 834 67.6259 425.115 525.375
2361 0 70.0947 12.7684 895 66.6737 425.089 524.164
2362 0 73.0491 12.1836 890 67.5045 425.209 524.966
2363 0 74.1595 12.8372 952 67.3414 425.21 521.389
2364 0 80.0586 14.0772 1127 64.8075 425.258 522.642
2365 0 80.0418 13.6679 1094 66.2962 425.201 519.953
2366 0 82.0592 14.2214 1167 65.5287 425.186 521.042
2367 1 43.0514 14.0297 604 64.9868 425.3 538.247
2368 0 44.0281 11.2201 494 69.1316 424.988 537.895
2369 0 44.0049 9.77165 430 71.014 425.467 537.591
2370 0 49.089 13.2616 651 65.7281 425.166 537.424
2371 0 49.0298 13.1349 644 66.7562 424.756 535.738
2372 0 51.0918 12.0567 616 68.5357 424.528 535.313
2373 0 52.0447 13.2771 691 67.0897 424.918 533.139
2374 0 52.0959 12.0739 629 68.8776 425.052 531.665
2375 0 56.0822 12.9453 726 66.719 425.285 532.627
2376 0 59.0711 13.7631 813 65.1414 425.494 532.368
2377 0 60.0894 12.7144 764 66.9136 425.026 532.186
2378 0 60.0475 12.7233 764 67.2173 425.398 531.17
2379 0 63.0443 13.9584 880 66.0205 425.634 526.758
2380 0 64.1013 13.1355 842 66.7981 425.416 525.265
2381 0 65.0803 12.5998 820 68.0854 425.701 527.29
2382 0 67.0336 12.5012 838 68.2446 425.581 526.292
2383 0 71.0974 13.1228 933 66.8725 425.092 525.493
2384 0 73.2446 13.7621 1008 66.1369 425.362 522.384
2385 0 75.1093 13.6068 1022 66.5949 425.638 521.303
2386 0 79.0896 13.4784 1066 67.2176 425.689 519.172
2387 0 81.0686 14.827 1202 65.1323 425.129 519.739
2388 0 79.0512 12.0681 954 69.5419 426.203 516.251
2389 1 42.0182 10.8048 454 67.6828 426.196 539.092
2390 0 43.0082 12.0442 518 67.8745 426.288 535.751
2391 0 45.0493 12.2532 552 67.4094 427.288 535.65
2392 0 47.0344 11.7361 552 68.2862 427.33 535.5
2393 0 47.1081 11.5479 544 68.954 426.814 534.21
2394 0 49.0218 12.0967 593 68.398 427.325 533
2395 0 51.0201 12.6421 645 66.4868 426.509 531.732
2396 0 52.0823 14.1315 736 64.3084 427.215 532.596
2397 0 54.0457 12.915 698 65.8109 426.792 529.702
2398 0 55.1012 13.9743 770 64.5714 426.364 528.878
2399 0 56.0631 11.3979 639 68.4648 427.006 527.407
2400 0 58.0661 12.6924 737 66.9471 426.887 526.677
2401 0 62.0807 12.8059 795 65.4201 426.87 527.379
2402 0 62.1585 10.8754 676 67.8905 426.408 527.609
2403 0 66.0712 13.2584 876 64.2158 426.918 525.483
2404 0 67.1746 12.0581 810 65.537 427.577 522.625
2405 0 68.1203 11.7439 800 65.5762 427.38 523.469
2406 0 72.1492 11.6703 842 65.5404 426.487 522.6
2407 0 76.0636 13.6333 1037 62.3076 426.563 519.627
2408 0 75.1137 10.5973 796 66.8078 426.97 518.275
2409 0 79.1469 11.864 939 64.3536 426.766 519.494
2410 1 41.044 11.5973 476 61.958 425.891 537.653
2411 0 40.0408 8.96586 359 64.1031 425.632 540.15
2412 0 42.0257 12.0403 506 62.1759 426.532 535.016
2413 0 44.044 10.0581 443 63.5056 426.736 537.781
2414 0 46.0931 11.8673 547 62.1974 426.797 534.664
2415 0 48.1622 14.1605 682 59.4633 425.349 533.158
2416 0 49.0566 12.0473 591 61.4805 425.721 532.064
2417 0 51.1097 12.9721 663 59.5732 425.52 533.569
2418 0 50.0857 11.2407 563 62.4298 425.632 530.982
2419 0 52.0326 10.3781 540 63.4389 426.083 530.187
2420 0 55.054 12.3152 678 60.6681 425.693 528.867
2421 0 57.0716 12.6157 720 59.7417 425.761 529.546
2422 0 58.0392 12.2159 709 60.8575 425.786 527.502
2423 0 58.042 11.2677 654 61.3976 425.43 529.647
2424 0 61.0466 10.1562 620 62.4323 425.639 527.508
2425 0 62.0499 11.797 732 60.7254 425.925 524.544
2426 0 65.11 12.763 831 59.349 425.765 525.978
2427 0 67.0818 12.7009 852 59.743 425.83 523.134
2428 0 69.1109 13.9341 963 58.486 425.934 522.04
2429 0 70.0667 11.118 779 60.7317 425.499 521.818
2430 0 74.0433 11.5338 854 60.0527 425.968 520.301
2431 0 75.0384 11.9539 897 60.2698 426.195 519.867
2432 0 79.1584 10.7759 853 61.5557 425.989 517.92
2433 0 82.1196 10.9718 901 60.606 425.832 518.748
2434 0 88.1486 12.3768 1091 58.2576 426.677 516.628
2435 0 88.1555 12.8523 1133 58.8058 425.63 511.072
2436 0 92.0588 12.8613 1184 57.5701 425.943 514.202
2437 0 92.1393 12.2966 1133 58.7979 426.06 509.883
2438 1 45.0154 9.46344 426 59.7254 426.042 534.671
2439 0 47.0226 9.61239 452 59.75 426.049 534.467
2440 0 49.0551 10.6615 523 58.5143 425.92 534.22
2441 0 49.1169 11.4014 560 57.95 426.004 534.161
2442 0 53.0936 11.9412 634 57.0489 425.489 532.562
2443 0 55.0845 13.6881 754 55.1512 426.115 530.794
2444 0 58.1255 11.8193 687 56.8704 425.584 530.146
2445 0 56.1023 10.7304 602 58.9369 425.359 530.023
2446 0 58.0386 11.0616 642 58.4688 425.171 529.74
2447 0 62.037 12.4603 773 57.1138 425.924 525.301
2448 0 64.0873 11.5936 743 58.9785 425.713 524.293
2449 0 67.096 12.415 833 57.8055 425.971 524.413
2450 0 68.0586 12.4892 850 58.1012 425.735 523.474
2451 0 71.1548 13.2668 944 57.0212 425.776 523.683
2452 0 74.0549 12.6123 934 57.0707 426.704 524.607
2453 0 75.0664 12.6688 951 57.6898 426.249 519.903
2454 0 79.0852 12.8595 1017 56.9892 425.91 519.253
2455 0 78.1574 10.8371 847 59.7344 426.242 521.083
2456 0 83.1357 12.4616 1036 58.0598 426.514 516.45
2457 1 43.0174 10.7166 461 57.5878 425.944 536.414
2458 0 44.0655 9.87167 435 58.3287 426.349 535.485
2459 0 45.033 9.61518 433 59.164 426.39 534.136
2460 0 46.0462 10.8804 501 58.6527 426.425 533.675
2461 0 51.1764 12.623 646 56.5495 426.5 531.701
2462 0 50.0227 10.0154 501 59.9721 426.136 530.924
2463 0 52.0898 12.4401 648 56.6219 425.62 528.174
2464 0 53.0635 13.1352 697 57.5308 426.237 528.742
2465 0 55.1379 13.4028 739 57.3329 425.861 527.652
2466 0 58.0998 12.2203 710 58.3366 425.749 525.092
2467 0 58.1176 12.1478 706 58.2224 426.045 526.12
2468 0 60.1423 12.4039 746 58.0791 426.304 526.977
2469 0 59.1326 10.8908 644 60.7236 425.584 524.5
2470 0 63.0499 12.3712 780 58.9795 425.745 523.714
2471 0 65.1171 11.7327 764 59.7461 425.462 524.571
2472 0 68.1623 12.2355 834 58.687 425.992 521.448
2473 0 70.1294 12.9618 909 58.1199 426.43 524.34
2474 0 72.142 12.9605 935 58.5882 426.525 520.615
2475 0 75.3054 12.8809 970 58.6361 426.295 521.972
2476 0 75.2178 11.4734 863 60.4774 426.423 520.448
2477 0 79.2223 11.4362 906 59.9768 427.053 521.978
2478 0 80.2844 10.8738 873 61.9324 426.869 516.44
2479 0 82.1441 11.139 915 61.5475 426.025 514.952
2480 0 88.1917 12.5182 1104 59.7074 426.172 514.307
2481 1 46.1409 9.88277 456 61.7061 425.344 534.254
2482 0 47.05 10.0956 475 61.979 425.823 534
2483 0 49.1923 12.4816 614 59.088 425.686 533.394
2484 0 51.0548 12.4768 637 59.3391 426.027 533.309
2485 0 52.0296 10.7823 561 61.4189 425.497 532.597
2486 0 55.0262 12.3032 677 59.579 425.069 529.969
2487 0 57.0234 11.7671 671 60.4382 425.316 530.803
2488 0 58.0873 12.1886 708 60.8206 425.345 526.838
2489 0 60.0365 11.4764 689 61.2279 425.528 528.568
2490 0 63.0586 12.8928 813 58.6827 425.621 527.46
2491 0 64.0363 13.2581 849 58.768 425.684 525.158
2492 0 65.0672 12.6485 823 60.3985 425.631 523.493
2493 0 68.0458 12.9325 880 59.3932 425.359 522.669
2494 0 69.1959 13.3389 923 59.0162 425.316 522.395
2495 0 71.0644 11.187 795 62.2465 426.152 522.906
2496 0 76.0872 12.1045 921 60.4408 425.324 519.519
2497 0 75.1878 12.0897 909 61.3212 425.505 518.772
2498 0 80.0712 12.9135 1034 60.2157 425.511 516.025
2499 0 81.0671 12.3478 1001 60.8741 425.81 515.875
2500 0 83.1284 12.9438 1076 60.5335 425.885 513.734
2501 0 87.1872 13.557 1182 59.5584 425.517 513.581
2502 0 91.161 13.3939 1221 60.0655 425.641 511.939
2503 0 92.1987 16.4211 1514 57.4954 425.262 509.652
2504 0 92.0622 12.5893 1159 62.5833 425.552 505.799
2505 1 50.0354 11.5119 576 63.1215 425.722 528.988
2506 0 51.0759 10.9641 560 64.2 425.891 528.239
2507 0 57.1327 14.3 817 59.7111 425.49 527.279
2508 0 56.0697 12.0029 673 64.6969 425.802 525.158
2509 0 60.0604 12.1378 729 63.5501 425.151 525.195
2510 0 61.0586 13.1513 803 62.8481 425.334 523.621
2511 0 63.0212 11.5675 729 64.8491 425.627 523.562
2512 0 64.0914 11.1091 712 65.6952 426.174 523.841
2513 0 67.0552 12.1542 815 64.5055 425.923 522.708
2514 0 68.0414 12.2572 834 65.2398 426.187 521.43
2515 0 70.0316 12.2659 859 65.532 425.658 518.619
2516 0 72.0687 11.5168 830 65.8157 425.342 516.269
2517 0 75.1157 14.045 1055 63.2559 425.667 516.633
2518 0 78.0486 13.53 1056 63.2225 425.322 515.507
2519 0 82.2292 14.0096 1152 62.6042 426.613 514.003
2520 0 84.1604 12.3217 1037 64.9817 425.818 509.905
2521 0 84.1127 12.1028 1018 65.5373 426.014 509.321
2522 0 89.1555 12.91 1151 64.1981 425.893 508.723
2523 0 93.0644 13.5605 1262 63.1664 425.689 507.706
2524 1 47.0927 11.764 554 63.648 426.527 531.188
2525 0 48.065 12.92 621 62.9871 426.738 530.143
2526 0 48.0843 11.2927 543 65.081 426.425 532.33
2527 0 50.061 12.1652 609 64.0476 426.79 530.264
2528 0 52.1453 12.5227 653 63.3966 427.118 529.464
2529 0 55.0497 12.625 695 63.2158 426.928 526.56
2530 0 56.0769 11.8231 663 64.6606 426.154 525.388
2531 0 56.1264 11.581 650 64.8692 426.582 524.818
2532 0 59.0329 13.1791 778 62.6298 426.71 523.862
2533 0 59.0491 13.6666 807 63.0595 426.538 521.275
2534 0 63.067 13.3192 840 62.0464 426.539 521.071
2535 0 65.1426 13.386 872 62.031 427.224 521.82
2536 0 66.0925 12.4825 825 62.1842 427.234 522.223
2537 0 67.0784 12.2841 824 63.2973 426.807 516.762
2538 0 72.2074 12.5056 903 61.9834 427.048 518.814
2539 0 72.1195 12.4238 896 62.7433 427.429 516.527
2540 0 76.1068 12.4825 950 61.2095 427.305 519.44
2541 0 77.1876 12.5538 969 61.9195 426.393 515.01
2542 1 41.2126 11.7197 483 59.9234 426.559 535.843
2543 0 40.0479 10.6622 427 62.0094 426.187 533.993
2544 0 45.0826 11.0242 497 60.2978 426.626 534.555
2545 0 44.0566 10.6908 471 61.3631 426.592 532.839
2546 0 48.1152 12.4285 598 59.107 426.52 531.987
2547 0 47.0469 11.2016 527 61.0228 425.772 530.522
2548 0 48.0444 11.8224 568 60.1937 425.278 529.891
2549 0 49.0609 10.7621 528 61.2879 426.29 530.992
2550 0 51.0769 12.8825 658 59.2097 425.769 529.181
2551 0 54.0607 12.8744 696 59.1911 425.852 527.888
2552 0 53.1457 11.6284 618 61.7783 426.506 528.945
2553 0 57.0233 10.8377 618 61.9142 426.32 528.028
2554 0 59.0571 12.4456 735 60.1687 426.457 524.856
2555 0 61.089 11.9007 727 60.3384 426.934 525.308
2556 0 61.0572 13.3154 813 58.8819 426.549 525.932
2557 0 65.1354 13.0805 852 59.4084 426.977 521.541
2558 0 65.0534 12.067 785 60.6803 426.558 521.75
2559 0 70.051 13.3331 934 58.8908 426.305 520.001
2560 0 70.1951 13.5337 950 58.8495 426.827 519.534
2561 0 74.1825 12.3479 916 60.2478 426.139 519.264
2562 0 76.1416 12.8182 976 59.1014 426.798 518.185
2563 1 37.048 11.6606 432 59.9653 426.002 536.352
2564 0 38.0225 10.336 393 61.9491 425.756 534.405
2565 0 41.1161 12.4039 510 59.1294 426.147 534.292
2566 0 41.0682 10.933 449 60.5612 426.383 534.766
2567 0 45.1135 11.9476 539 59.2115 426.065 533.609
2568 0 44.0309 12.355 544 58.9062 426.618 532.162
2569 0 45.1196 11.0373 498 59.988 426.628 531.096
2570 0 46.1822 10.6968 494 61.168 426.342 530.492
2571 0 47.0206 10.5698 497 61.4306 426.229 531.105
2572 0 51.094 11.2538 575 60.6209 425.753 529.478
2573 0 53.0818 12.3018 653 59.2695 426.361 528.191
2574 0 52.1271 10.9924 573 61.9389 426.265 528.928
2575 0 55.0298 13.2474 729 58.5761 426.111 529.041
2576 0 57.0588 13.6876 781 58.5711 426.21 526.731
2577 0 58.0681 11.3315 658 61.2599 426.251 528.45
2578 0 60.0551 11.606 697 60.3156 426.803 526.22
2579 0 61.1022 12.2909 751 60.0399 426.481 523.442
2580 0 62.0975 11.176 694 61.3732 426.085 523.744
2581 0 66.0959 11.9675 791 60.3578 425.987 523.373
2582 0 68.0584 11.402 776 60.5747 426.347 523.62
2583 0 70.1483 11.4614 804 60.2438 426.101 522.399
2584 0 73.0505 11.7864 861 60.3473 426.318 519.06
2585 0 75.1066 12.1427 912 59.7325 426.485 517.194
2586 1 35.0254 10.7636 377 60.4032 425.809 537.186
2587 0 40.0222 12.8679 515 57.5068 425.528 533.19
2588 0 40.0292 10.2175 409 60.0954 425.663 535.792
2589 0 43.0242 11.3657 489 59.4581 425.36 531.278
2590 0 41.071 11.7358 482 59.2946 425.178 531.99
2591 0 41.0824 11.0753 455 60.8396 425.354 531.462
2592 0 45.055 11.2529 507 59.1538 425.458 533.047
2593 0 46.0687 10.5929 488 60.3443 426.029 530.295
2594 0 50.1338 13.0451 654 56.2095 425.581 531.836
2595 0 51.0135 13.369 682 56.5982 425.739 529.183
2596 0 51.0509 11.655 595 59.2807 425.975 526.292
2597 0 53.0598 11.2515 597 59.0151 426.285 528.117
2598 0 57.0848 13.3486 762 55.4383 426.85 526.862
2599 0 57.0702 13.0891 747 57.2503 427.13 524.802
2600 0 55.0871 10.075 555 61.1856 426.717 523.823
2601 0 60.0667 11.9867 720 57.9972 425.801 523.835
2602 0 64.046 10.227 655 59.1817 426.035 526.434
2603 0 65.0583 12.4196 808 57.4988 425.548 522.156
2604 0 65.0469 10.9613 713 59.7826 425.366 519.276
2605 0 70.0861 10.8866 763 58.8126 425.45 519.438
2606 0 73.1178 12.0764 883 57.5696 425.779 517.48
2607 0 73.1818 10.4398 764 60.1924 425.963 517.461
2608 0 77.1362 11.8103 911 57.9374 425.457 515.276
2609 1 39.0167 13.0201 508 57.374 425.963 530.083
2610 0 39.0286 10.5307 411 60.9878 425.839 528.163
2611 0 42.0375 11.1567 469 60.1791 426.394 528.463
2612 0 42.1285 11.3225 477 60.7715 426.22 528.482
2613 0 46.1208 11.7951 544 59.7261 426.349 526.719
2614 0 47.1353 11.4139 538 60.3625 425.652 526.961
2615 0 47.0404 11.7984 555 60.5586 425.569 525.259
2616 0 48.0294 9.6191 462 63.1017 425.712 527.032
2617 0 51.0471 11.6559 595 60.5832 425.926 524.161
2618 0 52.0778 10.4267 543 62.1713 426.352 521.704
2619 0 55.0934 12.379 682 59.349 426.707 523.164
2620 0 55.0612 14.1116 777 58.4569 426.878 520.049
2621 0 55.0565 12.6597 697 60.4935 426.264 520.329
2622 0 57.0389 11.8866 678 60.6962 426.681 521.999
2623 0 59.0408 12.2458 723 60.5228 426.123 518.035
2624 0 61.1648 12.2619 750 60.184 427.017 520.055
2625 0 64.1727 12.6533 812 59.617 426.931 516.973
2626 0 63.0447 10.1991 643 62.832 425.83 516.157
2627 0 68.0455 12.3006 837 59.7682 425.639 513.937
2628 0 71.1308 12.6106 897 59.1237 425.604 514.873
2629 0 73.0482 11.7046 855 60.2491 424.531 513.874
2630 0 74.1358 11.8701 880 60.5193 424.515 510.177
2631 0 77.1567 12.2348 944 59.8157 425.917 510.873
2632 0 77.0751 10.2108 787 62.8132 426.246 509.609
2633 0 82.0472 11.92 978 60.3139 426.049 508.902
2634 1 39.0234 8.81523 344 62.7849 426.291 531.154
2635 0 44.1536 10.0558 444 60.9527 426.108 529.214
2636 0 45.0129 9.93048 447 60.7181 425.897 529.452
2637 0 45.0327 11.636 524 59.1966 426.473 529.464
2638 0 47.0165 10.3155 485 60.468 426.297 528.01
2639 0 48.087 12.0407 579 59.0449 426.083 524.466
2640 0 50.033 11.3525 568 59.588 425.276 524.643
2641 0 54.0838 12.2587 663 57.5354 426.318 525.793
2642 0 54.1982 13.1001 710 57.0916 426.151 523.979
2643 0 54.0974 11.3869 616 59.2143 426.537 521.308
2644 0 58.121 12.4568 724 56.9724 425.649 523.173
2645 0 59.097 11.7942 697 58.2252 425.737 523.396
2646 0 60.2305 12.3359 743 57.8654 426.007 519.976
2647 0 60.1624 9.85665 593 60.9949 426.683 518.519
2648 0 65.2113 11.6084 757 57.7569 426.115 518.081
2649 0 66.1617 12.5299 829 57.0917 426.343 517.796
2650 0 64.1356 11.3042 725 59.149 426.614 517.92
2651 0 69.0954 11.7374 811 57.82 427.106 517.06
2652 0 72.093 10.5836 763 59.1494 426.661 516.902
2653 0 72.1092 11.0527 797 58.3275 426.588 515.626
2654 0 75.1329 11.8191 888 57.4538 426.499 514.065
2655 0 78.0712 11.9634 934 57.2238 425.731 513.166
2656 0 78.139 11.5563 903 58.5792 426.175 511.466
2657 0 82.1385 10.5919 870 59.0322 425.525 510.829
2658 0 86.1408 12.0965 1042 57.1478 426.27 509.482
2659 0 88.237 12.7724 1127 56.5217 426.421 507.891
2660 0 89.1398 11.409 1017 58.2222 426.359 505.81
2661 1 45.1009 10.5541 476 57.2017 426.118 530.561
2662 0 46.0568 10.1396 467 59.1328 425.944 525.842
2663 0 50.1786 11.0605 555 57.2793 425.445 527.126
2664 0 49.0288 11.6258 570 56.4474 425.433 527.388
2665 0 54.0608 11.2096 606 56.8399 425.129 524.809
2666 0 54.0591 12.6713 685 55.6496 425.95 526.413
2667 0 58.0952 12.2213 710 55.3366 426.649 525.338
2668 0 57.0559 10.7964 616 57.1834 426.036 522.206
2669 0 61.1416 12.2012 746 55.1515 426.09 520.583
2670 0 64.0495 12.0219 770 55.1195 426.184 522.008
2671 0 63.0894 12.7755 806 55.6328 426.67 520.571
2672 0 67.1314 10.2039 685 57.6569 426.228 521.428
2673 0 67.1014 12.6078 846 55.5284 425.426 519.851
2674 0 69.0737 11.8858 821 56.7637 425.912 518.297
2675 0 71.1166 13.3724 951 55.1388 425.926 519.309
2676 0 74.0472 13.3293 987 55.465 426.221 515.534
2677 0 78.1615 12.423 971 56.0278 426.197 515.081
2678 0 80.0595 11.7163 938 57.5597 425.551 512.318
2679 0 82.135 12.309 1011 56.7913 425.429 510.981
2680 0 85.1077 12.2786 1045 57.3072 425.437 513.494
2681 1 44.0185 11.8586 522 55.5441 425.657 531.96
2682 0 48.1167 10.5784 509 55.9548 425.919 535.263
2683 0 45.0318 9.37117 422 59.0735 426.123 532.777
2684 0 47.0456 9.90529 466 57.1803 425.457 535.077
2685 0 49.0932 10.6328 522 58.0268 425.521 530.638
2686 0 52.1031 12.552 654 56.3028 425.601 529.491
2687 0 53.0284 11.5599 613 57.0652 425.408 528.894
2688 0 53.0865 13.299 706 56.4263 425.482 526.848
2689 0 56.0922 12.0516 676 56.8328 425.645 527.362
2690 0 57.1529 15.0299 859 54.6845 425.307 525.958
2691 0 59.0309 13.061 771 56.0921 425.304 527.363
2692 0 62.0596 11.5534 717 57.8954 425.63 527.181
2693 0 63.0414 13.3087 839 56.789 426.336 524.468
2694 0 65.072 13.5542 882 56.4331 425.468 520.963
2695 0 66.13 12.294 813 58.0357 426.339 521.506
2696 0 68.1697 12.0288 820 57.9671 425.687 522.806
2697 0 70.0955 13.6528 957 56.4263 425.907 520.255
2698 0 74.0948 12.2276 906 57.6612 425.986 520.084
2699 0 75.0833 11.6937 878 58.2779 425.625 516.56
2700 0 78.1346 12.0177 939 58.1896 426.037 516.488
2701 0 79.0519 12.7005 1004 57.8108 425.936 512.911
2702 1 38.0506 8.43613 321 59.5202 426.349 536.704
2703 0 41.1184 10.2874 423 57.513 426.494 535.643
2704 0 44.0396 11.694 515 56.3767 426.15 532.355
2705 0 41.0261 8.16553 335 61.0896 426.588 531.579
2706 0 45.1622 10.7612 486 57.6728 426.541 532.562
2707 0 47.0379 10.5234 495 58.3838 427.188 529.96
2708 0 46.1281 9.43026 435 60.2621 427.025 530.697
2709 0 50.083 12.1798 610 57.059 426.574 529.721
2710 0 50.0414 9.95176 498 59.8635 425.793 530.801
2711 0 52.0754 11.6562 607 58.2965 425.735 529.72
2712 0 53.0956 10.0385 533 60.2251 426.865 530.572
2713 0 54.0688 11.171 604 59.9305 426.28 526.702
2714 0 57.1219 12.0794 690 58.3971 426.688 527.075
2715 0 57.0333 9.50323 542 61.3321 427.113 527.439
2716 0 60.1022 11.7799 708 58.9449 426.596 523.144
2717 0 61.0507 12.0228 734 59.673 426.267 523.206
2718 0 63.038 11.5169 726 59.77 425.864 523.503
2719 0 64.1266 10.2142 655 60.6229 426.212 525.669
2720 0 68.145 11.7984 804 59.3458 425.152 523.56
2721 0 70.0766 10.7882 756 60.0688 426.126 522.124
2722 0 69.0934 10.1746 703 61.6373 426.229 520.523
2723 0 75.0473 11.3795 854 59.6475 426.636 519.09
2724 1 40.0288 10.5674 423 58.1158 426.085 537.208
2725 0 36.0147 9.69048 349 60.1175 426.14 535.854
2726 0 43.0376 11.7572 506 56.9328 425.593 535.518
2727 0 42.0494 10.8682 457 58.3151 424.617 536.61
2728 0 45.0349 10.4808 472 59.3008 425.843 534.042
2729 0 45.0747 10.8486 489 58.7587 425.771 535.509
2730 0 47.0463 10.1177 476 59.4916 426.267 533.884
2731 0 47.0704 10.325 486 59.7901 426.387 530.444
2732 0 50.139 12.1263 608 57.699 426.117 530.311
2733 0 52.0552 12.1602 633 57.7267 426.393 529.047
2734 0 52.0499 11.2392 585 59.5316 425.78 527.393
2735 0 56.0289 11.9403 669 57.7698 424.913 527.822
2736 0 56.1291 10.3155 579 60.1416 424.893 525.91
2737 0 60.0326 12.843 771 57.1556 426.038 525.463
2738 0 60.1157 13.3077 800 57.0162 426.752 525.16
2739 0 60.0681 9.3061 559 61.7263 426.46 525.301
2740 0 64.0379 11.259 721 59.3232 425.71 523.739
2741 0 65.0409 12.8227 834 57.6103 425.908 525.165
2742 0 68.161 12.1477 828 58.2162 426.487 522.449
2743 0 71.0256 10.5455 749 59.486 426.545 520.021
2744 0 70.061 11.0761 776 59.6714 426.46 522.348
2745 0 74.1459 11.1402 826 59.1659 426.153 519.942
2746 0 78.0645 12.3359 963 57.4849 426.817 519.245
2747 0 77.1337 12.8089 988 57.9666 426.798 516.979
2748 1 40.0755 9.53201 382 58.1885 426.775 537.846
2749 0 43.0189 8.74034 376 59.2872 426.875 536.811
2750 0 44.0449 11.3975 502 57.1036 425.944 534.892
2751 0 46.0299 10.4932 483 58.5735 425.611 533.184
2752 0 47.0509 11.8808 559 57.1145 426.215 530.905
2753 0 48.0487 11.5716 556 57.8345 425.86 531.426
2754 0 50.0196 10.7758 539 57.8553 425.811 530.762
2755 0 51.0321 11.9533 610 57.2197 426.411 529.128
2756 0 52.065 11.5049 599 57.7679 425.661 530.653
2757 0 55.0626 12.0772 665 57.7263 426.472 529.577
2758 0 55.1178 11.7566 648 58.429 427.381 528.164
2759 0 57.03 13.5893 775 56.351 427.152 527.667
2760 0 58.0806 12.2588 712 58.0801 427.581 526.553
2761 0 59.0561 10.7355 634 59.9779 427.319 527.721
2762 0 61.1802 11.3108 692 59.4711 427.578 525.919
2763 0 64.0904 13.4341 861 57.0616 427.044 526.547
2764 0 66.1136 13.2802 878 57.3884 427.128 522.367
2765 0 69.1048 13.3999 926 56.7333 427.758 522.224
2766 0 69.1764 12.9379 895 58.0268 427.383 522.64
2767 0 71.0737 11.5373 820 59.2183 427.629 523.194
2768 0 73.0667 12.1943 891 58.8316 427.534 519.521
2769 0 78.1022 12.9062 1008 57.3333 427.759 520.202
2770 0 77.1736 11.0789 855 60.4444 427.559 518.689
2771 1 41.1163 11.1878 460 58.6196 427.3 536.761
2772 0 44.0172 12.1316 534 57.1142 426.972 535.255
2773 0 45.0532 11.098 500 58.896 427.056 534.126
2774 0 47.0407 9.94882 468 58.3226 427.342 536.686
2775 0 48.0769 10.3376 497 59.1549 427.918 531.654
2776 0 48.0836 11.8544 570 57.5193 427.635 532.747
2777 0 50.0347 9.41346 471 59.7155 427.435 533.234
2778 0 49.0859 10.5122 516 59.0252 427.692 532.919
2779 0 53.2144 11.6698 621 57.8019 427.382 529.093
2780 0 55.0606 12.9675 714 56.3039 427.046 528.676
2781 0 57.0225 12.6091 719 57.0417 427.139 526.665
2782 0 59.103 12.7405 753 56.5325 427.454 526.659
2783 0 59.0452 12.3803 731 57.0356 427.811 526.553
2784 0 60.1392 11.5732 696 57.8305 427.503 522.325
2785 0 64.1288 11.7888 756 56.9272 427.397 521.505
2786 0 67.1711 10.972 737 57.559 427.624 519.711
2787 0 70.105 13.2801 931 54.7895 428.204 522.083
2788 0 70.1796 11.6986 821 56.8855 428.058 523.543
2789 0 71.0458 11.5559 821 56.8197 427.643 517.011
2790 0 72.068 11.6834 842 56.7328 427.02 514.88
2791 0 79.1831 11.9091 943 54.8462 427.531 520.195
2792 0 80.1396 12.7153 1019 55.8351 427.964 514.342
2793 0 83.2759 11.612 967 56.4436 427.753 513.096
2794 0 88.1035 11.3616 1001 55.7313 427.902 515.457
2795 0 88.1914 13.2212 1166 55.2204 427.87 510.221
2796 0 91.0928 11.7902 1074 56.8548 427.746 509.872
2797 1 48.0412 10.4077 500 55.944 427.284 533.91
2798 0 45.0671 11.5162 519 55.2004 427.9 534.613
2799 0 47.0594 12.4311 585 55.8154 427.718 531.352
2800 0 50.168 12.1591 610 55.9738 427.933 529.99
2801 0 50.0541 11.128 557 57.4542 428.212 529.838
2802 0 53.083 11.0016 584 57.6421 428.111 529.435
2803 0 54.0973 11.2945 611 57.2782 427.769 527.131
2804 0 57.1827 12.4863 714 54.5882 428.573 529.212
2805 0 59.1279 12.2446 724 55.0249 428.432 530.53
2806 0 62.0309 12.8001 794 54.9421 427.518 525.476
2807 0 63.234 10.7221 678 57.4469 427.673 524.608
2808 0 64.1796 11.4678 736 56.4688 428.344 525.884
2809 0 63.1094 10.8542 685 58.0131 428.01 521.388
2810 0 66.0414 10.9628 724 57.424 428.287 519.318
2811 0 69.1072 12.5313 866 55.5092 427.296 519.722
2812 0 71.071 11.3548 807 56.6592 427.822 522.299
2813 0 72.1763 12.3032 888 56.2973 427.709 521.116
2814 0 75.2274 11.8441 891 56.9461 428.566 515.008
2815 0 79.0569 12.6997 1004 55.5618 427.961 517.065
2816 0 80.2881 12.9409 1039 55.5938 427.762 516.947
2817 0 85.114 10.4331 888 57.9369 427.843 516.035
2818 0 86.3675 11.3816 983 57.3327 427.751 511.192
2819 1 43.1681 9.35876 404 57.3639 427.884 534.176
2820 0 45.0975 9.22445 416 57.8389 428.067 533.971
2821 0 48.0281 11.41 548 55.6241 428.27 532.838
2822 0 46.085 11.175 515 56.8 428.006 532.821
2823 0 49.1154 12.4197 610 55.2279 428.487 531.293
2824 0 50.0863 12.2788 615 54.6488 428.128 530.899
2825 0 53.0947 10.9615 582 56.0636 427.732 529.036
2826 0 54.108 12.1793 659 54.6176 427.716 529.297
2827 0 55.2213 10.9559 605 56.2314 428.167 528.608
2828 0 57.3302 9.48889 544 57.0239 427.62 530.268
2829 0 60.343 10.8712 656 55.6448 427.41 529.659
2830 0 60.1046 10.4484 628 57.2389 427.618 527.317
2831 0 62.0649 10.2634 637 57.0565 427.805 528.87
2832 0 61.0652 10.7099 654 57.7202 426.95 525.347
2833 0 67.2501 11.6877 786 55.8511 427.523 525.499
2834 0 68.241 11.518 786 55.8003 427.739 524.76
2835 0 72.1594 10.9341 789 56.5234 428.022 521.447
2836 0 71.1277 12.4565 886 55.8296 428.024 519.589
2837 0 74.1113 11.4557 849 56.4711 427.326 518.323
2838 0 79.2914 11.9811 950 55.5232 428.018 519.373
2839 0 79.1572 10.2833 814 57.7654 427.387 517.684
2840 0 82.1375 12.7347 1046 55.5076 427.099 515.881
2841 1 42.1332 8.99528 379 56.1873 427.908 535.575
2842 0 44.0965 10.0008 441 56.1292 428.302 533.211
2843 0 46.2639 10.4401 483 55.4948 427.903 533.304
2844 0 46.1672 11.3284 523 55.6616 428.161 532.832
2845 0 46.0983 10.6512 491 56.2342 428.12 533.487
2846 0 47.0531 10.35 487 57.1294 427.838 530.836
2847 0 50.1234 12.17 610 55.3508 427.885 531.082
2848 0 51.0687 11.3964 582 56.7509 428.072 529.462
2849 0 53.127 11.8772 631 56.4295 427.507 527.304
2850 0 55.0969 12.3056 678 56.2375 427.587 526.521
2851 0 56.1493 10.9708 616 57.6948 426.878 528.118
2852 0 57.1401 11.7431 671 57.0671 427.906 527.982
2853 0 58.1004 12.5989 732 56.6216 428.22 525.615
2854 0 60.2147 12.4222 748 57.3636 428.37 525.595
2855 0 61.0938 13.0946 800 56.8075 428.204 522.59
2856 0 63.1728 10.1151 639 59.964 428.321 524.538
2857 0 64.2125 12.0537 774 58.4767 428.305 522.109
2858 0 66.138 11.8842 786 58.9415 428.705 520.939
2859 0 66.2836 10.0628 667 61.3073 428.297 520.345
2860 0 70.2038 11.2957 793 58.8398 428.142 522.738
2861 0 69.1355 9.90808 685 60.8482 426.898 519.569
2862 0 71.1183 12.3456 878 58.2027 426.925 518.616
2863 0 72.1268 10.5647 762 60.4961 427.909 515.958
2864 0 75.0953 10.7996 811 60.0925 427.372 517.519
2865 0 78.1967 11.1386 871 59.3284 427.882 516.355
2866 0 82.1639 11.0024 904 59.2002 428.023 516.451
2867 1 39.0177 11.4563 447 58.2685 428.152 534.872
2868 0 38.0093 10.2606 390 60.5308 428.303 534.623
2869 0 41.0225 13.0172 534 57.0599 428.144 534.318
2870 0 44.1053 10.9284 482 59.7261 428.33 533.245
2871 0 42.0114 9.18798 386 63.5544 428.01 532.368
2872 0 47.0338 10.737 505 60.6475 427.879 531.622
2873 0 46.1329 12.5507 579 59.0345 427.675 531.458
2874 0 49.1087 11.5255 566 59.4629 427.993 530.05
2875 0 51.0805 12.216 624 58.5849 427.949 529.082
2876 0 49.0923 10.2867 505 61.8099 428.036 527.186
2877 0 54.0643 11.7638 636 59.3664 427.948 526.917
2878 0 54.0612 11.413 617 60.4522 428.18 526.726
2879 0 57.039 11.9217 680 59.6059 428.879 525.276
2880 0 61.0987 11.7351 717 59.0432 428.834 525.552
2881 0 60.1132 12.543 754 58.817 428.552 523.944
2882 0 60.0465 11.4245 686 61.0671 428.098 521.243
2883 0 65.0485 13.0825 851 58.0012 428.288 521.979
2884 0 65.0614 11.8965 774 60.1421 427.96 520.667
2885 0 67.0599 11.8253 793 59.657 427.665 520.823
2886 0 68.1706 11.6326 793 60.7932 428.517 520.182
2887 0 71.1175 13.2879 945 58.3175 428.19 520.223
2888 0 74.1329 10.8859 807 61.1028 429.092 520.587
2889 0 77.1366 11.9399 921 59.9099 429.198 517.213
2890 0 80.1322 12.9661 1039 58.8479 428.396 514.399
2891 0 82.2151 12.82 1054 58.6271 428.63 516.996
2892 0 85.0965 12.3389 1050 59.859 428.783 512.32
2893 1 40.1235 9.6203 386 61.4896 429.28 535.927
2894 0 42.1837 10.1698 429 60.7809 429.021 534.233
2895 0 43.2251 11.6367 503 59.2744 428.62 534.547
2896 0 43.1387 10.4778 452 61.5907 428.502 533.942
2897 0 47.0493 12.2637 577 58.6603 428.308 532.676
2898 0 47.1237 11.4592 540 58.437 428.376 531.998
2899 0 47.2259 10.058 475 60.5853 428.718 530.139
2900 0 52.0523 11.8727 618 58.1731 428.168 531.769
2901 0 50.075 11.1832 560 60.6089 428.054 529.207
2902 0 53.0451 11.6316 617 59.6451 427.911 528.624
2903 0 55.0662 11.9674 659 59.2504 428.029 529.458
2904 0 57.1448 13.1596 752 56.7739 428.178 525.572
2905 0 59.1751 12.6405 748 57.3302 428.735 527.202
2906 0 61.0811 12.246 748 57.6858 428.797 526.813
2907 0 62.1054 13.1389 816 57.2476 428.186 522.711
2908 0 63.1031 11.8695 749 58.9039 428.112 522.676
2909 0 65.1024 11.5818 754 58.8024 427.98 522.057
2910 0 67.0922 11.7748 790 58.3899 427.177 524.032
2911 0 69.2316 12.6676 877 57.7982 428.192 519.805
2912 0 71.1036 11.4762 816 58.6605 427.811 518.087
2913 0 74.0712 12.974 961 57.0791 427.687 516.921
2914 0 75.0886 11.0137 827 59.7739 427.597 516.589
2915 0 76.0877 12.2359 931 58.3942 427.17 515.455
2916 0 80.0987 11.8229 947 58.3717 427.213 514.518
2917 0 82.1314 13.588 1116 56.5224 427.423 515.234
2918 0 86.1416 12.8742 1109 56.8981 428.334 514.564
2919 1 42.1177 11.1117 468 58.297 428.075 533.434
2920 0 43.0911 10.8143 466 58.4828 427.972 531.483
2921 0 45.0096 10.7088 482 58.7116 428.274 532.104
2922 0 45.0395 12.6112 568 56.7782 428.144 530.391
2923 0 48.0461 9.80308 471 59.1444 427.463 531.314
2924 0 50.0989 12.7149 637 56.3532 428.27 530.816
2925 0 51.0837 11.628 594 57.9899 428.382 529.37
2926 0 53.0249 11.9755 635 57.8929 428.241 527.844
2927 0 55.0175 12.3234 678 57.4292 427.706 526.338
2928 0 54.0604 12.449 673 56.9316 427.679 525.663
2929 0 60.0504 12.0066 721 56.8724 427.374 524.867
2930 0 60.0539 11.7395 705 57.2057 427.57 525.55
2931 0 60.0869 11.5666 695 57.2777 427.367 527.086
2932 0 62.0425 11.3954 707 57.5361 427.487 523.223
2933 0 64.0631 12.4253 796 57.0766 427.672 521.932
2934 0 67.1164 12.5156 840 56.4583 427.326 523.949
2935 0 67.0784 11.9114 799 57.0388 428.344 521.766
2936 0 69.1171 13.0937 905 55.8497 428.615 520.736
2937 0 71.09 9.59347 682 59.2713 427.915 519.491
2938 0 74.0338 10.8194 801 57.0899 428.066 519.699
2939 0 75.088 12.8516 965 55.9648 427.683 515.907
2940 1 40.036 10.3657 415 55.3518 427.865 537.742
2941 0 39.0046 8.17853 319 56.9154 428.097 538.307
2942 0 42.0147 10.6867 449 55.5301 427.918 535.363
2943 0 43.1218 11.4095 492 54.4187 427.736 534.11
2944 0 43.0445 11.2209 483 54.4907 427.936 531.82
2945 0 42.0232 10.5656 444 55.6239 427.75 533.383
2946 0 46.0413 13.3793 616 52.6299 427.787 533.964
2947 0 47.0589 11.8787 559 54.2719 427.138 532.395
2948 0 50.062 9.14866 458 56.5306 428.122 532.55
2949 0 51.0188 9.97671 509 55.7289 428.035 531.389
2950 0 51.0487 10.5586 539 56.0445 426.876 527.367
2951 0 53.046 12.5363 665 53.9368 427.32 527.039
2952 0 55.1782 11.1457 615 55.3398 426.974 526.525
2953 0 56.1153 11.4942 645 54.3426 427.46 529.508
2954 0 58.0483 10.0606 584 55.1473 426.938 531.308
2955 0 60.0771 12.3674 743 53.8883 426.988 528.266
2956 0 61.231 12.1181 742 54.5377 427.883 524.491
2957 0 60.0973 10.067 605 57.3074 428.104 524.673
2958 0 66.1699 13.284 879 53.8703 427.852 522.568
2959 0 67.1257 11.903 799 55.4118 427.358 521.081
2960 0 68.3277 12.484 853 54.5147 426.828 522.32
2961 0 73.0622 12.1403 887 54.407 427.821 522.375
2962 1 36.0455 8.9054 321 56.8474 427.798 540.131
2963 0 36.2404 8.88511 322 58.5031 428.102 538.031
2964 0 39.0586 11.9308 466 54.7961 427.837 536.197
2965 0 42.0915 12.2115 514 54.4786 427.23 536.074
2966 0 41.0342 11.4782 471 55.0722 427.14 536.369
2967 0 43.044 10.4776 451 56.7894 427.188 533.539
2968 0 43.0461 12.8467 553 54.4882 426.879 533.517
2969 0 45.0228 12.3049 554 55.0343 427.917 535.679
2970 0 46.0788 10.5472 486 57.7366 427.498 529.364
2971 0 53.1835 14.7226 783 46.0843 426.843 535.635
2972 0 49.0505 12.3139 604 56.0563 427.868 531.879
2973 0 51.0274 12.0915 617 55.8379 427.919 533.357
2974 0 52.0484 11.4125 594 57.0774 427.473 531.928
2975 0 52.0189 12.1494 632 56.3449 426.536 531.589
2976 0 56.1175 13.4004 752 55.2726 426.505 527.766
2977 0 57.0853 12.0872 690 56.787 427.51 529.678
2978 0 58.0319 11.9073 691 57.11 427.398 528.127
2979 0 59.1354 11.8203 699 57.3577 427.697 526.928
2980 0 61.1034 12.9944 794 56.3942 427.501 523.821
2981 0 66.0785 12.0311 795 56.8931 427.293 522.884
2982 0 65.0254 12.4874 812 57.0751 427.475 524.092
2983 0 67.0284 12.0098 805 57.4584 427.261 522.18
2984 0 71.1592 10.7505 765 59.4118 427.426 520.567
2985 0 71.0742 10.5805 752 59.8949 426.851 519.541
2986 0 75.0565 11.3381 851 58.9624 427.691 517.971
2987 0 76.0496 12.4524 947 57.5977 428.323 513.863
2988 0 82.0722 12.5012 1026 57.0936 428.084 515.672
2989 1 45.0361 10.8358 488 57.4672 427.527 535.906
2990 0 43.0263 12.1089 521 58.6584 427.328 532.952
2991 0 46.0323 11.9047 548 58.0328 427.646 532.927
2992 0 46.0272 11.0587 509 59.8193 427.794 530.509
2993 0 50.0405 12.2301 612 58.4363 427.799 530.742
2994 0 50.0803 12.5798 630 58.1127 427.767 531.375
2995 0 50.0655 12.6634 634 58.3722 427.724 530.339
2996 0 54.0962 12.792 692 58.0376 428.077 529.458
2997 0 54.1074 11.8098 639 60.1502 428.432 527.189
2998 0 55.0736 13.6 749 57.729 428.183 528.534
2999 0 58.0998 12.3925 720 59.2208 428.136 525.294
3000 0 61.0894 12.8828 787 57.8984 428.981 525.549
3001 0 62.1098 13.1863 819 58.1844 428.497 523.363
3002 0 62.0699 13.372 830 58.3783 427.595 521.755
3003 0 66.0612 13.215 873 58.0802 428.298 523.103
3004 0 66.1018 11.6789 772 59.5635 427.711 524.632
3005 0 69.1124 13.2972 919 58.2111 427.322 516.954
3006 0 74.0317 15.0881 1117 55.3456 427.777 519.215
3007 0 73.1601 11.7414 859 59.7474 427.966 517.894
3008 0 76.058 11.2151 853 60.2345 428.229 516.125
3009 0 78.0844 11.2058 875 59.8617 428.141 512.382
3010 0 81.0919 11.5548 937 59.8452 429.218 513.919
3011 1 42.0289 12.9197 543 56.6004 428.35 534.639
3012 0 43.0247 11.1564 480 59.2917 428.923 531.7
3013 0 44.1405 10.0588 444 61.4414 428.649 531.176
3014 0 45.0257 10.7716 485 60.6412 428.289 532.111
3015 0 47.079 12.4684 587 58.678 428.414 529.22
3016 0 47.037 11.8417 557 59.456 428.846 530.661
3017 0 49.0599 11.6796 573 59.7278 429.134 526.773
3018 0 51.0578 12.1431 620 59.5274 428.458 527.264
3019 0 52.094 11.9016 620 60.2613 428.334 527.498
3020 0 55.0373 13.4454 740 58.0351 427.714 526.866
3021 0 57.1027 13.8873 793 57.5511 427.545 524.093
3022 0 56.0364 11.671 654 61.2875 427.976 523.223
3023 0 60.1631 13.1808 793 59.3316 428.396 522.81
3024 0 61.05 12.0229 734 60.5627 428.376 523.891
3025 0 61.0805 12.8683 786 60.584 428.44 522.774
3026 0 64.0745 12.3294 790 61.0481 428.748 521.646
3027 0 66.1695 13.1178 868 60.0668 428.154 522.6
3028 0 69.0943 12.2297 845 61.2083 428.405 520.845
3029 0 71.0787 13.4217 954 60.1803 428.554 518.81
3030 0 74.0235 14.1712 1049 58.7979 427.66 517.918
3031 0 77.2534 13.1127 1013 59.8036 427.549 518.522
3032 0 77.0352 12.345 951 61.5289 427.723 516.648
3033 1 36.0352 9.65723 348 62.9655 428.342 534.537
3034 0 39.0327 11.1189 434 60.447 428.198 535.564
3035 0 39.0289 10.5563 412 62.1602 428.427 533.745
3036 0 43.0567 11.9842 516 59.843 427.87 533.328
3037 0 45.0719 11.8699 535 59.3533 428.024 533.331
3038 0 47.0548 13.1761 620 57.9097 427.782 531.824
3039 0 47.0354 14.8186 697 50.5997 427.71 528.633
3040 0 49.1982 13.4151 660 58.2136 427.638 528.889
3041 0 49.0651 11.8006 579 60.6615 427.902 529.214
3042 0 51.0398 11.8143 603 60.2007 427.841 526.645
3043 0 53.0597 13.4 711 57.8608 428.048 527.664
3044 0 54.0374 13.1391 710 58.5479 427.768 527.237
3045 0 57.1107 14.0429 802 57.692 428.425 525.552
3046 0 57.1034 12.6788 724 59.413 428.033 525.793
3047 0 60.1684 11.2351 676 61.0503 427.994 525.42
3048 0 59.1355 11.7188 693 60.8658 427.43 520.724
3049 0 61.0921 10.7706 658 61.4134 428.049 521.242
3050 0 66.0877 12.5591 830 58.6422 428.161 521.761
3051 0 68.0806 13.7631 937 57.9178 427.948 518.822
3052 0 70.1316 12.1486 852 59.3955 428.011 519.926
3053 0 72.0988 11.9835 864 59.213 428.036 521.072
3054 0 75.0688 12.3487 927 59.3786 427.845 517.276
3055 0 76.1456 11.4386 871 60.403 428.375 514.723
3056 0 79.0835 13.2139 1045 58.5321 428.037 517.336
3057 1 42.1561 9.8918 417 59.9832 428.036 533.835
3058 0 44.1253 11.7393 518 58.6776 427.815 532.152
3059 0 45.0465 11.8988 536 59.3284 428.211 531.36
3060 0 46.0551 11.9205 549 59.6484 427.942 531.213
3061 0 44.0326 11.4233 503 60.5984 428.672 529.35
3062 0 47.0978 12.5271 590 59.8288 428.937 529.441
3063 0 50.1575 12.5006 627 59.614 429.01 528.608
3064 0 53.0666 13.191 700 58.4343 428.914 529.796
3065 0 50.0409 11.3307 567 61.5855 428.933 529.489
3066 0 52.1641 10.6203 554 63.1805 428.334 527.574
3067 0 56.268 11.9962 675 61.037 428.139 527.156
3068 0 57.2538 11.7547 673 61.364 428.107 525.764
3069 0 60.1231 11.7426 706 61.2663 428.775 525.99
3070 0 58.0561 9.99033 580 63.9586 428.798 522.538
3071 0 62.0749 11.8566 736 62.2446 428.217 521.588
3072 0 66.0506 9.84094 650 63.2615 428.585 525.322
3073 0 66.1392 12.3225 815 61.6356 427.993 521.42
3074 0 66.1631 9.77886 647 64.3833 428.41 521.576
3075 0 71.0638 13.3401 948 60.2764 427.97 520.129
3076 1 37.119 10.9109 405 61.3654 427.672 535.936
3077 0 39.0512 9.88446 386 61.9767 427.87 536.63
3078 0 38.0637 10.0621 383 62.3995 427.439 536.342
3079 0 42.0691 11.386 479 60.2401 428.152 536.382
3080 0 43.0916 9.93234 428 63.8785 428.46 532.397
3081 0 43.1204 12.9637 559 60.6297 428.329 531.238
3082 0 44.0322 10.7649 474 63.3122 427.468 529.612
3083 0 45.0554 9.36625 422 65.109 428.19 529.246
3084 0 48.0687 10.4642 503 63.2863 428.078 530.133
3085 0 49.029 13.1147 643 60.2457 427.896 526.673
3086 0 51.0668 13.2571 677 60.4623 427.823 525.821
3087 0 48.0423 9.32512 448 65.6696 429.033 524.429
3088 0 54.0648 12.374 669 61.9626 427.7 523.856
3089 0 54.0448 10.6763 577 63.7435 428.716 522.229
3090 0 54.0404 9.56692 517 65.3211 428.381 523.348
3091 0 58.0992 10.5509 613 63.4029 428.17 520.235
3092 0 59.0258 9.6568 570 64.8 428.574 519.002
3093 0 62.0623 10.8762 675 63.0237 428.35 521.439
3094 0 65.0683 11.8183 769 62.342 428.333 518.791
3095 0 70.0385 12.2076 855 61.207 427.898 520.621
3096 0 71.2245 11.4146 813 61.9446 428.38 520.337
3097 0 74.0626 10.6532 789 62.1584 428.788 520.807
3098 0 77.093 12.4784 962 60.2661 428.515 517.338
3099 0 79.0438 11.9807 947 61.2418 428.904 516.16
3100 1 39.0321 11.5546 451 60.9313 428.865 534.909
3101 0 43.0915 10.5357 454 61.304 428.738 533.586
3102 0 44.104 11.745 518 60.3919 429.724 532.4
3103 0 46.0869 11.001 507 61.43 429.527 531.17
3104 0 47.2171 10.7165 506 61.7174 428.376 530.36
3105 0 48.0556 13.5676 652 58.6104 429.523 529.132
3106 0 50.1844 11.936 599 60.7296 429.693 528.452
3107 0 50.0919 11.7983 591 61.1252 429.523 526.516
3108 0 52.2673 12.57 657 60.4444 428.925 522.253
3109 0 54.1349 13.6326 738 59.1707 429.076 524.058
3110 0 56.1416 13.0741 734 59.6935 429.751 522.871
3111 0 56.1484 9.97357 560 63.7196 430.08 522.023
3112 0 59.0293 12.6717 748 60.3944 429.885 520.46
3113 0 64.1287 12.4437 798 59.3108 429.08 521.16
3114 0 63.09 11.1745 705 61.0099 428.935 521.811
3115 0 68.0792 12.838 874 58.7872 429.092 518.665
3116 0 67.0817 12.373 830 59.0566 428.743 518.551
3117 0 70.1096 11.5105 807 59.4102 429.226 519.742
3118 0 72.1674 13.732 991 57.7477 429.196 514.635
3119 0 75.2421 11.9082 896 58.7757 429.357 516.704
3120 0 78.1443 12.285 960 58.3667 429.242 513.792
3121 0 79.0576 11.8268 935 59.169 430.079 510.872
3122 0 82.1201 11.7145 962 59.263 429.647 511.83
3123 1 44.0213 9.04107 398 58.6281 428.905 533.425
3124 0 43.0431 11.8718 511 56.6693 429.067 530.794
3125 0 44.0462 12.555 553 57.0868 429.499 529.244
3126 0 45.051 12.9409 583 56.7118 429.521 528.931
3127 0 50.114 13.7087 687 55.5837 429.587 525.392
3128 0 49.1195 12.3576 607 57.5931 429.936 524.85
3129 0 51.0992 13.0726 668 56.7485 429.49 524.901
3130 0 53.1818 12.6547 673 56.8707 429.284 522.869
3131 0 53.1418 11.8927 632 57.7579 428.934 524.535
3132 0 55.1154 11.739 647 58.2859 429.638 522.133
3133 0 57.0986 12.2595 700 57.8914 428.884 520.02
3134 0 57.0461 12.1305 692 58.7644 428.822 519.523
3135 0 62.0726 12.6948 788 56.8769 428.633 520.383
3136 0 63.0795 11.1764 705 58.522 428.262 520.763
3137 0 65.0782 12.6463 823 57.5954 427.695 517.797
3138 0 66.1191 12.4472 823 57.288 427.966 515.741
3139 0 69.1526 11.3372 784 58.4388 428.601 515.506
3140 0 70.1602 12.6567 888 56.9786 428.707 517.155
3141 0 73.1382 10.8562 794 59.2872 428.06 513.102
3142 0 74.0992 10.5129 779 59.697 428.596 513.44
3143 1 36.0194 9.13398 329 60.0942 428.155 532.842
3144 0 37.0244 12.3972 459 56.7756 427.706 532.891
3145 0 39.1606 11.5677 453 58.4702 427.461 529.87
3146 0 37.0469 10.0143 371 60.6361 427.507 531.771
3147 0 40.014 11.296 452 59.031 428.164 530.546
3148 0 41.0137 12.7762 524 57.3798 427.866 529.162
3149 0 46.114 13.4666 621 55.4219 427.519 529.816
3150 0 45.0106 10.0865 454 59.5573 428.009 528.511
3151 0 46.1707 9.83307 454 59.8943 427.901 528.766
3152 0 47.0934 14.3332 675 55.3185 426.815 528.542
3153 0 50.1393 12.0664 605 57.8496 427.235 525.889
3154 0 50.102 11.3968 571 58.7618 426.644 526.389
3155 0 51.0613 11.4764 586 58.8089 427.024 524.481
3156 0 55.1557 13.7248 757 56.0991 427.069 525.34
3157 0 58.1323 11.1642 649 58.3498 427.265 524.367
3158 0 55.0606 10.8244 596 60.005 426.97 522.831
3159 0 58.056 11.4889 667 58.7526 426.555 521.507
3160 0 62.0448 14.0866 874 56.2872 426.621 519.461
3161 0 62.0242 10.8345 672 59.7426 426.502 519.284
3162 0 67.0568 12.467 836 57.4534 426.956 517.661
3163 0 68.0918 11.5432 786 59.0344 426.917 518.908
3164 0 71.129 12.1751 866 58.5335 426.303 517.154
3165 0 75.2072 12.3525 929 57.5361 426.495 516.29
3166 1 34.0713 10.6248 362 60.3177 425.68 532.32
3167 0 35.049 9.47244 332 61.3313 426.696 533.632
3168 0 37.0319 12.1787 451 58.8093 426.293 532.173
3169 0 39.1274 12.191 477 58.9874 425.883 531.342
3170 0 39.0821 11.0281 431 60.5336 426.462 528.578
3171 0 43.0452 12.3591 532 58.1955 426.667 530.645
3172 0 42.0553 10.2009 429 61.5967 426.399 528.946
3173 0 44.1287 10.5147 464 61.556 427.125 529.181
3174 0 45.0769 11.8021 532 60.0808 427.054 528.201
3175 0 49.136 13.0047 639 57.5227 427.13 527.152
3176 0 48.1429 11.6736 562 60.105 427.543 526.472
3177 0 51.0822 13.351 682 57.7815 427.163 525.799
3178 0 53.0583 10.3848 551 60.2722 427.49 527.065
3179 0 53.0673 11.6268 617 59.3728 427.804 521.655
3180 0 57.0468 12.9893 741 57.8866 427.684 523.202
3181 0 59.1877 12.7053 752 57.2872 426.856 522.911
3182 0 59.1015 11.9117 704 59.1051 427.097 519.891
3183 0 63.0862 12.364 780 58.0474 427.181 519.119
3184 0 63.028 11.3442 715 59.4741 426.916 518.27
3185 0 68.057 13.0185 886 57.0801 426.997 520.517
3186 0 69.0449 11.9777 827 58.2588 427.01 517.312
3187 0 73.1142 13.2532 969 56.5996 427.019 517.432
3188 0 74.0375 11.7778 872 58.7718 426.992 514.491
3189 0 77.0481 13.1217 1011 56.8724 427.361 516.761
3190 0 80.0759 11.5765 927 58.6764 426.564 511.333
3191 0 83.0704 12.1463 1009 57.3528 426.779 513.272
3192 0 86.1142 11.5893 998 58.1874 426.47 506.092
3193 1 44.0491 10.057 443 58.754 426.535 527.352
3194 0 48.0779 11.8974 572 56.5874 427.476 528.32
3195 0 49.3097 12.0058 592 56.299 427.343 528.853
3196 0 53.0859 12.5269 665 55.0316 427.438 528.033
3197 0 53.0496 10.198 541 57.1553 427.46 526.749
3198 0 54.1184 11.9553 647 56.5116 427.858 524.199
3199 0 56.1537 11.8603 666 55.8694 427.658 525.083
3200 0 58.118 12.0961 703 55.7212 427.199 523.149
3201 0 59.0342 12.4504 735 55.6054 427.207 522.435
3202 0 60.0168 9.94722 597 58.4137 428.501 520.963
3203 0 66.1105 13.8405 915 53 427.564 521.977
3204 0 65.124 11.9464 778 56.4627 427.01 517.003
3205 0 68.0643 12.1356 826 55.8075 427.659 516.257
3206 0 70.0708 12.3447 865 55.2358 427.406 512.844
3207 0 73.0767 10.0032 731 57.6402 428.249 516.286
3208 0 74.1002 11.7948 874 56.1751 427.995 513.598
3209 0 76.0472 11.2825 858 57.3252 427.641 512.148
3210 0 80.124 10.8582 870 57.4115 427.906 512.131
3211 0 81.1122 12.5135 1015 55.932 427.785 512.362
3212 0 85.1545 13.3639 1138 55.3814 427.99 507.83
3213 0 88.0945 12.5774 1108 55.8619 427.713 508.383
3214 1 46.0813 9.59174 442 56.7104 427.179 527.794
3215 0 49.0565 10.7835 529 56.0737 427.512 526.465
3216 0 49.0777 12.2255 600 54.9833 428.087 526.925
3217 0 53.0532 11.0078 584 55.4024 428.015 525.294
3218 0 53.0323 12.351 655 54.9634 428.939 524.783
3219 0 55.1005 11.3066 623 56.1894 428.408 520.576
3220 0 55.1273 9.08806 501 57.9262 428.729 523.876
3221 0 59.1149 13.1101 775 53.4026 428.822 523.957
3222 0 60.0818 11.0183 662 56.3807 428.76 517.523
3223 0 60.0654 10.7383 645 56.6992 429.09 520.051
3224 0 63.0595 10.498 662 56.8474 428.633 517.352
3225 0 66.0269 11.3741 751 55.7537 428.446 515.419
3226 0 67.0905 10.5976 711 56.4894 428.146 517.414
3227 0 69.0381 11.5299 796 56.2977 427.927 513.283
3228 0 74.0849 12.3642 916 54.4978 427.927 513.403
3229 0 75.103 11.9702 899 55.6518 428.55 513.54
3230 0 77.1185 12.6818 978 55.1513 429.348 511.3
3231 0 82.0463 13.1999 1083 54.1367 429.274 510.4
3232 0 83.106 11.4192 949 56.1812 428.786 508.423
3233 0 85.0512 11.3226 963 56.6189 428.779 507.498
3234 0 89.1921 11.7275 1046 55.2208 427.798 509.061
3235 1 47.0908 11.4247 538 53.9517 427.887 528.708
3236 0 49.0648 11.0874 544 54.1838 428.608 527.767
3237 0 49.0654 9.59943 471 55.1805 428.943 529.89
3238 0 52.0471 10.1639 529 56.2325 429.089 525.372
3239 0 56.0395 13.2585 743 52.8143 429.35 522.214
3240 0 54.1839 11.2764 611 55.4255 428.769 525.448
3241 0 57.0756 12.9302 738 54.122 429.016 521.893
3242 0 58.0718 11.9335 693 54.9553 429.097 523.85
3243 0 62.1309 13.1496 817 53.0881 427.613 523.515
3244 0 64.2173 12.1774 782 54.5793 428.045 521.222
3245 0 64.0739 10.3786 665 56.9639 428.427 521.796
3246 0 67.1658 11.8662 797 54.8532 428.878 520.61
3247 0 68.1544 13.7042 934 53.3555 428.74 516.369
3248 0 70.1567 11.2605 790 55.4633 427.79 516.782
3249 0 73.119 11.6112 849 55.808 427.449 516.538
3250 0 75.1685 11.0552 831 56.2515 428.212 517.342
3251 0 78.0745 12.4112 969 55.259 428.277 511.739
3252 0 78.2152 13.1177 1026 55.1121 428.223 514.712
3253 1 38.0816 11.0027 419 56.3556 429.122 534.375
3254 0 39.0841 10.5925 414 56.1787 428.22 535.971
3255 0 41.0091 10.0953 414 56.9952 427.79 535.266
3256 0 44.0905 11.7939 520 55.2846 428.277 532.302
3257 0 46.0677 10.8753 501 54.8782 428.415 533.126
3258 0 45.0949 10.7551 485 55.9959 428.144 530.905
3259 0 49.0469 13.3546 655 52.8244 427.733 530.664
3260 0 51.0975 11.0573 565 54.7805 427.858 531.136
3261 0 50.0757 12.2215 612 54.1977 427.493 530.007
3262 0 52.0401 13.1245 683 52.6925 427.198 531.512
3263 0 53.0968 10.6786 567 55.6085 426.79 528.716
3264 0 54.0828 12.4993 676 54.2973 426.969 526.003
3265 0 55.0251 10.7406 591 55.9171 427.262 525.469
3266 0 57.0493 10.973 626 55.722 426.754 526.917
3267 0 58.1274 11.0963 645 55.476 426.73 523.836
3268 0 61.1744 11.786 721 54.2413 426.273 521.437
3269 0 63.2213 11.9738 757 53.823 426.691 522.404
3270 0 62.1879 10.8864 677 55.5953 426.646 522.544
3271 0 66.0597 11.5653 764 53.9411 426.577 521.329
3272 0 67.1191 11.4573 769 54.5982 426.363 518.609
3273 1 32.0221 9.14993 293 54.9078 426.638 536.481
3274 0 34.0349 10.0779 343 53.1895 426.84 537.688
3275 0 34.0283 9.81537 334 54.5808 426.159 533.431
3276 0 36.0312 10.4354 376 53.5452 426.152 534.638
3277 0 38.0977 10.9718 418 53.0837 426.014 533.22
3278 0 38.0544 10.1959 388 54.7345 425.799 530.268
3279 0 41.0374 9.94216 408 54.0343 425.444 531.532
3280 0 42.0564 11.2468 473 53.1882 425.753 527.613
3281 0 42.0277 10.0886 424 54.3349 425.401 531.469
3282 0 43.1137 10.1592 438 54.7648 424.906 527.361
3283 0 45.0526 9.92173 447 54.689 424.499 527.617
3284 0 47.033 11.0135 518 53.332 424.471 530.43
3285 0 48.0624 11.0898 533 53.6904 424.454 527.632
3286 0 49.0735 12.0839 593 52.8145 423.696 527.137
3287 0 49.0728 11.5339 566 53.5618 424.435 527.993
3288 0 54.0514 11.5261 623 53.244 425.006 525.984
3289 0 54.176 11.9056 645 53.0977 425.065 523.766
3290 0 58.0576 13.4866 783 51.3602 425.322 525.591
3291 0 57.0752 12.0192 686 53.3236 424.966 520.274
3292 0 59.0542 12.6155 745 52.8228 425.011 519.999
3293 0 63.1877 12.1068 765 53.1386 424.799 520.342
3294 0 64.1031 11.6531 747 53.4043 424.83 518.315
3295 0 67.0481 11.9168 799 53.1614 425.212 518.998
3296 0 68.208 11.1131 758 54.7111 425.367 514.422
3297 0 71.1508 11.0329 785 54.3172 424.794 514.052
3298 1 35.234 9.64978 340 55.4324 425.365 532.497
3299 0 36.0216 11.0489 398 54.9171 425.133 529.214
3300 0 38.0891 10.3442 394 55.4721 425.614 527.789
3301 0 41.0125 11.338 465 53.671 425.4 528.366
3302 0 41.071 11.9793 492 54.1707 425.864 525.689
3303 0 43.1168 12.5473 541 53.658 426.183 527.288
3304 0 44.043 12.1245 534 53.7828 426.382 528.908
3305 0 45.028 11.5484 520 54.5154 426.983 527.863
3306 0 45.0389 11.1015 500 55.232 427.076 527.688
3307 0 48.0613 12.0679 580 53.8034 426.788 524.369
3308 0 48.1118 12.0968 582 54.9296 425.899 523.287
3309 0 49.0211 11.7092 574 54.9303 427.042 524.42
3310 0 50.0487 10.8095 541 56.2865 427.183 521.414
3311 0 53.0251 12.2584 650 54.5246 426.594 520.5
3312 0 55.1145 11.7029 645 55.2512 426.409 520.602
3313 0 58.0797 12.5345 728 54.6772 426.177 518.668
3314 0 57.1492 10.9188 624 56.1715 426.479 517.492
3315 0 58.0789 10.9162 634 56.1688 426.123 518.961
3316 0 62.2142 10.9461 681 55.8796 426.432 516.163
3317 0 64.0805 14.3413 919 52.8172 426.787 515.896
3318 0 64.0484 12.7872 819 54.9255 427.049 513.777
3319 0 69.0549 14.1916 980 52.8041 427.314 512.852
3320 0 71.1285 13.9607 993 53.1913 427.525 513.294
3321 0 70.0848 13.2126 926 54.4622 427.249 510.924
3322 0 72.1746 12.8161 925 55.0032 426.808 513.84
3323 0 75.1379 11.5654 869 56.2025 426.696 512.436
3324 1 38.0877 10.5283 401 56.9152 428.012 529.945
3325 0 41.0356 10.43 428 56.6916 427.886 528.53
3326 0 40.3501 12.1685 491 56.057 427.369 527.705
3327 0 42.025 10.8745 457 57.232 427.525 527.317
3328 0 42.0216 13.1361 552 55.6141 427.962 527.813
3329 0 45.0566 11.7408 529 56.8469 427.737 525.028
3330 0 46.0821 10.5898 488 58.4713 427.98 522.502
3331 0 47.0633 11.6651 549 57.286 428.231 523.419
3332 0 48.0121 11.997 576 56.8958 428.26 522.903
3333 0 52.1157 13.6235 710 54.538 428.672 524.12
3334 0 53.1188 12.5944 669 56.1734 428.245 523.598
3335 0 55.0498 12.2616 675 56.877 428.693 522.493
3336 0 53.083 13.6767 726 56.3857 427.326 520.877
3337 0 56.0628 11.0233 618 58.9223 427.859 519.555
3338 0 56.1419 10.705 601 59.4725 428.022 518.744
3339 0 60.0699 11.2536 676 59.1746 427.774 519.797
3340 0 60.0443 11.758 706 58.9589 428.295 517.673
3341 0 63.2029 12.2146 772 58.4948 428.452 517.047
3342 0 66.0878 13.9814 924 56.4113 427.464 517.988
3343 0 69.106 12.9801 897 57.9309 427.673 516.36
3344 0 71.1585 13.9548 993 57.0121 427.683 514.575
3345 0 71.166 12.9697 923 59.221 427.364 513.057
3346 0 76.1204 15.0288 1144 56.5376 427.147 513.122
3347 0 78.0964 13.2016 1031 58.5917 427.324 512.84
3348 0 77.1102 14.5895 1125 57.8311 427.58 511.41
3349 1 42.1053 11.9225 502 59.4861 427.108 532.632
3350 0 42.0572 11.3893 479 61.9269 427.15 528.624
3351 0 45.0972 13.1937 595 60.0857 427.101 528.667
3352 0 44.1441 10.4884 463 63.4104 425.782 529.968
3353 0 49.1278 12.8644 632 60.231 425.449 528.335
3354 0 48.0943 12.2676 590 62.2627 425.67 528.159
3355 0 50.1415 12.2055 612 62.2843 425.791 526.925
3356 0 50.0254 13.5931 680 61.3221 426.422 524.665
3357 0 52.0358 14.2594 742 60.3868 424.957 523.818
3358 0 52.024 12.648 658 62.614 425.354 525.605
3359 0 54.117 12.6208 683 62.3543 425.523 524.783
3360 0 55.0449 12.6442 696 62.6135 425.72 524.223
3361 0 59.0541 14.1565 836 60.573 425.336 523.178
3362 0 59.1261 13.6995 810 61.0852 425.601 524.274
3363 0 62.036 14.4432 896 60.3605 426.544 523.884
3364 0 65.1307 14.064 916 60.7063 426.759 521.051
3365 0 65.0566 13.8956 904 61.5299 425.554 520.752
3366 0 67.0261 13.4574 902 62.2772 425.955 522.692
3367 0 69.1221 14.0621 972 61.4156 426.123 522.321
3368 0 71.4774 14.3122 1023 62.0645 425.778 518.163
3369 0 75.0614 14.1351 1061 61.5231 425.043 517.605
3370 0 75.1026 13.0355 979 62.8733 425.517 518.906
3371 0 77.133 13.0943 1010 64.0911 425.438 516.828
3372 0 82.1499 14.6318 1202 62.3294 425.371 514.613
3373 0 81.0523 13.3617 1083 64.9806 425.888 513.18
3374 0 87.0887 15.1225 1317 62.268 425.891 513.079
3375 0 89.2177 14.8513 1325 63.0974 426.232 512.918
3376 1 46.072 12.1766 561 66.2834 426.494 534.298
3377 0 47.0772 12.129 571 67.2732 426.016 531.674
3378 0 49.2447 13.9101 685 65.038 426.083 532.593
3379 0 48.0671 12.1913 586 68.0819 425.471 530.906
3380 0 50.0806 13.7977 691 65.848 425.096 532.851
3381 0 53.0758 12.6423 671 67.2996 426.493 530.922
3382 0 55.0901 13.1603 725 66.1503 426.247 530.232
3383 0 54.0623 13.355 722 66.3033 425.579 529.867
3384 0 58.1919 14.7615 859 64.1537 425.689 528.993
3385 0 60.0762 13.8324 831 65.1757 426.07 527.418
3386 0 61.108 13.0425 797 66.2284 426.301 526.365
3387 0 65.1891 12.1339 791 67.5436 426.11 524.785
3388 0 65.0631 13.6176 886 65.57 426.248 524.565
3389 0 67.0748 13.6415 915 65.3388 426.181 523.981
3390 0 69.0869 12.6652 875 66.6343 425.947 522.665
3391 0 71.321 13.0677 932 66.235 425.746 520.563
3392 0 76.125 15.4483 1176 62.6871 425.637 520.1
3393 0 76.2512 13.7309 1047 65.6008 426.059 519.011
3394 0 79.0336 14.6773 1160 64.8612 426.466 516.218
3395 0 79.162 13.5419 1072 66.1427 426.16 516.952
3396 0 85.1443 13.941 1187 65.3008 426.035 514.488
3397 1 42.0893 12.4497 524 66.666 426.336 535.095
3398 0 42.1143 13.9145 586 66.2833 425.889 532.819
3399 0 45.0921 12.796 577 67.0485 425.851 534.182
3400 0 46.0374 12.7505 587 66.4259 425.688 533.492
3401 0 47.1008 15.1802 715 64.214 425.26 531.906
3402 0 50.0571 13.0251 652 66.4939 426.173 532.115
3403 0 51.0767 12.6868 648 68.1296 426.022 527.235
3404 0 52.0551 13.4473 700 67.01 426.163 528.557
3405 0 53.0833 12.3768 657 67.9361 426.247 528.948
3406 0 54.0842 13.2201 715 67.2979 425.955 529.496
3407 0 58.0833 13.4462 781 66.5659 426.424 528.222
3408 0 61.1786 14.4005 881 65.1214 426.625 526.814
3409 0 60.1836 12.8274 772 67.7293 426.473 524.701
3410 0 63.0494 13.5925 857 66.762 426.624 524.266
3411 0 65.1767 14.99 977 65.1361 426.866 524.414
3412 0 67.0571 13.3319 894 67.0973 426.195 520.961
3413 0 71.0542 16.0863 1143 63.3185 427.26 521.386
3414 0 71.184 14.3993 1025 66.1717 426.895 518.823
3415 0 71.1026 12.939 920 67.7978 427.028 521.079
3416 0 75.1131 13.6594 1026 66.7973 426.722 520.418
3417 0 77.1261 13.6789 1055 67.072 427.016 516.091
3418 0 79.109 13.02 1030 68.6116 426.667 517.261
3419 0 82.1958 14.3681 1181 66.7146 426.458 513.51
3420 1 42.0429 10.5131 442 70.086 426.249 535.303
3421 0 43.0282 12.7823 550 68.7727 426.455 532.355
3422 0 44.0937 13.6754 603 68.0498 425.779 532.073
3423 0 44.0659 13.1394 579 68.9534 426.235 531.133
3424 0 47.0796 11.831 557 70.5691 426.138 529.241
3425 0 50.039 11.6109 581 70.4819 426.193 528.031
3426 0 51.0718 14.4111 736 67.019 425.56 527.194
3427 0 51.0692 15.058 769 66.8921 425.56 527.07
3428 0 52.1326 14.7508 769 66.7841 426.605 527.274
3429 0 55.0497 14.3507 790 66.8658 426.351 525.105
3430 0 56.0735 13.5893 762 68.1207 425.45 524.908
3431 0 59.05 14.1236 834 67.271 427.096 524.374
3432 0 60.0967 15.1589 911 66.4303 426.698 522.86
3433 0 62.0647 15.226 945 65.8815 427.124 522.484
3434 0 64.0962 15.1803 973 66.0586 426.295 520.867
3435 0 66.1482 13.3337 882 68.9796 426.552 518.973
3436 0 70.1965 14.5876 1024 66.8125 426.381 520.5
3437 0 70.1407 14.0147 983 68.7782 426.739 517.209
3438 0 72.1292 12.8935 930 70.3355 426.011 518.93
3439 1 34.0117 9.99657 340 71.5147 425.997 536.265
3440 0 37.0125 12.2932 455 68.1055 426.125 536.167
3441 0 37.0242 11.398 422 70.2701 425.709 535.595
3442 0 37.0222 13.6675 506 68.2273 425.48 534.376
3443 0 39.0422 12.4737 487 69.6797 426.133 534.353
3444 0 39.0284 12.2475 478 71.0209 425.879 532.799
3445 0 44.0279 14.2183 626 67.5096 426.554 532.463
3446 0 42.0255 12.8017 538 71.5762 426.34 530.965
3447 0 45.2577 13.2132 598 69.2324 426.736 532.657
3448 0 44.0522 13.0754 576 71.809 426.3 528.212
3449 0 48.0711 13.3344 641 70.6833 426.619 529.392
3450 0 48.1717 12.6838 611 71.712 426.275 529.314
3451 0 48.0608 13.3997 644 71.986 427.412 528.026
3452 0 50.0417 14.5279 727 70.2806 427.454 527.184
3453 0 51.0604 14.238 727 70.8432 426.99 526.283
3454 0 52.2697 13.5451 708 72.1328 427.398 527.72
3455 0 56.0865 15.3335 860 68.5384 427.535 525.221
3456 0 56.025 15.029 842 70.7102 427.21 524.582
3457 0 58.0225 14.0635 816 71.6029 426.907 526.056
3458 0 61.1992 14.9839 917 70.0142 426.539 521.466
3459 0 60.1627 13.53 814 73.742 426.839 519.532
3460 0 64.0818 13.9041 891 72.2043 427.13 520.898
3461 0 68.1419 15.0862 1028 69.9436 426.961 521.836
3462 0 68.4633 14.3288 981 71.9154 427.093 520.257
3463 0 70.1701 13.2108 927 74.1068 426.693 517.116
3464 1 34.0767 11.1806 381 75.2467 426.916 533.517
3465 0 36.0326 12.2944 443 74.1648 426.517 534.395
3466 0 37.0812 12.2973 456 72.8728 426.123 535.11
3467 0 39.081 13.101 512 72.1719 426.125 533.012
3468 0 41.0332 11.7466 482 73.2822 426.156 533.519
3469 0 41.0819 11.8544 487 73.7433 426.955 532.593
3470 0 43.1118 13.0591 563 72.1599 426.396 531.844
3471 0 44.0302 12.0826 532 74.2293 426.252 529.032
3472 0 47.0592 12.3887 583 73.0343 426.405 530.386
3473 0 46.2113 12.4212 574 73.0104 426.672 531.538
3474 0 50.3801 12.6836 639 72.6964 426.354 527.613
3475 0 49.0516 14.9027 731 70.4966 426.19 527.309
3476 0 49.2198 13.3686 658 74.038 426.831 526.106
3477 0 52.1033 13.3197 694 72.4049 426.88 524.963
3478 0 52.2303 11.5642 604 76.1275 426.954 523.709
3479 0 56.0665 15 841 70.0725 427.315 526.049
3480 0 56.1232 13.4169 753 73.1766 427.527 524.222
3481 0 60.1646 13.596 818 72.2665 427.309 522.634
3482 0 60.139 13.3191 801 73.9963 428.025 520.266
3483 0 62.0158 14.3996 893 71.1377 427.494 521.598
3484 0 64.1263 13.567 870 72.7126 427.672 521.52
3485 0 67.1827 13.2921 893 72.4524 427.429 520.515
3486 1 36.0516 11.4836 414 73.0193 427.331 534.389
3487 0 36.0563 11.3434 409 72.2029 426.597 536.91
3488 0 35.0625 10.0963 354 77.3023 427.105 534.161
3489 0 37.2587 11.2994 421 75.7245 428.314 534.862
3490 0 39.0806 11.9497 467 74.2248 427.141 534.308
3491 0 42.0581 13.2911 559 71.1789 427.2 533.47
3492 0 41.0598 12.2748 504 73.3671 427.468 534.395
3493 0 46.1354 12.5717 580 71.319 428.174 533.634
3494 0 46.2333 12.5883 582 70.988 427.878 534.294
3495 0 48.0419 12.4475 598 71.0418 427.502 533.157
3496 0 49.0906 13.4445 660 69.697 428.689 532.715
3497 0 49.0988 12.5869 618 72.1456 428.086 530.702
3498 0 52.0284 12.4355 647 70.8624 428.005 530.099
3499 0 53.1832 13.2749 706 69.3654 427.677 528.139
3500 0 55.1772 15.0424 830 66.8434 427.512 526.646
3501 0 57.1814 12.3816 708 70.5127 427.595 527.311
3502 0 59.1536 14.2341 842 67.3599 426.899 525.583
3503 0 60.1055 13.0105 782 69.0422 426.434 526.203
3504 0 61.0923 13.6351 833 67.7803 426.749 526.481
3505 0 63.1425 11.7037 739 70.7524 427.549 525.497
3506 0 64.0405 12.3047 788 70.651 427.069 524.08
3507 0 67.1003 13.4575 903 68.969 427.442 523.552
3508 0 69.4084 14.8397 1030 66.3689 427.556 522.179
3509 1 34.2334 11.6553 399 70.3985 427.348 537.138
3510 0 35.0789 10.9182 383 70.6867 427.355 537.661
3511 0 35.1506 9.64422 339 71.6165 426.897 538.796
3512 0 37.279 14.4049 537 66.6518 426.909 535.332
3513 0 40.2139 12.9557 521 67.3013 426.996 536.541
3514 0 38.063 10.6665 406 71.6034 426.426 537.512
3515 0 40.1297 12.634 507 68.9744 426.941 536.479
3516 0 41.2255 11.9101 491 69.3788 426.841 535.605
3517 0 44.3739 13.1158 582 67.1512 426.409 536.722
3518 0 44.243 12.2279 541 69.3549 426.63 534.174
3519 0 44.2764 10.9765 486 71.8663 426.934 530.63
3520 0 46.185 12.6665 585 69.6188 427.272 533.32
3521 0 48.0636 10.819 520 72.1154 426.09 532.575
3522 0 47.0902 12.0407 567 70.2716 426.437 530.36
3523 0 51.292 13.8033 708 67.0593 426.702 529.686
3524 0 53.0456 14.5158 770 66.8532 426.914 529.713
3525 0 54.3809 13.571 738 67.8808 426.757 527.984
3526 0 56.3653 12.8625 725 68.2207 426.294 524.404
3527 0 58.4035 13.7663 804 67.5734 427.035 527.211
3528 0 60.229 11.8714 715 69.8434 427.013 526.803
3529 0 61.0594 13.1348 802 68.9701 426.582 524.511
3530 0 63.1462 12.6532 799 69.7522 426.573 524.245
3531 0 65.0922 11.7526 765 71.7726 426.434 520.335
3532 0 66.2484 12.106 802 71.1484 427.211 521.736
3533 0 67.037 13.0376 874 70.0572 426.627 521.3
3534 0 72.0499 12.1721 877 70.7013 426.507 518.844
3535 0 75.208 13.9214 1047 68.382 426.841 517.791
3536 0 77.1875 14.8081 1143 67.1505 426.577 517.001
3537 1 38.2585 11.4484 438 71.8584 426.432 536.048
3538 0 39.2472 10.2428 402 74.4453 426.234 534.483
3539 0 40.2499 14.41 580 68.8603 426.134 533.89
3540 0 42.1295 13.5772 572 69.0052 426.019 533.872
3541 0 43.1869 11.5313 498 72.9819 426.659 533.612
3542 0 45.0756 12.4236 560 71.2161 427.179 534.239
3543 0 44.1879 11.4058 504 74.0496 426.49 531.204
3544 0 46.1235 13.9842 645 69.9333 426.476 533.177
3545 0 50.0988 13.8127 692 69.3945 426.749 531.981
3546 0 48.0434 12.9883 624 72.0497 426.188 531.011
3547 0 52.1311 14.6745 765 68.2261 425.892 530.79
3548 0 52.1322 12.9287 674 71.9451 426.697 527.739
3549 0 53.2126 13.2488 705 71.0397 426.529 528.302
3550 0 57.3412 14.3527 823 69.1592 426.154 527.45
3551 0 56.1196 12.705 713 72.4544 426.123 525.951
3552 0 59.2762 15.5543 922 67.949 426.494 524.906
3553 0 62.3408 12.945 807 71.5836 426.673 524.796
3554 0 61.1935 13.9067 851 71.376 426.441 524.663
3555 0 64.2551 14.1934 912 70.5713 425.701 522.115
3556 0 67.2362 13.1031 881 72.101 426.379 520.35
3557 0 69.1806 14.2959 989 70.5005 426.894 520.051
3558 0 73.3039 14.4467 1059 69.9641 426.301 517.175
3559 0 75.3941 14.4441 1089 70.1001 426.399 516.618
3560 0 75.2576 13.0751 984 72.6433 426.517 515.386
3561 0 79.3684 15.447 1226 69.1607 426.918 515.467
3562 1 40.206 13.6049 547 71.4772 426.631 533.72
3563 0 42.093 12.4486 524 73.6718 426.489 534.162
3564 0 45.3067 13.2872 602 71.1678 426.267 533.083
3565 0 46.1963 12.2521 566 74.1237 426.173 531.958
3566 0 47.3233 13.1859 624 73.016 426.67 531.74
3567 0 48.3251 12.8091 619 73.6963 426.758 529.876
3568 0 50.1377 14.2607 715 71.7301 426.499 529.519
3569 0 51.1562 12.7062 650 73.5815 427.165 529.517
3570 0 52.0346 13.7024 713 73.0098 427.701 527.233
3571 0 55.0996 13.3576 736 72.7921 427.111 526.697
3572 0 57.0535 15.0911 861 69.5401 426.914 524.52
3573 0 59.1892 14.4114 853 70.3646 427.699 523.849
3574 0 61.1541 14.9785 916 69.0677 427.112 524.799
3575 0 64.0568 15.4082 987 68.0334 426.93 522.975
3576 0 62.4429 14.6854 917 70.5878 426.82 519.558
3577 0 66.2208 13.3342 883 71.5504 426.984 519.54
3578 0 67.1336 15.283 1026 69.3265 427.283 518.624
3579 0 70.1321 15.1999 1066 68.7176 427.061 517.161
3580 0 72.167 13.7875 995 71.2151 426.648 511.855
3581 0 75.2531 14.9097 1122 69.2166 426.903 513.094
3582 0 77.0511 15.5222 1196 67.6597 427.343 515.135
3583 0 79.1928 14.3952 1140 69.4719 427.52 510.706
3584 1 38.0297 11.8066 449 71.2428 427.655 534.091
3585 0 38.1424 11.929 455 74.8066 427.393 530.934
3586 0 41.0889 12.9962 534 71.6236 427.466 532.118
3587 0 44.0853 12.4758 550 71.6691 427.524 530.735
3588 0 43.1539 12.2585 529 72.3535 427.236 529.921
3589 0 43.1245 13.032 562 71.9555 427.395 528.375
3590 0 46.1798 12.7112 587 71.1806 427.211 529.504
3591 0 47.0698 13.9155 655 69.9847 427.508 527.886
3592 0 51.0934 12.0955 618 71.4369 427.256 527.798
3593 0 49.0912 12.7518 626 71.401 427.332 526.312
3594 0 50.1443 13.5808 681 70.1571 427.512 525.311
3595 0 54.1161 13.8406 749 68.8505 427.57 525.642
3596 0 54.0732 13.3708 723 69.574 427.466 523.683
3597 0 56.176 15.1132 849 66.7409 427.841 523.453
3598 0 58.0769 13.1894 766 69.6136 428.526 523.249
3599 0 60.0943 14.2942 859 67.4889 427.994 523.548
3600 0 60.208 14.1177 850 68.5965 427.801 521.006
3601 0 64.1681 14.3062 918 67.159 427.512 520.893
3602 0 65.1003 15.0844 982 66.775 427.671 518.478
3603 0 68.1727 15.1674 1034 65.7253 428.141 518.862
3604 0 70.0534 14.3319 1004 67.3456 428.054 515.984
3605 0 71.1881 14.2018 1011 67.7092 427.972 518.878
3606 0 74.0587 13.1247 972 68.4177 427.798 518.565
3607 1 38.0787 11.7651 448 69.6674 428.02 534.08
3608 0 39.2297 13.7141 538 66.5428 427.667 535.626
3609 0 42.0543 13.435 565 67.8425 427.258 532.766
3610 0 42.0222 13.2073 555 69.0973 427.193 532.02
3611 0 43.18 14.6364 632 67.6187 426.843 530.582
3612 0 45.2544 12.6175 571 70.2119 427.268 531.21
3613 0 47.2885 14.4221 682 67.805 427.702 530.749
3614 0 47.1044 13.3533 629 69.4292 427.186 530.606
3615 0 46.0399 12.9887 598 71.0033 427.759 529.843
3616 0 49.0101 12.426 609 72.2217 427.525 529.148
3617 0 49.0363 14.3159 702 69.3661 427.622 528.637
3618 0 52.0295 13.8191 719 70.2865 427.163 525.809
3619 0 51.172 12.1355 621 73.5475 427.576 524.1
3620 0 56.0611 13.9847 784 69.5485 427.079 525.976
3621 0 59.0945 14.0791 832 68.4135 427.355 525.482
3622 0 58.0542 12.2127 709 72.237 426.913 524.396
3623 0 62.1187 14.0859 875 69.3429 426.357 522.701
3624 0 63.0476 13.577 856 70.6238 426.504 521.301
3625 0 64.0493 12.9744 831 71.1637 426.152 521.911
3626 0 66.0271 14.6758 969 68.968 426.861 519.296
3627 0 71.0446 13.3015 945 69.8942 426.696 519.86
3628 0 72.0593 14.0162 1010 69.7297 427.248 518.909
3629 0 74.0774 14.9168 1105 68.8624 427.086 515.975
3630 1 36.0253 10.0485 362 74.3094 427.528 532.762
3631 0 40.0269 10.6678 427 72.0609 426.794 531.684
3632 0 39.0182 11.2512 439 71.9567 425.986 531.672
3633 0 43.033 13.3851 576 67.3628 427.283 533.082
3634 0 44.0534 12.5302 552 68.9909 426.172 530.4
3635 0 45.098 13.8587 625 67.4864 426.195 530.915
3636 0 44.0115 13.0648 575 68.6835 426.169 529.332
3637 0 45.0316 12.1026 545 70.6349 426.202 527.255
3638 0 49.0819 12.2856 603 69.4461 426.265 525.978
3639 0 51.0408 12.3823 632 68.7136 427.199 528.062
3640 0 54.1182 13.0086 704 67.831 427.007 523.733
3641 0 54.0322 12.2334 661 69.4296 427.073 523.79
3642 0 54.0966 12.5331 678 69.7198 426.767 522.174
3643 0 56.0282 11.7976 661 70.5386 426.626 521.92
3644 0 59.039 12.1106 715 69.3063 427.077 523.245
3645 0 59.0554 13.6313 805 68.0373 427.43 519.98
3646 0 64.0707 12.8608 824 68.1056 427.433 521.116
3647 0 64.0491 14.0049 897 67.0758 427.29 516.925
3648 0 65.0282 12.4869 812 68.5985 427.004 516.491
3649 0 70.0954 13.6243 955 66.3602 426.515 516.12
3650 0 71.1316 12.3011 875 68.5406 426.722 514.781
3651 1 34.0314 10.9898 374 66.3797 426.631 534.366
3652 0 35.056 10.4975 368 67.6196 426.486 532.938
3653 0 37.1192 11.5843 430 67.0372 427.028 531.956
3654 0 38.0133 10.47 398 68.0779 427.487 530.992
3655 0 38.0339 11.5423 439 66.2323 427.435 532.294
3656 0 40.0289 11.2169 449 67.1626 427.588 528.463
3657 0 40.1342 11.611 466 67.4957 427.129 526.912
3658 0 44.0413 11.1486 491 66.1059 426.898 528.509
3659 0 44.0244 10.4942 462 66.5216 426.108 527.881
3660 0 45.0764 11.7578 530 65.934 426.392 525.517
3661 0 47.0348 11.3746 535 66.0692 426.469 525.123
3662 0 49.0407 10.7258 526 66.0836 426.025 525.901
3663 0 50.0648 11.6249 582 64.7715 426.83 524.777
3664 0 51.1218 12.4018 634 64.6704 426.986 523.538
3665 0 53.0568 11.8929 631 64.7211 426.99 522.75
3666 0 54.1304 9.88353 535 65.815 427.338 525.183
3667 0 56.0523 11.4001 639 64.9922 426.782 519.756
3668 0 56.075 10.8069 606 66.5792 426.472 520.165
3669 0 59.1228 13.0745 773 62.7413 426.596 519.815
3670 0 62.0917 12.3527 767 63.4498 426.181 517.295
3671 0 62.0154 12.6098 782 63.4233 426.542 515.192
3672 0 67.1364 12.9587 870 61.8276 426.513 516.361
3673 0 69.0763 12.8843 890 62.0461 427.056 517.344
3674 0 69.0875 10.3637 716 65.4693 426.936 516.429
3675 0 70.1391 11.5342 809 64.3857 426.549 510.892
3676 0 74.1297 12.2353 907 63.118 426.351 511.236
3677 0 75.1602 11.4156 858 64.838 426.472 509.089
3678 0 78.1178 9.86972 771 66.5953 427.112 509.66
3679 1 42.0512 11.2482 473 63.0782 427.605 527.56
3680 0 42.0912 11.4988 484 64.2128 426.957 528.399
3681 0 45.1505 10.3432 467 64.9764 427.122 526.3
3682 0 45.1078 10.6634 481 64.4532 427.301 526.258
3683 0 45.0621 9.12074 411 66.2822 427.129 526.197
3684 0 49.1058 11.9334 586 62.128 426.399 523.645
3685 0 49.0524 10.4174 511 64.0176 427.11 523.871
3686 0 50.1839 10.601 532 63.8534 427.633 524.321
3687 0 51.0717 10.0839 515 65.1592 427.049 522.899
3688 0 54.1738 10.171 551 64.1978 427.641 522.826
3689 0 56.1152 12.3496 693 61.6825 427.571 523.788
3690 0 58.1002 11.6179 675 62.8118 426.978 520.75
3691 0 60.0618 11.8711 713 62.4067 427.095 516.595
3692 0 62.0743 12.0984 751 62.0999 426.273 518.091
3693 0 65.1276 12.8363 836 60.9617 426.067 515.943
3694 0 67.1147 11.8156 793 62.1211 425.575 516.272
3695 0 71.3096 13.0978 934 60.2527 426.411 515.91
3696 0 71.1332 11.4574 815 62.3386 426.357 510.838
3697 1 34.0616 11.3324 386 62.2642 426.389 531.756
3698 0 33.0114 8.48193 280 66.3857 426.932 531.125
3699 0 38.0714 10.1914 388 63.1108 426.487 528.912
3700 0 39.1177 12.0406 471 61.5669 425.919 528.902
3701 0 39.0346 10.6572 416 64.2308 425.877 526.803
3702 0 42.1458 12.5517 529 61.4575 426.181 528.932
3703 0 42.0726 11.8367 498 62.6365 426.62 526.731
3704 0 46.1291 14.1343 652 59.2899 426.505 523.58
3705 0 44.1194 10.7209 473 64.6512 426.622 524.524
3706 0 47.0319 13.0762 615 60.9301 426.709 524.38
3707 0 50.1936 13.0495 655 60.5435 427.053 522.339
3708 0 49.0229 11.6884 573 63.4154 427.106 521.899
3709 0 51.0721 12.7467 651 61.2995 426.851 523.372
3710 0 54.079 12.6112 682 62.154 426.537 521.213
3711 0 54.0799 12.648 684 61.0439 427.406 521.02
3712 0 56.091 14.1021 791 59.9507 427.109 518.583
3713 0 58.1211 12.3363 717 62.3905 427.636 517.957
3714 0 57.0825 11.86 677 63.1891 427.742 518.796
3715 0 59.1053 11.1834 661 64.0968 427.902 515.628
3716 0 65.0386 11.916 775 62.24 427.453 515.89
3717 0 65.0685 12.5867 819 61.1636 428.052 514.173
3718 0 67.0959 13.354 896 60.6719 427.503 513.808
3719 0 70.0712 13.943 977 59.4401 427.514 513.822
3720 0 73.0983 13.1877 964 59.7458 427.439 512.929
3721 0 74.0657 12.4754 924 61.263 427.69 510.089
3722 0 74.1534 11.5841 859 62.5623 427.83 510.224
3723 0 80.2121 12.3797 993 60.8409 428.758 508.234
3724 1 41.097 11.996 493 60.2231 427.89 527.426
3725 0 42.0836 11.5484 486 60.6708 427.193 527.827
3726 0 43.0864 12.3473 532 60.7707 427.459 524.955
3727 0 46.1119 12.9685 598 59.7425 427.246 525.239
3728 0 46.1299 11.9445 551 60.6969 426.699 522.515
3729 0 50.0993 12.3555 619 59.7512 427.448 524.141
3730 0 49.1434 12.4941 614 60.2476 427.422 523.806
3731 0 51.0519 11.6156 593 60.8836 427.035 523.015
3732 0 53.0577 12.477 662 59.7508 427.396 520.979
3733 0 54.0898 11.9616 647 60.2488 427.43 519.614
3734 0 57.0217 12.9424 738 58.981 428.298 518.906
3735 0 60.1706 13.495 812 58.1466 427.528 517.509
3736 0 62.2633 13.5072 841 57.4661 427.492 518.73
3737 0 60.0871 12.7315 765 59.3908 427.633 519.348
3738 0 62.1141 13.8616 861 58.1417 428.067 518.605
3739 0 63.1288 14.0506 887 59.6776 428.334 517.565
3740 0 67.0542 13.3027 892 58.8621 427.657 514.48
3741 0 66.2068 12.7781 846 60.5366 427.324 515.387
3742 0 67.1475 13.865 931 60.3115 428.199 517.746
3743 0 68.1042 14.4044 981 59.5189 427.453 517.396
3744 0 69.1634 12.9259 894 61.198 427.857 516.093
3745 0 73.1678 14.6513 1072 58.6884 428.17 516.284
3746 0 73.173 13.7892 1009 60.4182 428.075 517.177
3747 0 73.0686 14.0142 1024 60.7178 427.873 515.296
3748 0 76.247 13.3382 1017 60.6028 428.577 515.456
3749 0 77.1376 13.0027 1003 60.7717 428.399 512.551
3750 0 75.2308 14.4622 1088 60.5726 428.64 515.082
3751 0 77.0721 13.403 1033 62.3582 428.096 515.692
3752 0 76.0782 13.8016 1050 62.579 427.999 514.4
3753 0 78.0828 14.2157 1110 61.4703 427.751 514.768
3754 0 80.0866 14.1971 1137 61.1706 427.361 513.868
3755 0 78.1905 13.2241 1034 63.6161 427.281 512.025
3756 0 83.0856 14.2865 1187 60.9023 426.612 511.581
3757 0 82.148 13.78 1132 62.1661 426.737 509.959
3758 0 82.1656 14.4708 1189 61.1573 427.444 509.231
3759 0 82.1236 13.6014 1117 62.6079 426.987 511.483
3760 0 84.1597 13.6645 1150 62.3791 427.16 511.412
3761 0 84.1473 12.0503 1014 64.7574 426.94 512.767
3762 0 82.0986 12.7164 1044 64.25 426.306 513.017
3763 0 86.2107 13.3162 1148 62.1742 426.195 509.039
3764 0 83.1272 12.8478 1068 63.9691 426.708 511.322
3765 0 87.0611 14.4267 1256 60.3177 426.937 508.16
3766 0 87.1284 15.1271 1318 59.3088 426.748 505.863
3767 0 87.1274 13.5778 1183 61.3145 427.123 508.385
3768 0 86.3259 12.7077 1097 63.2306 426.654 507.16
3769 0 84.1615 11.8582 998 63.8727 425.881 508
3770 0 86.0833 11.605 999 63.6547 425.944 510.051
3771 0 83.1482 11.0045 915 64.8328 425.998 505.454
3772 0 86.1459 13.4307 1157 62.0977 426.688 507.489
3773 0 85.1226 12.6171 1074 64.621 426.763 508.551
3774 0 84.1504 14.1413 1190 63.4437 427.324 509.76
3775 0 85.0676 13.6245 1159 63.5168 427.207 507.066
3776 0 88.0784 13.7945 1215 62.0831 426.793 507.681
3777 0 87.19 13.2469 1155 62.9463 426.964 508.35
3778 0 88.1411 12.4006 1093 63.2379 426.501 508.152
3779 0 89.111 13.5 1203 61.6459 426.656 505.102
3780 0 88.1832 13.7781 1215 61.5679 426.527 504.065
3781 0 87.0412 15.2457 1327 59.8048 426.688 507.241
3782 0 87.0533 12.3143 1072 63.4123 427.104 504.6
3783 0 89.1471 13.3263 1188 61.0513 426.792 503.538
3784 0 91.1816 12.2174 1114 62.0198 426.761 503.937
3785 0 92.119 13.4717 1241 60.8856 426.829 505.817
3786 0 93.0838 15.4055 1434 58.0307 426.638 504.145
3787 0 90.1407 11.2158 1011 62.996 426.795 503.9
3788 0 90.2283 15.8265 1428 57.7766 427.103 504.489
3789 0 90.077 13.0888 1179 61.0187 426.762 503.332
3790 1 168.365 13.8212 2327 48.3249 427.153 481.887
3791 0 161.933 12.4558 2017 50.4388 426.461 489.505
3792 0 156.102 12.1907 1903 51.1981 427.672 486.278
3793 0 157.716 16.4537 2595 45.5187 427.561 473.832
3794 0 153.586 12.3189 1892 52.3377 427.586 494.953
3795 0 153.545 11.9639 1837 51.9026 427.742 494.157
3796 0 159.481 16.6478 2655 44.7582 426.946 468.563
3797 0 160.713 11.1255 1788 52.2964 427.957 489.296
3798 0 150.049 17.481 2623 44.4682 427.129 473.783
