time division length width area intensity CMx CMy
0 0 48.0686 13.1479 632 72.106 33.7516 494.209
1 0 50.0144 12.6164 631 75.3407 32.9984 493.493
2 0 50.0323 12.1921 610 79.2016 33.9148 493.561
3 0 52.0433 12.2014 635 80.6787 33.011 493.561
4 0 53.0672 12.3617 656 82.7241 34.0351 492.178
5 0 54.0836 12.1663 658 85.1672 33.4833 493.264
6 0 56.0987 12.175 683 87.0586 33.9385 491.119
7 0 59.1008 12.4702 737 89.7069 33.5373 490.522
8 0 60.0267 12.711 763 90.9004 33.8178 489.412
9 0 60.0504 12.3563 742 95.0728 34.0809 488.902
10 0 64.0452 12.6942 813 95.6765 33.6002 489.015
11 0 64.0342 12.4152 795 98.0591 33.0692 488.447
12 0 68.117 13.5208 921 97.9153 33.8111 485.598
13 0 70.0519 13.5756 951 97.6604 32.7823 483.436
14 0 71.1024 12.6297 898 102.501 32.5457 483.974
15 0 74.1778 12.7666 947 104.271 32.4773 485.563
16 0 77.1374 13.0287 1005 104.18 32.9025 483.669
17 0 78.1364 12.9261 1010 106.496 32.1208 480.958
18 0 81.1752 13.8466 1124 103.232 32.2607 480.599
19 0 84.1254 13.4442 1131 105.577 32.0239 479.44
20 0 87.2031 13.3252 1162 104.832 30.5577 479.305
21 0 91.1414 13.1334 1197 106.33 30.8229 476.346
22 0 93.1587 13.5468 1262 105.513 30.0753 474.255
23 0 97.1292 12.993 1262 105.267 31.225 472.961
24 0 99.1922 13.4386 1333 105.28 31.0165 472.77
25 0 105.141 13.81 1452 104.147 30.9924 470.103
26 0 108.164 13.7014 1482 104.305 31.1835 466.015
27 0 112.112 13.8433 1552 104.343 31.1508 464.396
28 0 116.191 14.2008 1650 103.015 31.1752 463.118
29 0 119.158 14.0569 1675 104.041 30.4137 459.71
30 0 125.14 14.0563 1759 103.048 30.3059 458.105
31 0 129.197 14.861 1920 102.679 30.8219 454.816
32 0 135.226 15.2781 2066 104.962 30.1433 453.711
33 0 139.254 15.4753 2155 103.976 29.7977 452.012
34 0 145.376 14.3421 2085 106.316 29.7899 447.424
35 0 149.27 14.6446 2186 104.75 30.1189 445.5
36 1 77.1838 11.8548 915 100.209 31.5989 483.619
37 0 80.1554 13.0122 1043 97.6203 30.8993 480.35
38 0 85.152 13.6462 1162 111.283 29.6248 479.5
39 0 86.2106 13.2814 1145 110.51 29.1834 477.728
40 0 90.1547 13.1774 1188 112.237 29.5455 476.04
41 0 92.102 12.9205 1190 113.185 31.0168 475.245
42 0 96.0513 12.0144 1154 115.379 31.1049 473.807
43 0 98.0702 12.695 1245 114.435 31.1229 471.992
44 0 102.066 12.8642 1313 113.165 30.9139 468.922
45 0 106.059 13.0022 1379 111.24 30.335 467.226
46 0 109.07 13.6609 1490 109.117 30.4356 465.288
47 0 110.1 13.6603 1504 100.835 29.9574 464.459
48 0 114.146 13.3338 1522 101.654 30.27 461.74
49 0 117.181 12.6386 1481 102.103 30.1621 463.086
50 0 123.168 12.6656 1560 103.164 30.0128 459.202
51 0 125.219 13.2808 1663 103.416 30.0613 458.206
52 0 131.172 13.631 1788 102.977 30.7869 456.22
53 0 135.14 13.66 1846 106.302 29.7698 454.392
54 0 141.291 14.1835 2004 104.165 30.3054 450.638
55 0 146.305 13.5812 1987 105.335 29.8561 448.362
56 0 151.217 13.9997 2117 103.268 30.5347 445.931
57 0 151.221 14.0456 2124 156.805 31.5447 445.905
58 0 149.382 10.9049 1629 106.158 30.7545 449.821
59 1 75.1694 12.7312 957 98.0084 32.4545 483.509
60 0 77.1552 11.3019 872 96.6651 29.9908 478.787
61 0 81.1948 12.4762 1013 98.4956 31.3307 479.394
62 0 81.3476 12.5142 1018 97.0196 31.3202 480.493
63 0 84.2045 12.2677 1033 99.0039 31.2527 477.89
64 0 87.2009 12.7522 1112 97.696 31.0423 476.032
65 0 88.3157 12.3761 1093 99.7914 31.3852 476.502
66 0 90.2791 12.4835 1127 100.265 31.2378 473.619
67 0 94.1983 12.272 1156 100.137 31.3607 471.007
68 0 99.2655 12.7134 1262 98.0333 31.3922 469.258
69 0 100.224 12.8712 1290 98.8806 31.5 467.967
70 0 105.22 12.146 1278 99.8239 31.5383 468.821
71 0 110.147 12.792 1409 100.07 31.4166 464.353
72 1 65.0871 10.6626 694 105.285 31.9769 485.732
73 0 68.3569 11.5131 787 105.569 30.6048 487.047
74 0 73.3346 12.9952 953 101.486 30.0976 485.783
75 0 74.2963 12.7597 948 105.558 30.2511 484.063
76 0 78.2057 11.5848 906 106.162 30.2693 482.416
77 0 81.2416 12.272 997 104.191 29.9669 481.03
78 0 84.2699 12.994 1095 102.215 30.1826 480.658
79 0 85.3296 13.0787 1116 102.435 30.2724 480.357
80 0 88.2115 13.3089 1174 100.573 30.7828 478.277
81 0 91.1266 12.521 1141 98.4645 31.028 476.894
82 0 95.1275 12.026 1144 99.1066 31.91 474.325
83 0 97.2325 12.2079 1187 97.3277 31.556 473.268
84 0 98.1958 11.9455 1173 98.2268 31.6155 473.071
85 0 103.144 11.896 1227 97.7319 30.9894 470.199
86 0 106.084 12.3016 1305 94.9149 31.4054 470.312
87 0 111.207 12.0676 1342 94.0201 31.2444 468.943
88 0 113.198 12.3501 1398 92.8712 31.4979 467.314
89 0 115.194 11.4329 1317 95.9438 30.2217 461.693
90 0 119.264 12.1663 1451 93.5438 30.8587 459.879
91 0 124.309 12.3965 1541 91.5782 30.6347 457.66
92 0 127.316 12.0174 1530 93.9699 30.6118 454.587
93 0 132.489 12.3859 1641 92.933 30.6094 452.865
94 0 135.382 12.5497 1699 94.6027 30.4862 448.511
95 0 140.363 12.2468 1719 95.5352 30.5998 449.184
96 0 141.325 11.8238 1671 99.0802 30.3662 446.193
97 0 148.445 12.833 1905 95.5092 29.9276 444.224
98 0 154.255 13.0627 2015 95.7295 28.9692 441.265
99 0 158.338 12.7386 2017 96.7273 29.7129 437.109
100 0 163.367 12.726 2079 97.9788 29.6388 435.982
101 0 167.451 13.2636 2221 97.8411 30.2337 431.362
102 0 172.243 13.0049 2240 99.3906 29.5067 429.391
103 0 178.36 12.9401 2308 100.543 29.7604 425.745
104 0 183.273 13.2098 2421 99.8876 29.7637 424.609
105 0 187.371 13.2999 2492 100.624 30.0161 419.03
106 0 193.413 13.5565 2622 100.155 30.0629 417.614
107 0 200.368 13.8246 2770 100.211 29.8368 416.595
108 0 205.321 14.3288 2942 99.14 29.2128 413.817
109 0 210.366 13.391 2817 102.136 29.4633 409.121
110 0 214.348 13.3988 2872 104.032 29.0063 406.262
111 0 222.356 13.4334 2987 104.315 29.5926 402.495
112 0 230.389 13.7419 3166 103.616 29.8951 401.473
113 0 238.486 13.8331 3299 102.709 29.248 395.213
114 0 246.373 13.8165 3404 103.077 29.448 392.078
115 0 252.357 14.008 3535 104.454 29.0048 388.572
116 1 48.1281 9.41238 453 88.8609 29.9272 491.497
117 0 47.0264 8.65472 407 83.6364 31.5111 491.536
118 0 52.0478 10.8554 565 89.0991 32.0283 495.352
119 0 51.1036 10.1363 518 83.0019 31.6622 498.473
120 0 51.0927 9.90356 506 83.7866 32.0889 498.164
121 0 53.1439 10.0294 533 85.5666 32.0713 496.368
122 0 53.1548 10.2343 544 86.7555 32.0735 495.708
123 0 55.1614 10.152 560 85.0804 31.3571 494.855
124 0 55.1684 9.75196 538 90.145 32.7993 493.833
125 0 59.1269 10.3675 613 88.1403 33.2496 492.465
126 0 62.1826 10.7104 666 87.1276 32.5435 492.464
127 0 62.1068 10.6913 664 87.8358 33.113 491.396
128 0 64.2217 10.4638 672 87.3229 32.7366 491.323
129 0 66.2455 11.2008 742 87.0499 32.8558 490.098
130 0 68.2645 11.2064 765 86.1503 32.3268 488.059
131 0 70.1493 11.7749 826 84.2603 31.862 487.536
132 0 72.1673 11.8059 852 84.7969 31.2477 487.445
133 0 75.2139 12.2318 920 83.6739 31.5913 485.146
134 0 77.2217 12.3152 951 83.693 32.1598 484.993
135 0 79.1999 12.4116 983 83.3744 31.5697 484.234
136 0 82.234 12.5495 1032 83.751 31.7936 480.927
137 0 84.1981 12.9932 1094 83.4269 31.5064 481.057
138 0 88.2132 12.4131 1095 93.2785 29.9717 477.62
139 0 93.1703 12.4181 1157 92.0493 29.3976 476.789
140 0 94.183 12.2634 1155 92.6511 29.8528 475.336
141 0 98.188 12.7205 1249 91.1313 29.2546 476.705
142 0 101.264 14.803 1499 85.451 29.5037 470.893
143 1 51.0395 10.9131 557 91.167 32.079 499.12
144 0 51.0448 10.5594 539 92.4712 31.8052 497.065
145 0 53.0624 11.2698 598 89.3712 31.786 498.445
146 0 56.0444 11.9548 670 82.5448 30.8791 498.157
147 0 58.0297 11.7354 681 84.3142 30.9383 497.414
148 0 60.1185 12.5918 757 87.1044 30.3791 496.539
149 0 61.1565 11.7894 721 89.8169 30.8918 495.463
150 0 64.1072 12.0579 773 89.2988 30.6766 491.832
151 0 63.1152 12.7069 802 89.4988 29.8853 491.57
152 0 67.2721 12.9623 872 87.6055 30.5436 489.511
153 0 69.0675 13.3058 919 85.667 30.8096 489.579
154 0 70.112 12.9222 906 90.7715 30.5486 488.717
155 0 72.2145 13.1137 947 90.3242 30.1352 487.943
156 0 75.1676 13.4899 1014 90.354 30.5266 486.631
157 0 76.1736 13.2329 1008 92.6151 30.4871 485.174
158 0 79.2584 13.4371 1065 91.693 30.5643 486.135
159 0 81.2107 13.0278 1058 94.6493 30.2958 483.15
160 0 84.3556 13.3127 1123 94.6821 30.1621 483.628
161 0 84.251 13.1512 1108 96.8655 30.7581 480.933
162 0 88.3337 12.5999 1113 97.4429 30.1303 479.544
163 1 44.0902 11.5218 508 94.5748 30.4232 501.476
164 0 46.1042 11.3005 521 94.9789 30.2303 500.405
165 0 46.1402 11.9635 552 93.1467 30.6033 500.667
166 0 47.0355 12.076 568 92.6479 30.9613 499.59
167 0 49.0297 12.2783 602 81.0266 30.2674 499.264
168 0 50.1154 12.1719 610 82.5492 30.0574 497.743
169 0 47.0286 10.887 512 87.375 29.2207 498.867
170 0 50.0386 10.7717 539 85.8701 28.7755 496.809
171 0 52.0449 10.856 565 84.0425 29.2743 496.589
172 0 51.0561 9.93026 507 86.1893 29.5878 495.87
173 0 54.0363 11.3072 611 83.7283 29.1457 494.257
174 0 56.0652 11.3974 639 82.4366 29.4585 494.167
175 0 58.0494 11.2835 655 81.9756 28.9405 494.704
176 0 60.0237 11.3455 681 82.5286 28.4831 492.495
177 0 62.0164 11.4002 707 82.1174 29.1061 492.074
178 0 62.0342 11.1229 690 85.0725 28.7101 489.79
179 0 65.0515 12.0981 787 83.4549 29.1271 489.217
180 0 67.0608 11.3032 758 84.558 29.1069 489.281
181 0 71.1093 11.4753 816 84.4326 29.8113 488.362
182 0 73.1219 11.3509 830 88.0217 29.8566 486.514
183 0 75.1908 11.4243 859 87.7055 29.3364 485.376
184 0 79.1315 11.3103 895 88.1274 29.1307 483.878
185 0 81.1842 10.8519 881 89.277 29.9285 482.505
186 0 85.0784 11.8361 1007 86.8034 29.6147 480.448
187 1 43.0585 10.7993 465 86.1376 29.6301 502.084
188 0 46.0149 11.4311 526 83.789 30.692 501.413
189 0 48.0267 11.2021 538 85.0428 30.816 499.401
190 0 50.0249 11.7741 589 83.3616 30.034 496.239
191 0 51.0838 11.6867 597 82.9732 30.3333 496.042
192 0 53.114 12.2943 653 81.0521 29.7825 496.315
193 0 53.0543 11.8558 629 81.8458 29.5517 495.331
194 0 52.0534 11.7764 613 85.5024 28.1387 495.248
195 0 55.0342 12.1924 671 83.2504 28.8063 495.055
196 0 57.01 12.454 710 82.407 28.8831 492.745
197 0 57.0997 12.2768 701 83.4665 29.6662 491.522
198 0 62.117 12.3638 768 80.7109 29.9701 491.443
199 0 63.0277 12.2803 774 83.093 28.7171 491.067
200 0 65.0621 12.6495 823 82.6136 29.0036 488.304
201 0 67.1264 12.9904 872 81.7076 28.4289 488.42
202 0 68.1751 12.8053 873 106.404 29.0172 488.351
203 0 71.1225 13.0901 931 104.425 29.0945 486.843
204 0 73.1568 12.6851 928 107.599 29.0841 484.945
205 0 76.1072 12.9685 987 104.489 30.0395 482.959
206 0 79.1824 13.2605 1050 105.073 29.6219 483.266
207 0 82.2143 13.5986 1118 103.89 29.5054 481.356
208 0 83.0995 13.177 1095 104.624 29.2174 481.247
209 0 86.1332 12.7477 1098 106.818 29.2222 479.237
210 0 90.2157 13.368 1206 106.376 29.0755 477.551
211 0 90.3031 13.2886 1200 106.458 29.0742 477.43
212 0 93.1977 12.9617 1208 108.151 29.87 476.393
213 0 97.2189 13.0736 1271 108.888 29.3446 474.34
214 1 54.0363 11.8069 638 110.85 30.2649 496.177
215 0 55.0306 12.1024 666 111.245 29.5631 494.715
216 0 56.037 12.7059 712 109.747 29.4368 494.83
217 0 57.0869 12.6824 724 105.133 27.9724 493.692
218 0 58.0281 12.3906 719 106.765 26.9847 493.892
219 0 59.0273 12.0453 711 108.456 27.6343 492.934
220 0 63.0496 12.4029 782 105.797 27.1803 491.058
221 0 65.0614 13.1568 856 105.027 26.9825 489.46
222 0 66.0155 12.8909 851 106.91 27.2773 489.297
223 0 67.0412 12.7384 854 108.032 27.2564 488.862
224 0 72.0259 12.8565 926 107.774 27.7073 486.488
225 0 72.0577 12.1708 877 109.724 27.7708 484
226 0 75.0984 13.0096 977 108.737 28.7748 485.217
227 0 78.1421 12.9764 1014 113.428 29.2002 484.354
228 0 80.0927 13.347 1069 113.593 29.1787 483.063
229 0 84.1886 12.9828 1093 114.71 28.9744 482.567
230 0 87.1697 13.6056 1186 113.802 28.9705 481.547
231 0 88.2152 13.195 1164 115.546 29.1022 478.796
232 1 45.0067 11.1983 504 117.895 29.6627 500.151
233 0 46.0577 11.8113 544 115.436 29.796 499.338
234 0 47.0839 12.2547 577 116.513 29.026 497.459
235 0 49.0313 12.9917 637 114.188 29.7567 496.51
236 0 47.0164 11.8895 559 107.233 27.5385 499.055
237 0 48.0575 12.0897 581 107.012 27.3873 498.255
238 0 49.18 12.0781 594 111.513 29.9343 498.717
239 0 50.1389 12.4654 625 110.256 29.3248 497.568
240 0 51.2426 12.0017 615 111.06 29.4715 498.135
241 0 53.1659 12.1507 646 110.362 29.1068 497.115
242 0 56.186 12.4586 700 108.454 29.56 495.97
243 0 56.1287 12.7386 715 104.973 29.0713 496.21
244 0 57.0736 12.9482 739 105.307 29.2463 495.839
245 0 61.096 12.9796 793 104.009 28.5385 493.376
246 0 59.1354 11.9556 707 107.545 29.1117 493.772
247 0 62.1403 12.1821 757 105.342 28.6473 492.229
248 0 65.153 12.7086 828 104.359 28.4432 489.814
249 0 66.1478 13.0012 860 104.892 28.3 488.987
250 0 67.1344 12.8548 863 106.304 28.1344 489.574
251 0 70.1072 12.9373 907 105.875 28.441 488.563
252 0 70.1074 13.0371 914 107.775 28.5766 486.161
253 0 75.1463 13.2142 993 104.926 27.578 484.819
254 0 77.0745 13.3118 1026 103.437 27.308 483.696
255 0 77.0336 12.6828 977 105.582 27.8424 483.164
256 0 78.0551 12.8371 1002 107.251 27.9002 482.023
257 0 81.0705 12.7543 1034 107.2 28.6132 481.704
258 0 83.053 12.7389 1058 107.358 28.5841 478.385
259 0 87.0672 13.5413 1179 105.083 28.503 477.617
260 0 90.0986 12.9081 1163 106.332 28.1754 475.301
261 0 92.0801 13.3362 1228 105.362 27.9275 474.558
262 0 95.1028 13.4696 1281 104.95 28.2397 471.371
263 0 96.0711 13.3131 1279 105.661 27.1744 472.037
264 0 100.069 13.9004 1391 105.204 27.243 469.136
265 0 101.131 12.8644 1301 108.085 28.1722 468.425
266 0 104.113 13.3893 1394 106.709 27.8637 467.52
267 0 109.087 13.8147 1507 104.265 28.1659 465.95
268 0 112.1 14.0142 1571 108.379 27.3622 460.985
269 0 117.102 13.6719 1601 107.991 27.6109 461.156
270 0 119.181 13.2236 1576 110.126 27.6104 457.81
271 0 124.207 13.8317 1718 107.927 27.5501 455.182
272 0 126.287 13.3505 1686 109.619 27.3049 453.115
273 0 131.368 13.5498 1780 108.976 26.7421 449.503
274 1 66.2953 11.1169 737 102.749 28.673 485.716
275 0 66.1844 11.5133 762 100.315 28.6273 487.55
276 0 69.1212 12.2104 844 96.5498 27.8709 484.371
277 0 72.2376 12.1405 877 98.0536 27.9441 483.181
278 0 72.0555 11.8659 855 98.6596 27.7111 482.654
279 0 75.0449 12.5791 944 98.3814 27.3506 482.37
280 0 79.0705 12.6596 1001 98.1329 27.3766 481.872
281 0 82.1209 13.4314 1103 96.5739 27.5784 479.7
282 0 82.1081 12.922 1061 98.9962 27.4025 477.605
283 0 87.1667 13.2275 1153 105.563 27.3729 476.604
284 0 89.1172 12.8819 1148 104.672 27.2108 475.817
285 0 92.1168 12.9944 1197 102.175 27.1579 474.127
286 0 93.1145 12.447 1159 104.001 27.0302 472.648
287 0 98.1882 12.4251 1220 101.983 27.3566 470.836
288 0 99.1007 12.1997 1209 102.973 27.1538 469.687
289 0 103.191 11.5611 1193 102.925 27.1928 468.84
290 0 105.162 12.0956 1272 102.608 26.8483 466.056
291 0 107.17 11.4585 1228 104.142 27.1857 462.276
292 0 113.201 12.1731 1378 101.692 26.9434 461.202
293 0 117.341 12.2037 1432 101.618 27.2703 459.658
294 0 120.501 12.116 1460 101.167 27.0459 456.564
295 0 124.463 11.9152 1483 101.55 27.2232 453.179
296 0 127.501 12.0705 1539 103.457 26.5101 452.144
297 0 132.513 11.8252 1567 102.198 26.4059 449.391
298 0 134.517 11.6268 1564 102.496 26.8043 448.804
299 0 140.52 11.8346 1663 104.287 27.2291 447.347
300 0 145.524 12.4103 1806 103.129 26.6993 444.342
301 0 148.541 11.9698 1778 104.4 26.6102 440.715
302 0 153.519 11.5556 1774 104.67 26.1364 441.901
303 0 159.521 12.5188 1997 102.923 26.3325 439.09
304 0 163.469 12.7914 2091 102.128 26.3094 436.205
305 0 168.611 12.4013 2091 103.956 25.5294 432.496
306 0 171.615 12.4348 2134 103.949 26.0904 431.25
307 0 177.591 12.388 2200 104.281 25.8164 429.711
308 0 184.568 13.4639 2485 101.355 25.7449 428.536
309 0 190.4 12.6471 2408 103.103 25.6566 424.776
310 0 195.387 13.051 2550 102.037 25.8871 422.038
311 0 202.345 12.8197 2594 101.972 26.0983 421.217
312 0 207.395 12.3291 2557 105.244 25.8193 418.752
313 0 214.26 12.9002 2764 104.933 25.348 414.569
314 1 161.119 12.2829 1979 102.62 25.6963 443.801
315 0 165.166 12.7932 2113 104.807 25.788 439.383
316 0 172.327 12.6388 2178 109.151 25.7268 435.035
317 0 179.317 12.7372 2284 105.739 26.7119 430.765
318 0 183.248 12.7478 2336 107.394 25.6331 427.776
319 0 192.405 13.9237 2679 106.479 26.0597 426.183
320 0 197.512 13.1688 2601 112.317 26.2261 421.224
321 0 206.555 14.0059 2893 112.294 26.2247 418.386
322 0 210.527 13.9792 2943 113.572 26.0955 412.795
323 0 218.58 13.6335 2980 114.837 25.2852 412.109
324 0 226.493 13.6826 3099 115.035 25.3524 409.693
325 1 60.0297 10.4282 626 101.222 27.5719 495.97
326 0 61.112 11.3398 693 101.877 27.1255 491.993
327 0 63.1608 10.8295 684 103.994 26.4912 490.345
328 0 66.0342 11.07 731 102.802 27.8687 492.709
329 0 62.0247 9.02866 560 98.2179 25.9089 497.53
330 0 65.0772 9.95741 648 96.0972 25.2407 494.889
331 0 68.0387 10.7439 731 94.4118 24.6689 489.967
332 0 70.0725 10.4606 733 95.693 25.6467 491.844
333 0 73.0814 10.9057 797 95.8595 25.33 490.051
334 0 76.0949 10.5395 802 95.9327 24.4264 488.3
335 0 76.0909 10.7503 818 97.1601 24.8203 487.199
336 0 79.105 11.0992 878 95.205 25.0831 487.535
337 0 81.1211 11.0822 899 96.1735 25.1368 484.432
338 0 83.1422 11.2217 933 94.4802 25.2101 482.498
339 0 85.1068 10.81 920 96.0804 25.1804 482.48
340 0 89.1608 11.0026 981 94.265 24.7299 480.199
341 0 92.1505 10.7107 987 96.1388 23.9392 479.53
342 0 95.236 11.7813 1122 96.0178 23.8717 477.069
343 0 99.1419 12.5073 1240 100.841 23.8718 473.135
344 0 103.251 12.4744 1288 104.478 23.4852 473.091
345 0 105.298 11.4438 1205 104.279 23.2373 470.734
346 1 52.0338 9.6668 503 94.4115 22.3101 497.06
347 0 53.0392 9.84179 522 94.9579 22.5211 494.862
348 0 54.0209 9.69995 524 94.8569 22.3034 493.996
349 0 55.1043 10.2351 564 91.5426 24.078 495.876
350 0 57.4166 9.91002 569 91.4077 26.1722 494.448
351 0 59.275 10.7465 637 87.0973 26.0942 493.954
352 0 59.069 10.784 637 91.8289 26.4301 493.656
353 0 61.1651 10.9376 669 84.725 26.1001 492.105
354 0 63.1437 11.3867 719 99.6843 26.6439 490.458
355 0 66.1226 11.2518 744 98.6949 27.0806 489.909
356 0 68.159 11.5025 784 100.129 26.477 489.268
357 0 72.1518 11.06 798 102.677 25.8208 489.793
358 0 73.0385 11.3502 829 101.68 25.1363 489.337
359 0 75.1042 11.3975 856 103.761 25.2991 486.655
360 0 77.1623 11.2101 865 106.79 25.1121 485.898
361 0 78.1139 11.368 888 106.807 24.232 483.905
362 0 81.1056 10.9733 890 106.746 24.8112 483.073
363 0 84.0541 11.4569 963 104.565 24.3894 483.396
364 0 88.0468 10.4944 924 106.29 22.7305 480.644
365 0 88.0902 11.4315 1007 104.488 23.2264 480.946
366 0 88.0507 11.4139 1005 106.923 23.7214 478.035
367 0 93.0678 12.002 1117 103.509 23.3662 479.667
368 0 94.2138 12.1214 1142 103.581 23.451 478.398
369 0 95.1463 11.7503 1118 106.003 23.3148 479.066
370 0 95.1192 11.7852 1121 107.81 23.9875 476.052
371 0 98.1872 12.1503 1193 105.703 23.5884 473.448
372 0 102.236 11.405 1166 106.639 23.3456 473.019
373 0 103.206 11.4722 1184 106.726 24.3387 473.926
374 0 105.144 11.7458 1235 106.883 24.0316 472.002
375 0 106.175 11.8013 1253 107.018 24.8476 470.647
376 0 108.145 10.8928 1178 109.12 24.2453 468.135
377 0 113.143 11.6843 1322 106.167 24.5174 468.619
378 0 113.102 11.7151 1325 107.008 24.7955 467.715
379 0 117.181 11.8108 1384 105.66 24.5751 466.09
380 0 119.15 12.5556 1496 103.932 24.6745 463.902
381 0 122.171 11.664 1425 105.97 24.2723 464.349
382 0 126.231 11.7642 1485 106.508 24.5407 462.216
383 0 127.204 11.9886 1525 106.685 24.7443 458.997
384 0 129.131 11.8174 1526 106.195 24.9817 458.493
385 0 132.165 11.5916 1532 108.104 25.0809 456.842
386 0 135.168 11.6447 1574 108.785 26.3526 453.69
387 0 140.125 12.0107 1683 105.764 25.5229 451.402
388 0 143.134 11.7163 1677 105.679 26.2719 451.11
389 0 146.166 11.3775 1663 105.332 24.0679 448.156
390 0 148.212 11.2339 1665 104.655 24.5351 446.258
391 0 151.199 11.6271 1758 103.286 24.409 444.046
392 0 156.225 11.2338 1755 103.345 24.6815 442.712
393 0 160.238 11.7013 1875 102.624 24.5376 439.623
394 0 164.19 11.7973 1937 100.98 24.7801 438.237
395 0 167.208 11.1478 1864 100.99 25.4464 437.734
396 0 168.261 10.4421 1757 103.427 25.975 434.468
397 0 174.305 10.5619 1841 102.118 24.3335 431.117
398 0 178.258 10.3951 1853 99.7469 25.245 434.065
399 0 184.424 11.2458 2074 97.9725 25.2363 427.734
400 0 187.435 10.8731 2038 96.2326 25.2061 426.263
401 0 193.448 11.0469 2137 96.7422 24.7501 422.698
402 0 196.429 11.6378 2286 96.3876 24.7953 421.099
403 0 202.551 12.0365 2438 97.3667 24.4844 417.613
404 0 207.492 11.9474 2479 99.6567 24.9314 415.815
405 0 210.497 11.7484 2473 99.2107 24.9406 417.488
406 0 217.618 12.2279 2661 98.0308 24.6802 412.936
407 0 221.508 11.9589 2649 97.151 25.0766 410.129
408 0 229.472 12.0842 2773 91.2283 25.9542 406.885
409 0 234.417 11.2705 2642 92.9046 25.5257 405.069
410 0 241.463 10.8919 2630 90.4513 25.0928 403.146
411 0 247.654 10.9386 2709 90.9295 25.1417 396.601
412 0 252.574 10.1752 2570 93.1576 24.507 393.002
413 0 263.304 11.1354 2932 92.105 25.1446 392.229
414 0 269.485 10.9208 2943 94.5324 24.4893 387.681
415 0 277.774 11.3978 3166 95.9953 24.7871 384.321
416 0 273.474 11.2735 3083 93.05 24.9095 367.952
417 1 210.436 11.6187 2445 90.5726 24.8564 398.836
418 0 220.318 12.6726 2792 89.293 24.342 400.899
419 0 225.369 12.7169 2866 90.3583 23.388 393.775
420 0 232.414 12.6154 2932 93.3107 24.2497 392.386
421 0 239.461 12.1147 2901 95.4805 23.4381 383.86
422 0 245.462 12.8533 3155 94.8307 23.9753 382.112
423 0 254.442 13.4098 3412 95.0246 25.1193 379.434
424 0 263.448 13.7294 3617 95.1443 24.1996 376.594
425 0 270.562 13.265 3589 96.5121 23.7278 368.653
426 0 278.527 12.9108 3596 97.8484 23.5253 370.118
427 0 289.542 13.3245 3858 96.6239 24.1221 363.222
428 0 298.593 12.9474 3866 98.7356 24.4449 362.789
429 0 309.576 14.0353 4345 95.072 24.1183 355.87
432 0 252.621 15.9092 4019 95.2426 22.3613 244.009
433 0 259.943 15.3264 3984 91.3911 22.44 247.41
434 0 245.334 15.2241 3735 92.4008 21.8273 241.766
435 0 253.382 15.8299 4011 88.7537 22.7881 246.199
436 0 256.543 15.5725 3995 90.3532 22.2538 246.377
437 0 261.694 15.6519 4096 91.6504 22.04 247.488
438 0 268.511 15.4072 4137 92.4883 21.1351 251.202
439 0 273.639 15.345 4199 92.7399 21.0793 253.709
441 0 277.762 15.3477 4263 95.6875 22.2304 253.236
442 0 284.9 15.6476 4458 95.2777 22.7122 257.289
443 0 289.799 14.931 4327 97.2711 22.4992 258.384
444 0 331.292 13.6617 4526 99.3095 23.1399 269.468
445 0 365.542 13.2926 4859 96.611 22.6291 276.723
446 0 394.552 12.5129 4937 98.4371 22.9654 282.666
447 0 103.212 12.8667 1328 72.2801 27.57 472.843
448 0 80.2436 15.4031 1236 77.7443 27.6117 476.972
449 0 106.349 11.7726 1252 79.266 27.5559 474.622
450 0 100.184 13.9144 1394 76.8494 27.6829 474.081
451 0 103.308 13.9293 1439 78.2919 27.3308 471.32
452 0 99.2257 14.9659 1485 77.1461 27.8148 470.184
453 0 98.2353 15.4731 1520 77.3947 27.8763 470.276
454 0 93.195 14.3999 1342 83.9016 27.1848 469.389
455 0 89.2323 12.1032 1080 96.4361 27.1009 472.693
456 0 90.0936 10.5224 948 92.9019 24.1814 479.921
457 1 51.0169 9.36945 478 91.8975 24.2218 497.351
458 0 51.0115 9.58607 489 92.3538 23.7301 496.213
459 0 54.0109 11.2385 607 88.7957 23.8287 495.852
460 0 55.0396 10.6832 588 92.602 27.7721 495.476
461 0 58.0251 11.1848 649 90.9168 27.7766 494.766
462 0 58.0285 11.4082 662 92.1012 27.997 493.82
463 0 61.0557 10.8917 665 93.0887 28.3353 493.606
464 0 63.0548 11.8468 747 90.7831 28.1539 493.019
465 0 62.0994 11.4172 709 94.5388 27.1763 491.494
466 0 66.0956 12.0734 798 93.6667 27.7281 490.838
467 0 68.0362 12.2141 831 93.5295 27.6883 489.1
468 0 69.0458 11.6589 805 94.5242 27.7019 488.401
469 0 70.1012 11.7544 824 94.9733 27.4478 487.657
470 0 70.0309 12.1518 851 96.0153 27.9953 488.263
471 0 71.0421 11.824 840 96.6095 27.8821 489.349
472 0 75.0494 11.4724 861 98.6063 27.5041 486.563
473 0 76.078 12.0008 913 97.7908 26.5663 483.61
474 0 77.0844 11.9479 921 98.6895 26.5494 482.121
475 0 79.0446 12.2589 969 96.8865 26.2951 481.111
476 0 83.1599 12.2295 1017 96.3766 26.7227 481.068
477 0 83.0827 11.9279 991 98.2079 26.5691 481.539
478 0 85.107 11.7734 1002 99.0739 26.481 479.928
479 0 87.095 11.6654 1016 99.5089 27.0551 479.933
480 0 90.0739 12.7895 1152 96.9444 26.2405 479.106
481 0 92.1118 12.3003 1133 99.2277 25.8464 476.95
482 0 95.0682 12.7382 1211 98.2122 25.5318 475.144
483 0 98.1368 13.094 1285 98.5362 25.7556 471.889
484 0 101.11 12.7584 1290 99.7364 24.9581 472.107
485 0 102.044 12.965 1323 100.336 24.6251 469.69
486 0 107.127 12.9379 1386 99.6609 24.5743 469.359
487 1 59.0689 11.4104 674 95.5 23.5549 494.984
488 0 60.1127 11.8111 710 92.1211 23.7085 493.642
489 0 59.1015 11.5564 683 95.1376 23.8477 492.912
490 0 60.0565 11.1395 669 86.3154 26.4723 494.1
491 0 62.089 11.0648 687 88.8894 26.0771 493.591
492 0 62.1681 11.3081 703 89.9331 26.6643 492.905
493 0 66.1673 11.9999 794 88.1184 26.9786 491.991
494 0 66.046 12.2036 806 87.706 27.0025 492.284
495 0 68.0706 12.0316 819 90.0598 26.2479 489.348
496 0 72.1035 12.4127 895 87.7508 25.8849 488.171
497 0 71.0824 11.564 822 90.9343 25.6363 487.648
498 0 75.1374 11.8849 893 89.0761 26.4838 485.728
499 0 75.1305 11.7529 883 91.1778 27.0793 486.121
500 0 77.0913 11.9209 919 90.0044 26.5811 486.023
501 0 81.1355 12.1402 985 90.3005 25.9198 483.151
502 0 84.1595 11.9297 1004 90.2878 25.8815 483.99
503 0 84.2267 11.9915 1010 92.0752 25.6317 483.782
504 0 87.1811 11.8145 1030 91.0854 25.8942 481.587
505 0 88.3078 11.6185 1026 91.3665 25.2885 478.891
506 0 92.1547 11.6109 1070 91.7252 25.5439 477.491
507 0 94.212 11.7926 1111 90.4797 25.09 477.749
508 1 52.0249 10.1682 529 91.1456 26.1758 497.958
509 0 55.0446 10.9366 602 89.706 26.0914 497.503
510 0 56.0564 11.5776 649 81.1972 26.3436 496.176
511 0 56.0566 11.9879 672 81.0476 24.9821 495.186
512 0 54.0367 11.4182 617 87.4522 26.1588 497.146
513 0 57.031 11.2044 639 87.7308 24.9124 498.055
514 0 57.0095 11.1034 633 89.8278 24.1769 495.445
515 0 59.0726 10.9018 644 89.8789 24.6553 496.155
516 0 62.0918 10.9676 681 90.1836 23.6373 496.392
517 0 63.1104 11.472 724 90.6575 24.6644 493.747
518 0 65.0916 11.1842 728 90.7624 24.9547 494.723
519 0 68.141 10.8158 737 92.6214 24.9607 494.497
520 0 69.1963 11.7058 810 93.0654 25.1247 491.759
521 0 73.0725 11.5091 841 93.1165 25.0488 492.69
522 0 73.2305 11.3614 832 93.8425 25.0721 490.938
523 0 77.1282 11.8245 912 93.8849 22.9309 489.922
524 0 79.1317 11.6515 922 93.7527 23.1095 488.249
525 0 80.2073 11.5326 925 94.8508 23.6908 488.329
526 1 47.1901 11.8669 560 94.7393 23.9518 502.402
527 0 48.1243 11.782 567 90.9259 23.9418 503.875
528 0 51.1421 12.3968 634 94.2035 24.0962 502.181
529 0 52.1836 12.5327 654 95.4343 24.9144 500.937
530 0 53.1944 12.4449 662 96.781 24.6571 500.193
531 0 54.1991 12.3249 668 96.6781 24.9551 500.057
532 0 56.1771 12.3716 695 97.554 24.0374 500.199
533 0 57.1186 12.4828 713 99.648 23.7882 499.784
534 0 59.2261 12.5789 745 96.953 23.6671 499.498
535 0 63.1597 12.7455 805 94.7565 23.5081 499.144
536 0 65.1829 12.9328 843 95.7509 24.1068 498.326
537 0 65.1249 12.4069 808 96.8676 23.8639 497.917
538 0 67.1168 12.7241 854 97.1628 23.6464 495.641
539 0 69.0973 13.2132 913 94.6528 23.8149 495.997
540 0 72.15 13.6937 988 93.2854 23.8644 495.413
541 0 73.0678 13.5217 988 95.6883 24.9727 494.04
542 0 74.0386 13.4659 997 94.9498 25.5075 493.251
543 0 76.0343 13.3755 1017 96.3982 25.6716 491.09
544 0 78.0464 13.2998 1038 96.2119 25.0299 492.026
545 0 80.0423 12.4434 996 97.8243 24.6797 490.703
546 0 83.0376 12.404 1030 97.7456 25.2515 489.149
547 0 88.0491 13.0155 1146 94.6571 25.0593 487.327
548 1 49.0974 11.5281 566 94.6078 25.7615 506.625
549 0 48.1123 12.0551 580 95.1276 25.1534 505.357
550 0 50.0954 12.8754 645 89.9845 25.0775 503.031
551 0 50.1287 13.1063 657 90.4962 24.0654 503.629
552 0 52.1056 12.7242 663 90.1161 24.3484 503.587
553 0 55.1513 13.2 728 88.0082 23.5 501.106
554 0 57.1323 12.9349 739 90.1759 23.9364 501.315
555 0 58.2085 12.3693 720 90.2486 23.9181 501.785
556 0 57.1048 11.7853 673 93.3596 24.7459 501.982
557 0 61.1456 12.3476 755 90.657 24.6861 500.966
558 0 62.1883 12.0441 749 92.6248 24.0067 500.211
559 0 65.1416 11.9586 779 91.0051 24.0783 500.311
560 0 66.1546 12.5615 831 90.9531 24.426 499.266
561 0 69.1745 12.4757 863 89.7034 24.1437 497.605
562 0 70.1549 12.2301 858 91.5385 24.6096 497.048
563 0 71.2308 12.298 876 91.4349 23.8128 494.054
564 0 74.169 11.9052 883 91.2922 23.795 495.64
565 0 77.1998 12.1891 941 92.3507 24.0542 491.829
566 0 80.1236 13.2545 1062 90.8315 24.1874 492.008
567 0 81.1468 12.4959 1014 93.1558 24.3895 491.265
568 0 86.1812 12.2881 1059 92.576 24.8291 488.871
569 0 88.1873 12.9497 1142 93.7898 24.5324 487.088
570 0 90.1334 12.8809 1161 95.3919 24.4832 486.751
571 0 92.1789 12.7469 1175 98.5132 24.5251 483.841
572 0 96.1765 13.1113 1261 98.8002 24.1205 482.46
573 0 100.161 13.1988 1322 97.8275 24.4297 481.018
574 0 102.185 12.7123 1299 100.221 24.2987 478.059
575 0 105.248 12.0098 1264 100.376 24.4945 477.365
576 1 58.0328 12.0277 698 99.8883 24.5731 499.99
577 0 59.1408 11.684 691 98.3661 24.2779 491.708
578 0 61.2398 12.6552 775 98.6052 23.9123 491.299
579 0 61.092 12.342 754 98.3846 23.1605 500.881
580 0 64.0513 12.5212 802 97.5399 22.5037 499.767
581 0 67.1128 12.2927 825 97.6885 22.4909 498.105
582 0 69.1157 12.5876 870 95.4529 23.0448 496.729
583 0 73.1378 13.0029 951 94.1725 23.4679 494.927
584 0 75.1278 12.1526 913 96.3319 23.8686 493.74
585 0 78.269 12.5209 980 95.7745 23.4949 491.896
586 0 80.1696 13.1721 1056 93.3513 23.6354 491.681
587 0 83.2941 13.0381 1086 94.5276 23.7808 489.787
588 0 86.2312 12.9303 1115 96.1238 22.6323 489.646
589 0 88.3091 12.6148 1114 97.7639 23.0197 486.842
590 0 92.2534 13.0077 1200 96.37 23.2508 486.14
591 0 95.1682 12.6618 1205 96.4556 22.956 483.315
592 0 98.1543 13.2445 1300 95.6431 23.2685 481.255
593 0 100.223 12.562 1259 98.1017 23.0683 481.509
594 0 104.124 11.928 1242 100.457 22.5467 478.677
595 0 107.238 12.5795 1349 100.212 23.5234 476.704
596 0 112.173 12.3737 1388 99.505 22.9575 474.716
597 1 58.1893 11.4454 666 98.5135 22.973 501.086
598 0 61.1955 12.2395 749 92.7076 23.9599 498.264
599 0 63.2131 12.2759 776 94.6314 23.2126 497.954
600 0 67.0922 12.8927 865 92.9052 23.8104 496.635
601 0 68.1381 12.5921 858 93.2448 23.8753 496.368
602 0 70.0937 12.9398 907 91.8302 23.9449 494.711
603 0 73.2457 12.656 927 93.4196 23.2762 494.225
604 0 77.1029 12.7881 986 91.5822 23.1734 492.035
605 0 79.2104 12.6372 1001 92.2388 22.6833 490.656
606 0 82.2892 12.4561 1025 92.9522 22.4917 488.667
607 0 86.2688 12.577 1085 88.4959 22.8406 486.9
608 0 88.2432 11.8309 1044 95.8218 22.6446 484.701
609 0 93.313 13.6637 1275 90.9843 22.9239 481.64
610 0 96.2295 12.9066 1242 92.4348 22.9952 481.667
611 1 50.2316 11.6461 585 89.441 24.0444 503.812
612 0 52.2825 12.2412 640 88.6609 24.2062 504.408
613 0 55.2628 12.1601 672 88.9464 23.7158 502.821
614 0 56.214 13.075 735 87.3782 23.5701 502.059
615 0 59.189 13.6512 808 86.125 23.0965 501.304
616 0 61.2512 13.5997 833 88.09 22.6723 499.935
617 0 63.2665 13.2456 838 88.926 22.7041 498.797
618 0 64.1939 13.0542 838 92.2912 23.0859 498.409
619 0 67.193 13.9747 939 88.3919 23.5293 497.332
620 0 68.1099 13.4195 914 90.7319 23.5602 494.252
621 0 70.1117 13.3929 939 100.906 23.1853 493.048
622 0 73.0999 13.5568 991 98.9405 23.5005 492.133
623 0 76.1223 13.5177 1029 99.4898 23.034 491.316
624 0 79.239 13.819 1095 99.2201 23.1626 490.581
625 0 80.1451 13.6128 1091 99.5784 23.154 489.228
626 0 81.0799 13.2832 1077 101.334 22.9898 487.092
627 0 84.115 12.9347 1088 102.311 22.9366 486.473
628 0 87.1639 13.5377 1180 100.025 22.8229 484.413
629 0 90.1197 13.0937 1180 97.8229 23.4924 483.004
630 0 92.1207 13.2109 1217 99.4224 24.691 481.107
631 0 95.0897 12.9667 1233 100.227 25.0316 479.101
632 0 99.1206 13.1355 1302 99.8126 24.5937 476.8
633 0 103.149 13.1751 1359 98.4511 23.7476 476.082
634 1 55.0863 11.5818 638 97.348 24.9639 498.622
635 0 56.106 12.013 674 96.9288 24.4733 497.807
636 0 60.1507 12.7513 767 93.4081 24.8748 496.339
637 0 62.0928 13.0772 812 92.7315 25.303 495.225
638 0 63.116 13.6891 864 89.7025 25.4873 496.351
639 0 65.1286 13.2046 860 90.9709 25.2895 495.078
640 0 66.116 13.1285 868 92.2281 24.9666 493.487
641 0 69.1557 13.3033 920 92.1413 25.2163 492.355
642 0 72.0951 14.0648 1014 90.8067 25.2535 492.06
643 0 74.2435 13.0112 966 93.2847 26.0652 490.33
644 0 76.1441 13.3562 1017 93.9587 25.0718 488.001
645 0 77.1849 13.0984 1011 95.9189 25.6261 486.561
646 0 80.1258 13.5787 1088 95.4963 25.046 485.803
647 0 82.1114 13.0067 1068 98.1545 25.1863 485.343
648 0 86.157 13.6611 1177 97.6669 25.085 481.793
649 0 89.1304 13.2278 1179 99.458 25.5827 478.685
650 0 93.1437 14.075 1311 98.4539 25.3272 478.327
651 0 94.1264 13.0463 1228 103.333 25.0603 476.96
652 0 98.1516 13.8561 1360 100.852 25.0537 474.842
653 1 52.0883 11.4037 594 108.114 26.3384 497.483
654 0 54.0349 10.7338 580 111.045 26.2345 497.024
655 0 57.0477 11.6394 664 106.416 25.8675 496.919
656 0 58.0403 12.1123 703 106.536 24.8122 494.862
657 0 59.0278 11.5031 679 109.296 25.4094 491.32
658 0 60.0767 12.767 767 105.684 26.1317 489.314
659 0 62.2641 11.8527 738 111.379 25.3835 491.209
660 0 66.2767 12.1611 806 108.017 26.0732 491.618
661 0 69.2261 12.8131 887 105.45 25.2875 490.646
662 0 69.1634 12.8247 887 107.274 26.4746 489.158
663 0 74.2854 12.6674 941 107.211 26.3231 488.367
664 0 76.193 13.1508 1002 104.62 25.7066 487.498
665 0 78.2339 12.7311 996 104.814 25.6064 484.947
666 0 83.2802 13.7127 1142 100.741 26.0438 484.666
667 0 84.1751 13.1512 1107 103.575 25.3812 482.11
668 0 87.3231 13.1008 1144 103.095 24.9572 481.763
669 0 89.2467 13.3786 1194 102.509 25.3501 479.686
670 0 91.2528 13.9174 1270 101.446 25.1969 478.569
671 0 93.241 13.3096 1241 102.515 25.7945 476.747
672 0 96.261 13.0686 1258 103.188 26.3434 477.321
673 0 99.173 12.7152 1261 104.738 25.8493 475.253
674 0 103.063 12.1867 1256 102.438 25.1139 472.995
675 0 106.154 13.0376 1384 103.544 24.3396 472.095
676 1 57.1081 11.1193 635 101.274 24.0031 497.301
677 0 60.2988 11.9571 721 102.042 25.2816 492.707
678 0 61.1992 12.1734 745 101.223 24.5933 493.515
679 0 63.1939 12.8335 811 103.152 24.7472 492.021
680 0 65.1797 12.8414 837 95.7395 25.2389 492.305
681 0 65.1456 12.8174 835 96.7856 25.5485 490.133
682 0 68.2083 11.8607 809 100.245 25.759 490.622
683 0 70.1221 12.464 874 100.051 26.5034 490.056
684 0 73.2169 11.8415 867 99.6275 26.8962 489.655
685 0 74.2314 12.1377 901 102.506 26.6249 490.018
686 0 76.2599 11.5526 881 101.889 25.6788 483.825
687 0 78.2036 11.4701 897 103.874 25.9208 485.249
688 0 82.2615 12.0226 989 104.313 26.3033 483.07
689 0 86.2015 12.2272 1054 108.061 26.1935 484.324
690 0 88.2294 12.6829 1119 107.628 26.3539 483.446
691 0 89.2514 12.7729 1140 109.716 25.8816 481.739
692 0 93.2445 12.6442 1179 112.137 26.6472 480.401
693 0 96.3732 13.4166 1293 110.415 26.1825 478.055
694 0 100.257 13.2259 1326 111.698 26.54 478.137
695 0 103.149 13.0782 1349 111.947 26.0052 475.096
696 0 108.238 14.154 1532 112.282 25.8936 474.252
697 0 110.266 12.9414 1427 116.242 25.7905 471.79
698 1 61.217 11.2714 690 113.846 26.4435 498.19
699 0 62.1188 11.9931 745 110.464 25.6926 496.463
700 0 65.0921 12.0752 786 110.718 25.0356 493.742
701 0 67.1487 12.867 864 110.322 25.3287 494.329
702 0 69.2252 12.4521 862 104.717 26.2193 493.532
703 0 72.1036 13.0229 939 101.478 25.5825 491.166
704 0 73.2188 12.4968 915 103.446 24.6667 490.504
705 0 75.1454 12.6289 949 103.413 25.1781 490.372
706 0 79.1506 13.2406 1048 104.102 24.2977 488.835
707 0 82.1514 13.7308 1128 102.668 24.1746 486.493
708 0 82.203 13.0044 1069 106.231 24.7203 485.45
709 0 87.2627 13.5338 1181 102.39 23.978 484.876
710 0 91.2811 13.9459 1273 101.455 24.4792 484.086
711 0 94.2991 13.6162 1284 103.478 25.0997 482.591
712 0 96.2664 13.2445 1275 106.644 24.022 480.936
713 0 99.2564 13.2687 1317 106.355 24.1936 479.478
714 0 102.115 13.2693 1355 114.303 23.124 476.938
715 0 103.195 13.0239 1344 115.786 23.878 473.862
716 0 107.239 13.1762 1413 112.825 23.8521 472.007
717 0 110.291 12.8478 1417 112.511 23.3649 472.279
718 0 113.267 12.3514 1399 113.133 23.5718 469.524
719 1 61.3171 10.7311 658 106.693 24.7918 497.672
720 0 65.2545 12.229 798 102.931 25.4962 495.223
721 0 66.3544 12.0866 802 103.704 24.7444 493.373
722 0 70.1096 12.5803 882 112.382 25.0941 492.079
723 0 71.1374 12.258 872 114.411 24.7821 493.493
724 0 73.2024 12.6089 923 114.351 24.6132 492.741
725 0 75.1733 12.2384 920 116.29 24.6826 491.774
726 0 79.1693 12.9975 1029 114.502 24.0807 490.814
727 0 80.2166 12.7031 1019 116.975 24.2767 489.275
728 0 82.2197 12.6734 1042 116.157 24.5672 488.289
729 0 85.1682 13.1035 1116 116.237 24.0332 486.018
730 0 88.2142 13.4672 1188 113.146 24.6322 484.795
731 0 91.2467 13.4799 1230 112.092 24.6366 483.913
732 0 93.3314 13.3717 1248 112.313 24.6538 482.583
733 0 94.1855 13.6327 1284 111.67 24.412 481.849
734 0 96.2501 13.0286 1254 113.122 24.8509 478.606
735 0 98.1554 12.7655 1253 108.425 24.5962 476.581
736 0 100.276 12.6251 1266 109.621 24.6327 474.809
737 0 103.257 12.7062 1312 109.876 24.2912 473.668
738 0 108.261 13.2273 1432 108.787 24.6432 472.348
739 0 110.194 12.351 1361 113.212 25.0625 470.791
740 0 114.245 13.0772 1494 107.654 25.5315 469.637
741 0 115.206 12.7771 1472 109.188 25.1223 467.724
742 0 118.156 13.0675 1544 108.29 24.8892 465.214
743 1 66.1333 10.8417 717 109.215 25.1855 491.667
744 0 68.2084 11.2596 768 107.755 25.3698 490.734
745 0 69.2139 11.7462 813 107.763 24.7073 488.228
746 0 73.3322 12.5457 920 107.152 24.0163 487.207
747 0 76.2678 12.5872 960 107.065 24.1344 486.497
748 0 77.2349 12.5461 969 109.271 24.0372 485.055
749 0 80.1735 12.9344 1037 106.77 23.4233 483.329
750 0 82.2156 12.6983 1044 108.489 23.9693 480.253
751 0 83.2452 12.8055 1066 109.139 24.2964 477.863
752 0 85.268 12.3493 1053 108.236 24.6885 481.524
753 0 88.2924 12.0169 1061 109.133 24.2875 479.964
754 0 91.1393 11.9487 1089 111.38 25.5868 478.423
755 0 91.2125 12.4764 1138 108.723 25.5264 476.363
756 0 95.3161 12.254 1168 111.549 24.7594 475.897
757 1 48.1114 10.6212 511 109.816 26.0626 494.875
758 0 48.0943 11.3735 547 107.32 26.351 497.366
759 0 50.1139 11.6135 582 110.72 25.9777 496.306
760 0 53.2709 12.3707 659 112.323 26.217 500.126
761 0 56.2755 12.6165 710 110.527 26.0042 498.887
762 0 56.2999 11.9894 675 112.944 26.203 497.135
763 0 57.2406 12.6134 722 113.021 25.1801 495.828
764 0 61.2496 12.6042 772 109.797 25.5622 495.351
765 0 62.1963 12.7821 795 110.087 25.1308 493.947
766 0 64.3257 12.8254 825 109.103 24.7697 493.708
767 0 65.2713 12.2412 799 111.601 25.1389 491.999
768 0 67.3095 12.5837 847 112.815 24.8689 491.249
769 0 69.2878 13.0182 902 112.644 24.4778 487.295
770 0 71.4421 12.4157 887 114.344 24.8444 487.451
771 0 74.305 12.987 965 112.596 24.1482 486.388
772 0 75.1334 11.7391 882 104.193 23.7676 483.923
773 0 78.1174 11.7772 920 104.752 23.9163 484.884
774 0 81.0871 12.4064 1006 103.82 23.5805 483.356
775 0 85.1009 13.1021 1115 102.671 23.1901 481.875
776 1 45.0049 10.4655 471 105.318 24.5987 502.008
777 0 47.0083 10.5301 495 106.471 24.2081 500.541
778 0 48.0462 11.8844 571 103.177 23.8196 500.194
779 0 47.0574 12.2191 575 105.16 23.913 498.664
780 0 50.0123 12.097 605 103.74 24.5702 499.231
781 0 51.1157 12.951 662 104.11 23.8912 495.186
782 0 52.1862 12.8578 671 106.021 24.4322 496.888
783 0 55.2412 12.8346 709 102.681 25.3075 495.298
784 0 55.1815 13.1203 724 103.807 25.2196 495.994
785 0 58.2321 12.7593 743 104.468 24.9879 493.743
786 0 58.216 13.3984 780 104.349 24.9923 493.844
787 0 61.1811 13.5172 827 102.759 25.3688 493.989
788 0 63.2168 13.0503 825 104.924 25.6667 492.661
789 0 65.1776 13.0566 851 104.152 25.2162 492.041
790 0 67.1786 13.025 875 105.957 25.6731 491.849
791 0 69.1844 13.4279 929 104.964 25.7987 491.302
792 0 70.1987 13.4618 945 103.037 25.1354 488.924
793 0 73.191 12.8978 944 106.596 25.3252 488.809
794 0 74.2361 13.484 1001 104.873 25.3836 487.738
795 0 77.1855 13.6813 1056 105.344 25.5464 485.529
796 0 79.2171 13.0527 1034 104.84 25.5658 483.392
797 0 83.1874 13.3073 1107 105.317 25.9828 483.991
798 0 85.1925 13.4988 1150 106.019 25.9626 483.296
799 0 88.175 13.4846 1189 106.339 26.4407 481.537
800 0 90.1725 12.6535 1141 107.337 26.0167 478.884
801 1 47.1039 10.9545 516 105.833 26.7364 499.229
802 0 50.0807 12.1803 610 100.907 25.5656 498.797
803 0 50.1468 13.0816 656 117.491 25.1402 499.761
804 0 53.1052 12.9742 689 117.528 24.4006 498.913
805 0 52.1116 13.0489 680 119.569 24.1162 499.779
806 0 55.1254 13.0793 721 119.43 24.6269 499.179
807 0 57.1382 13.8961 794 116.999 24.7922 499.385
808 0 57.0973 13.3807 764 121.399 25.4293 497.616
809 0 59.1114 13.8214 817 118.634 24.9033 497.466
810 0 60.0571 13.7036 823 121.447 24.5383 496.232
811 0 61.0792 14.1947 867 119.975 24.1615 495.16
812 0 65.0709 14.0308 913 119.782 24.2442 493.177
813 0 66.1568 14.3749 951 117.605 24.3575 492.525
814 0 67.0897 14.503 973 118.609 23.777 492.915
815 0 69.1248 13.8011 954 121.661 23.4423 491.737
816 0 71.0937 14.2066 1010 119.707 23.9188 491.392
817 0 75.121 14.6697 1102 118.451 24.0445 491.529
818 0 75.1527 14.1312 1062 121.444 23.3352 489.996
819 0 76.2108 14.0794 1073 122.314 23.5415 488.597
820 0 82.3058 14.4583 1190 118.92 24.1504 486.873
821 0 84.2988 14.2825 1204 119.638 23.8721 485.333
822 0 84.1071 14.1843 1193 120.894 23.1341 482.287
823 0 87.1869 13.9126 1213 121.41 23.1937 480.02
824 0 89.217 14.0332 1252 120.702 22.3658 474.073
825 0 88.3792 13.7815 1218 121.138 22.0591 475.8
826 0 93.1963 13.5842 1266 117.932 22.0221 473.618
827 0 93.0932 13.3307 1241 119.386 21.9742 472.669
828 0 96.1088 13.568 1304 118.194 21.9379 469.531
829 1 53.1183 11.6156 617 116.982 23.5802 491.272
830 0 56.0899 11.9629 671 116.59 23.8689 491.264
831 0 58.0519 11.7998 685 117.28 23.1387 489.939
832 0 60.086 12.5154 752 116.114 23.1702 488.548
833 0 59.1011 11.8779 702 104.886 23.3832 494.504
834 0 63.1178 12.4687 787 101.449 23.9543 495.496
835 0 66.1363 12.3382 816 102.146 23.2096 494.667
836 0 68.1738 12.6882 865 102.939 23.2092 493.763
837 0 69.1183 11.9361 825 105.652 23.1915 491.624
838 0 71.2024 12.1344 864 110.128 23.4097 489.072
839 0 75.1359 12.6038 947 108.982 22.8997 488.182
840 0 77.1461 12.3532 953 107.656 22.3127 486.678
841 0 77.1861 12.2561 946 111.791 22.6512 488.171
842 0 81.1403 12.5215 1016 110.31 22.0787 488.781
843 0 83.1271 12.2944 1022 111.53 22.6947 487.395
844 1 42.0984 11.5444 486 108.833 23.0535 507.72
845 0 44.1562 12.2973 543 105.416 23.6077 505.788
846 0 47.1487 12.1955 575 104.817 23.5757 504.904
847 0 46.1487 12.1347 560 106.768 22.9804 503.321
848 0 49.1894 12.95 637 103.771 22.9827 503.736
849 0 50.2169 12.5257 629 104.695 23.1987 501.801
850 0 52.1095 13.107 683 101.47 22.9034 500.905
851 0 54.1365 12.9857 703 99.6572 23.4267 500.818
852 0 54.0912 13.089 708 99.6525 23.5 499.956
853 0 55.1917 12.8099 707 101.062 23.2461 500.728
854 0 58.1042 13.0111 756 101.267 23.1481 499.642
855 0 57.1725 12.4885 714 103.875 23.3908 498.168
856 0 62.0798 13.0638 811 111.106 24.0086 496.672
857 0 62.0177 13.6251 845 110.705 24.2757 495.131
858 0 64.0611 13.1905 845 112.179 24.3527 495.311
859 0 66.0517 12.7325 841 113.771 24.2354 493.734
860 0 66.0267 12.6313 834 114.964 24.2014 492.824
861 0 71.0534 12.8636 914 110.548 24.0821 492.312
862 0 71.0706 12.776 908 109.317 23.8425 490.217
863 0 75.0525 12.8443 964 107.648 24.5477 490.801
864 1 38.0603 10.2732 391 111.1 25.3734 506.811
865 0 40.0674 11.7053 469 109.269 24.2516 505.168
866 0 42.1114 11.2559 474 109.785 24.2869 504.694
867 0 43.0882 11.5345 497 109.658 23.7425 503.378
868 0 43.1217 12.0589 520 108.565 24.1231 503.448
869 0 45.1439 12.1168 547 109.996 24.2706 500.98
870 0 48.1458 12.8568 619 106.662 24.5638 499.695
871 0 50.1134 12.9706 650 105.642 23.5631 501.451
872 0 50.0819 13.0786 655 107.521 23.0015 499.783
873 0 52.0506 13.3908 697 107.796 23.5753 499.119
874 0 53.0857 12.9037 685 109.181 23.4204 499.018
875 0 55.0624 13.3848 737 108.229 23.5767 498.687
876 0 56.1299 13.4688 756 109.294 23.1151 497.923
877 0 58.0703 13.5525 787 119.67 23.8234 493.912
878 0 60.0778 12.9166 776 120.718 23.4407 493.643
879 0 60.0963 12.9292 777 122.667 22.3912 493.121
880 0 63.0921 13.0127 821 121.229 22.7625 494.604
881 0 65.1102 13.6231 887 119.351 22.8264 492.956
882 0 66.0921 13.1332 868 120.96 23.1647 492.877
883 0 68.1007 13.5094 920 116.015 22.887 491.915
884 0 71.0897 13.0961 931 120.024 23.029 488.556
885 0 72.0814 13.6096 981 117.31 23.629 490.428
886 0 75.1393 13.841 1040 116.118 23.3567 486.3
887 0 78.3094 13.7914 1080 116.087 23.6296 483.604
888 0 79.2802 13.4334 1065 118.274 23.1784 483.529
889 0 81.3058 13.3447 1085 119.862 23.0018 482.396
890 0 83.2516 13.6694 1138 120.7 22.9411 480.833
891 0 86.3196 14.1914 1225 119.608 23.0604 478.857
892 0 89.3728 13.9304 1245 118.766 23.1205 478.684
893 1 46.2873 12.0983 560 120.366 24.0393 500.327
894 0 47.2545 11.8931 562 120.164 24.0142 500.731
895 0 48.2656 12.4312 600 123.425 24.2883 496.972
896 0 51.1761 13.1898 675 122.164 24.0681 495.871
897 0 50.1865 11.8359 594 115.456 22.697 490.715
898 0 52.1544 12.1754 635 113.465 23.2126 490.693
899 0 51.14 12.104 619 117.074 23.1761 490.969
900 0 54.1668 12 650 115.9 24.1554 489.638
901 0 58.1411 13.0201 757 123.304 23.7966 492.616
902 0 60.1755 13.6268 820 120.813 24.2439 490.53
903 0 61.1193 13.2691 811 119.291 23.9359 492.266
904 0 63.1615 13.0459 824 120.559 24.2864 489.198
905 0 65.2289 13.5063 881 117.337 24.3065 488.22
906 0 68.365 13.0915 895 116.761 24.9899 486.992
907 0 68.3619 13.1213 897 116.357 25.3032 485.628
908 0 70.2926 13.6999 963 113.868 24.432 484.167
909 0 72.3435 13.3668 967 112.84 24.2813 484.25
910 0 75.429 13.2442 999 112.949 24.4785 481.871
911 0 76.4036 13.9653 1067 111.178 24.5426 482.025
912 0 78.3234 13.6996 1073 113.763 24.6524 481.403
913 0 78.2306 13.294 1040 117.605 24.5596 478.786
914 0 80.3049 13.0627 1049 118.526 24.8027 477.092
915 0 84.2872 13.9286 1174 114.227 24.3893 477.044
916 0 86.2851 13.2931 1147 115.427 24.3941 475.756
917 0 90.3507 13.68 1236 113.875 24.6076 475.154
918 0 92.214 13.653 1259 113.391 24.3042 473.637
919 0 94.3011 13.5735 1280 113.177 24.732 470.552
920 0 96.2358 13.9345 1341 112.192 24.4243 469.718
921 0 100.291 13.8497 1389 112.073 24.1368 468.296
922 0 104.202 13.6082 1418 112.185 24.6587 467.594
923 0 106.339 13.156 1399 112.898 24.6276 465.726
924 0 109.252 12.8327 1402 113.023 23.9144 463.208
925 1 60.0687 11.0707 665 99.6917 24.7759 488.716
926 0 63.0387 10.676 673 102.851 24.4309 485.316
927 0 66.1146 11.5557 764 99.678 23.7199 491.666
928 0 68.1262 11.5374 786 101.206 24.145 491.184
929 0 69.1053 10.7951 746 103.092 23.8378 492.81
930 0 73.0819 11.6992 855 102.098 23.6211 491.037
931 0 75.1528 11.4034 857 102.438 23.6488 489.806
932 0 76.1313 11.3488 864 102.683 23.2558 490.447
933 0 79.1071 11.2759 892 102.652 23.2164 488.973
934 0 81.1391 11.166 906 101.578 21.9812 489.149
935 0 84.119 11.6026 976 101.144 22.1219 486.863
936 0 86.1354 9.85658 849 104.998 21.8151 486.797
937 0 89.1409 11.207 999 101.572 21.1121 483.556
938 0 90.1995 9.35704 844 103.647 21.096 484.685
939 0 94.1079 10.8917 1025 100.582 20.6449 482.296
940 0 96.1665 9.61873 925 103.119 20.9924 482.815
941 0 101.208 10.1969 1032 104.339 20.2616 480.123
942 1 56.1505 10.5787 594 104.389 20.7862 499.705
943 0 58.1914 10.9466 637 103.061 20.6028 500.375
944 0 59.1586 11.2579 666 103.898 20.8694 497.697
945 0 57.1187 10.0317 573 100.332 21.9756 499.904
946 0 61.1399 10.7949 660 99.5273 21.6545 499.255
947 0 61.1656 9.38436 574 103.355 21.7091 499.998
948 0 64.0963 10.375 665 103.507 21.3038 495.657
949 0 67.1284 10.249 688 104.693 22.5625 496.438
950 0 66.1293 10.0107 662 106.228 22.6208 494.795
951 0 70.2432 9.96537 700 113.336 22.5286 493.976
952 0 73.0982 10.0276 733 113.15 23.015 492.487
953 0 75.1323 9.92915 746 115.146 24.2748 492.41
954 0 78.1234 9.6642 755 117.342 22.5695 489.299
955 0 81.1832 10.1376 823 116.944 22.842 487.8
956 0 84.1653 8.97044 755 107.499 22.6252 488.004
957 0 87.3133 9.46019 826 107.815 22.5266 485.092
958 0 92.1837 9.84989 908 106.265 23.3051 484.265
959 1 47.0236 10.5054 494 108.016 24.3421 503.198
960 0 48.022 10.2245 491 108.497 24.3727 501.77
961 0 51.0477 10.833 553 105.166 24.3924 501.121
962 0 52.0791 10.6185 553 107.494 24.1501 499.573
963 0 53.0237 10.0521 533 109.306 24.0976 497.415
964 0 55.0252 10.9404 602 106.151 23.9684 497.111
965 0 57.1303 10.6248 607 105.476 24.3295 497.334
966 0 58.1112 10.7725 626 106.043 25.0479 499.272
967 1 113.319 9.23937 1047 106.08 23.8921 476.032
968 0 114.311 8.32816 952 107.091 24.0672 475.478
969 0 118.521 9.50886 1127 106.632 24.1908 473.108
970 0 122.327 10.104 1236 106.817 24.0591 465.985
971 0 123.371 9.68623 1195 107.428 24.2895 468.078
972 0 130.463 9.07535 1184 113.291 23.7416 463.533
973 1 71.1249 10.6011 754 106.828 25.5504 489.849
974 0 74.0881 10.8924 807 105.9 25.5675 488.46
975 0 76.0521 11.1371 847 105.405 25.6092 489.009
976 0 77.1078 11.4645 884 105.874 25.4876 486.988
977 0 77.0751 11.0801 854 108.502 25.6452 485.939
978 0 81.0635 11.2504 912 107.125 25.1009 485.371
979 0 82.0555 11.1266 913 115.026 25.9529 484.786
980 0 85.0928 11.2701 959 116.86 25.9844 483.437
981 1 41.0234 9.82365 403 116.973 27.2109 505.099
982 0 44.0271 10.3573 456 117.579 26.2325 505.197
983 0 44.0116 10.6336 468 107.829 26.5962 503.096
984 0 45.0316 10.3483 466 109.815 25.7296 502.225
985 0 48.024 11.2027 538 107.595 26.2323 502.558
986 0 48.0439 11.7184 563 107.725 26.1545 500.472
987 0 48.0549 10.8626 522 111.736 26.1609 500.352
988 0 49.0402 11.3172 555 110.468 27.0649 499.917
989 0 52.1357 11.6619 608 109.855 26.273 499.242
990 0 54.0563 12.154 657 108.25 26.204 498.673
991 0 55.0506 11.8436 652 108.426 25.0767 496.782
992 0 57.0217 11.9253 680 109.687 25.6397 496.812
993 0 58.0438 11.388 661 113.11 25.7141 497.436
994 0 60.0696 11.6864 702 113.293 25.4074 496.504
995 0 62.0509 12.1352 753 110.903 25.2112 495.664
996 0 62.0326 12.703 788 109.951 25.019 494.349
997 0 65.0529 12.559 817 109.088 25.4321 493.645
998 0 67.0488 12.2448 821 109.295 26.028 493.104
999 0 68.0973 12.4234 846 110.212 25.3641 492.039
1000 0 70.0495 12.7481 893 109.195 25.2811 490.494
1001 0 73.0463 13.0465 953 108.123 25.0126 488.995
1002 0 74.0179 12.1457 899 110.482 25.0868 487.794
1003 0 76.0567 12.9903 988 108.515 25.1609 487.529
1004 0 80.0544 12.7538 1021 109.042 25.1704 486.579
1005 0 82.0166 12.8023 1050 113.335 25.34 485.768
1006 0 84.0421 12.7198 1069 110.761 25.956 482.659
1007 1 44.0098 10.8612 478 115.837 26.659 502.379
1008 0 45.0431 11.1005 500 116.24 26.726 503.828
1009 0 48.0412 11.3028 543 113.319 25.849 504.475
1010 0 48.0095 11.956 574 110.934 25.7979 501.312
1011 0 50.1417 12.1456 609 112.386 23.647 499.841
1012 0 50.0876 12.2386 613 113.525 23.4274 498.971
1013 0 53.0802 11.9819 636 111.77 22.5959 498.45
1014 0 55.0945 12.5239 690 110.114 23.042 498.438
1015 0 51.0488 10.4606 534 104.423 23.5899 500.139
1016 0 54.0174 10.9779 593 103.418 24.5093 498.582
1017 0 55.0952 11.1262 613 104.962 23.9266 499.122
1018 0 56.0568 10.8105 606 106.523 24.8366 498.325
1019 0 58.1346 11.2497 654 107.476 26.2278 497.596
1020 0 59.0875 11.2037 662 107.832 25.8218 496.659
1021 0 61.0522 11.4001 696 107.705 26.4066 494.911
1022 0 63.0775 10.8914 687 107.553 25.3552 496.731
1023 0 67.1336 11.6186 780 104.2 25.0962 493.821
1024 0 68.0976 10.7052 729 106.945 24.8573 492.536
1025 0 69.0559 10.3684 716 107.736 24.595 492.208
1026 0 71.1291 10.8113 769 106.004 23.8479 490.2
1027 0 74.1089 10.6465 789 107.437 23.7237 488.9
1028 0 78.0963 10.82 845 106.007 23.8213 487.475
1029 1 38.0412 9.96288 379 111.515 24.3852 505.715
1030 0 40.0185 9.22073 369 112.217 23.6667 505.022
1031 0 40.0346 10.0163 401 106.394 23.7082 504.471
1032 0 42.0368 9.42032 396 107.136 23.8485 504.583
1033 0 43.0535 10.0805 434 104.224 24.1866 503.896
1034 0 44.0772 10.8673 479 103.457 24.023 503.76
1035 0 45.0551 11.1197 501 103.94 24.2295 501.796
1036 0 43.0304 10.9457 471 108.155 23.5456 502.65
1037 0 46.0427 10.816 498 107.042 23.5964 502.291
1038 0 48.072 10.9627 527 106.213 23.537 501.364
1039 0 49.0549 11.0081 540 105.615 23.0185 500.241
1040 0 48.0258 11.5147 553 105.787 23.1844 500.741
1041 0 50.0474 11.1294 557 106.169 23.8312 499.741
1042 0 53.033 11.408 605 106.217 24.1917 498.183
1043 0 55.0701 11.8939 655 104.953 24.5664 497.359
1044 0 57.0271 11.7137 668 105.858 24.4865 497.516
1045 0 58.0233 12.3226 715 106.303 24.5748 496.516
1046 0 59.0163 12.5897 743 106.459 24.3661 495.144
1047 0 61.0541 12.5299 765 105.203 24.9961 493.395
1048 0 61.0346 12.4028 757 107.111 24.5297 494.416
1049 0 64.0772 12.2977 788 107.945 22.9188 494.727
1050 0 63.0899 10.8734 686 114.207 23.8994 493.831
1051 0 70.0457 11.778 825 109.029 23.577 492.486
1052 0 70.0334 11.9943 840 108.904 23.6893 489.285
1053 0 74.0716 12.4339 921 106.743 23.6189 489.883
1054 0 75.0926 12.1583 913 112.3 23.3998 489.186
1055 0 80.0968 13.0093 1042 109.247 24.2946 488.451
1056 1 42.0775 10.5757 445 115.043 24.7034 505.937
1057 0 43.0596 11.4957 495 111.6 24.4242 505.867
1058 0 46.0101 11.8887 547 110.879 24.6015 504.453
1059 0 45.0528 12.3855 558 113.228 25.6756 503.543
1060 0 48.0807 12.3126 592 109.929 26.0642 505.334
1061 0 48.0196 12.1409 583 111.343 25.542 503.168
1062 0 50.0428 12.809 641 109.739 25.6833 504.412
1063 0 51.0264 12.7973 653 112.966 25.6202 503.161
1064 0 52.0774 12.2318 637 118.068 25.8462 502.06
1065 0 51.132 12.5362 641 117.044 25.4509 501.549
1066 0 53.0937 12.2425 650 118.615 25.0385 501.055
1067 0 57.054 13.0753 746 115.298 25.4303 500.639
1068 0 58.1159 12.802 744 118.999 25.3374 500.147
1069 0 58.1176 13.2662 771 118.488 25.192 499.075
1070 0 60.1152 13.4409 808 117.33 24.6881 498.36
1071 0 62.1558 12.9191 803 121.196 24.0237 497.111
1072 0 65.1807 13.1788 859 120.708 24.8254 496.447
1073 0 65.1121 13.2694 864 124.102 24.9062 495.985
1074 0 67.064 13.5393 908 123.632 24.5507 496.096
1075 0 69.1277 13.41 927 125.871 24.8457 495.565
1076 0 71.1348 12.9894 924 126.256 24.2554 493.718
1077 0 74.1519 13.4319 996 124.124 24.5934 493.261
1078 0 76.045 13.6235 1036 124.013 24.3668 491.458
1079 0 77.05 13.1343 1012 125.205 25.2391 491.401
1080 0 79.0496 13.2701 1049 124.325 23.9771 488.643
1081 0 79.0496 13.2828 1050 169.422 22.9705 488.646
1082 0 84.0269 13.1029 1101 123.486 24.4223 487.557
1083 1 44.21 10.2466 453 111.742 25.1082 506.459
1084 0 44.1927 10.8163 478 111.908 25.2929 506.096
1085 0 47.1084 11.0808 522 111.979 25.5249 505.716
1086 0 48.1143 12.0754 581 111.201 25.8881 505.668
1087 0 50.0557 12.7258 637 112.628 24.4976 504.287
1088 0 52.0911 13.0348 679 110.234 24.7717 504.523
1089 0 52.1755 12.6113 658 124.468 25.2356 503.921
1090 0 55.122 12.7535 703 122.663 26.2134 502.876
1091 0 55.109 12.8654 709 126.087 24.5374 502.24
1092 0 57.2028 12.6917 726 126.949 24.4063 501.718
1093 0 58.12 12.7839 743 122.157 25.5491 499.814
1094 0 60.1059 12.6111 758 121.867 25.6385 499.934
1095 0 63.0701 13.5563 855 117.64 25.6585 497.857
1096 0 64.1389 13.4084 860 119.269 25.6884 496.809
1097 0 66.1691 13.5411 896 118.831 25.4609 495.721
1098 0 69.1782 13.2845 919 119.139 26.0054 496.408
1099 0 70.1153 13.1355 921 118.423 25.0858 498.223
1100 0 73.2456 13.0383 955 118.361 26.6963 495.128
1101 0 76.2936 13.4087 1023 117.171 26.3245 492.298
1102 0 76.2222 12.8834 982 120.686 26.2128 491.465
1103 0 80.1905 13.2684 1064 120.268 25.9342 489.584
1104 0 84.3236 13.045 1100 120.504 25.9091 488.42
1105 1 42.0395 11.3227 476 123.473 27.5021 508.67
1106 0 45.0632 11.2952 509 123.147 27.1591 508.181
1107 0 46.0916 11.0432 509 123.035 27.1081 506.656
1108 0 49.0238 11.6678 572 121.631 25.5804 505.663
1109 0 51.0173 12.0743 616 116.739 25.2971 505.558
1110 0 52.0527 12.8332 668 113.874 24.8772 505.858
1111 0 51.0499 12.2233 624 120.611 25.9247 504.938
1112 0 52.1111 12.646 659 122.78 25.1305 502.944
1113 0 56.0163 12.6749 710 130.528 26.3282 502.387
1114 0 59.0512 13.0057 768 127.365 26.1914 501.421
1115 0 59.0629 12.6814 749 130.064 26.0134 500.981
1116 0 61.0692 12.3303 753 131.329 26.757 500.36
1117 0 61.0542 13.1195 801 129.762 26.3571 498.88
1118 0 64.0367 13.1643 843 127.447 26.4757 499.701
1119 0 67.0568 13.1679 883 128.689 25.8086 496.176
1120 0 67.0383 12.6495 848 131.665 25.5366 496.321
1121 0 71.0285 13.1919 937 129.858 25.3042 496.902
1122 0 73.0554 13.1818 963 128.912 26.1693 495.627
1123 0 75.0838 13.2785 997 128.775 25.9418 493.693
1124 0 78.1123 13.2117 1032 129.941 25.9196 492.858
1125 0 80.1216 13.3422 1069 131.74 25.986 491.602
1126 0 82.0446 13.2123 1084 133.682 26.3976 490.85
1127 0 85.1737 13.4666 1147 132.585 26.0863 488.828
1128 0 85.1179 12.9937 1106 136.308 25.8608 488.23
1129 0 90.1244 13.2483 1194 135.295 25.4958 486.164
1130 1 48.0406 10.7201 515 135.301 26.2524 507.445
1131 0 50.0652 11.6848 585 126.032 26.0786 507.326
1132 0 49.0555 11.7214 575 133.066 26.1148 506.155
1133 0 50.0262 11.9537 598 135.251 26.0184 505.042
1134 0 51.0386 11.9713 611 116.525 25.8691 504.216
1135 0 50.0626 10.1074 506 124.591 25.253 506.318
1136 0 52.0361 10.7233 558 122.349 24.9785 505.548
1137 0 53.0596 10.8369 575 122.402 24.6765 503.452
1138 0 55.0897 10.5646 582 120.507 25.3883 501.986
1139 0 56.1457 10.918 613 119.361 25.7798 501.941
1140 0 58.0604 10.7819 626 120.446 23.9361 503.396
1141 0 59.048 11.1435 658 119.968 23.5897 502.205
1142 0 62.0291 11.0916 688 119.304 23.5509 499.638
1143 0 64.1091 10.9969 705 118.828 22.9532 498.461
1144 0 66.1466 11.6862 773 116.481 23.066 496.86
1145 0 68.0656 11.1804 761 116.355 23.3114 496.876
1146 0 70.1338 11.6492 817 115.42 23.5496 494.963
1147 0 71.098 11.3365 806 117.316 22.7134 494.742
1148 0 72.0984 10.8324 781 121.438 22.7286 494.155
1149 0 77.119 11.3461 875 119.383 23.2583 492.278
1150 0 78.1003 10.4993 820 106.017 23.7341 490.94
1151 0 82.1244 11.5313 947 101.945 23.2714 489.606
1152 0 84.0432 10.8992 916 106.27 22.7817 488.041
1153 0 88.0784 11.3422 999 103.312 22.008 485.679
1154 0 91.1247 11.5995 1057 102.236 22.8288 485.761
1155 0 95.0775 11.7378 1116 100.086 22.4077 483.628
1156 0 97.0924 11.556 1122 103.205 22.1934 480.455
1157 1 52.0281 10.725 558 99.6075 22.5197 503.525
1158 0 54.0829 10.6318 575 99.6678 22.9722 500.433
1159 0 55.1962 11.2689 622 98.5273 23.5949 499.286
1160 0 57.3456 11.422 655 96.3802 24.5511 501.258
1161 0 58.1679 11.5356 671 97.1461 24.2727 500.268
1162 0 61.2382 11.2838 691 109.168 24.3459 499.411
1163 0 64.3081 11.7248 754 106.668 24.321 497.027
1164 0 66.3158 11.581 768 106.454 24.0938 496.993
1165 0 67.2573 11.1512 750 109.233 23.1813 496.264
1166 0 70.2413 11.8022 829 106.454 23.4355 496.099
1167 0 70.2097 11.8502 832 108.552 23.2115 494.721
1168 0 73.2388 11.9199 873 105.675 23.2509 493.514
1169 0 76.2509 11.5146 878 106.936 23.2984 493.458
1170 0 78.209 11.1113 869 105.583 23.42 492.002
1171 0 79.171 11.6204 920 104.862 23.2815 490.45
1172 0 82.2152 12.5281 1030 104.218 22.6816 488.239
1173 0 84.1858 11.9854 1009 105.546 23.3885 488.881
1174 0 86.2134 11.2396 969 108.401 22.9267 485.767
1175 0 89.2499 11.7983 1053 106.689 22.8177 484.005
1176 0 93.2276 11.8634 1106 106.233 22.3156 483.593
1177 0 95.1307 11.5841 1102 108.326 22.6906 482.137
1178 0 96.143 11.2333 1080 109.721 22.7222 481.626
1179 0 99.2296 11.4079 1132 110.682 22.2544 478.59
1180 0 104.139 11.7247 1221 107.158 22.6486 477.383
1181 1 56.023 10.5849 593 101.435 23.3963 503.017
1182 0 57.0253 11.2406 641 101.084 24.2995 502.482
1183 0 57.1076 10.7341 613 105.966 22.0261 501.387
1184 0 60.073 11.253 676 104.636 22.1805 498.45
1185 0 63.0605 11.3383 715 112.031 23.5287 499.105
1186 0 65.0549 11.3904 741 111.982 23.5938 496.984
1187 0 66.1553 11.6242 769 111.559 23.7984 496.42
1188 0 68.0441 11.7571 800 110.064 23.4125 497.278
1189 0 71.1611 11.5513 822 110.745 23.371 496.602
1190 0 71.0617 11.0749 787 113.428 22.7001 495.222
1191 0 74.0777 11.9469 885 109.979 23.4633 493.389
1192 0 75.0834 11.5605 868 110.667 23.3399 492.459
1193 0 78.0926 11.8321 924 109.831 23.3377 492.462
1194 0 80.2148 12.2172 980 108.749 22.8112 490.871
1195 0 83.263 12.2503 1020 107.004 22.4324 489.123
1196 0 84.2689 11.5464 973 106.923 21.9846 487.679
1197 0 87.2381 11.2222 979 104.397 23.1369 486.565
1198 0 91.176 11.242 1025 102.112 22.7727 485.262
1199 0 94.2793 10.5856 998 102.64 22.7735 484.499
1200 0 96.2313 10.1422 976 102.512 22.2531 483.511
1201 1 49.2281 9.77085 481 95.499 23.8919 505.407
1202 0 52.1658 9.45063 493 94.8195 23.645 505.533
1203 0 51.2142 9.8215 503 95.2366 23.8827 504.509
1204 0 53.2429 10.2549 546 95.9377 23.8132 503.214
1205 0 56.2897 9.68206 545 89.3761 23.7523 499.231
1206 0 57.3095 10.6789 612 87.9804 23.4657 500.092
1207 0 61.1403 11.8089 722 91.8089 25.1302 501.861
1208 0 60.0935 11.6651 701 94.699 24.9387 500.518
1209 0 62.0777 12.2105 758 93.0092 25.0976 501.174
1210 0 63.1035 12.012 758 94.7916 25.0871 500.142
1211 0 66.1864 12.3892 820 93.1915 24.4073 499.182
1212 0 68.145 13.0457 889 91.216 24.18 497.281
1213 0 71.1435 12.524 891 92.3042 24.6891 496.62
1214 0 71.1895 12.7406 907 94.6406 25.0419 494.668
1215 0 74.0963 12.5917 933 94.9861 24.8232 493.725
1216 0 77.2271 13.0524 1008 92.3631 24.0506 493.033
1217 0 78.1257 13.2735 1037 93.4397 23.785 492.844
1218 0 82.1122 13.0431 1071 95.6275 24.3044 490.449
1219 0 82.1574 11.1493 916 90.2598 23.9028 487.263
1220 0 85.2222 11.4524 976 90.8555 22.6486 485.639
1221 0 86.0743 11.188 963 94.3728 22.4206 485.872
1222 0 90.1063 11.2645 1015 93.5586 22.8374 481.215
1223 0 92.1275 11.2887 1040 94.7962 22.8971 482.846
1224 0 94.1922 11.7313 1105 94.8389 22.6995 481.254
1225 0 98.1957 11.2632 1106 97.2839 22.4602 479.144
1226 1 54.1027 10.2213 553 92.8047 22.4358 499.009
1227 0 55.0384 10.5381 580 92.8707 22.5655 496.466
1228 0 56.1307 11.0635 621 97.6071 22.6393 499.106
1229 0 59.1577 11.4271 676 94.8654 22.4275 497.572
1230 0 59.0602 11.4629 677 92.8198 22.0281 495.061
1231 0 61.0919 11.9983 733 91.3383 23.2278 496.282
1232 0 63.1437 11.9093 752 93.0944 22.4867 496.297
1233 0 63.2005 11.6771 738 94.977 23.3184 492.576
1234 0 65.1437 11.8507 772 95.1295 23.3264 493.102
1235 0 67.1766 11.641 782 94.7839 23.9885 492.238
1236 0 70.147 12.5023 877 92.7377 23.9407 493.127
1237 0 71.2222 11.7941 840 95.8571 23.1869 491.674
1238 0 73.0886 12.437 909 95.1166 23.7272 490.626
1239 0 75.2459 12.293 925 97.6238 23.1968 490.773
1240 0 77.1858 13.163 1016 96.7648 23.5394 490.981
1241 0 81.1521 12.7662 1036 97.0618 23.6931 488.632
1242 0 83.3906 13.035 1087 96.8933 23.2502 486.649
1243 0 85.1589 13.2576 1129 97.9424 22.9982 484.718
1244 0 89.2784 13.1835 1177 98.2787 23.3364 483.25
1245 0 92.1452 13.2725 1223 99.0613 23.6885 482.202
1246 0 94.1655 13.6249 1283 99.2611 23.7592 479.442
1247 1 47.1349 10.7988 509 104.971 24.3084 502.982
1248 0 50.1225 11.4918 576 102.844 23.5538 502.646
1249 0 50.1201 11.8715 595 104.277 22.7798 501.182
1250 0 51.2748 12.3257 632 103.877 23.6788 499.443
1251 0 53.3198 11.6092 619 120.042 23.8336 498.404
1252 0 55.2707 11.706 647 118.306 24.1298 499.567
1253 0 56.2368 12.0384 677 117.36 23.9882 499.91
1254 0 56.2417 11.5217 648 121.023 24.6373 500.969
1255 0 58.2195 11.7658 685 121.635 24.2964 498.187
1256 0 59.2518 12.6747 751 120.758 25.0107 496.417
1257 0 62.1435 12.6964 789 120.626 24.1863 496.051
1258 0 64.1448 12.2379 785 121.931 24.1325 495.471
1259 0 65.1685 12.1224 790 122.758 23.1316 493.647
1260 0 67.1375 12.4074 833 121.844 23.593 492.917
1261 0 68.2414 12.3532 843 125.113 23.5148 491.278
1262 0 69.1087 12.5455 867 125.815 23.2895 489.023
1263 0 70.2686 11.9541 840 129.481 23.0345 488.623
1264 0 73.4217 12.8164 941 125.387 23.3974 486.989
1265 0 75.3157 12.9986 979 126.392 22.904 485.285
1266 0 75.3225 12.6788 955 128.624 23.0314 486.242
1267 0 76.4405 12.4803 954 128.645 22.4382 485.348
1268 0 81.3949 13.0721 1064 124.518 22.657 485.17
1269 0 82.2949 13.5731 1117 123.871 22.2784 483.847
1270 0 83.3156 12.9988 1083 128.448 21.9261 483.035
1271 0 84.3028 13.2024 1113 128.52 22.7978 480.896
1272 0 86.2408 13.5435 1168 127.327 21.9906 479.483
1273 0 89.3351 12.2125 1091 130.96 22.4216 478.753
1274 0 91.2839 12.3023 1123 131.746 22.0009 477.5
1275 0 93.366 12.1457 1134 131.682 23.0071 477.272
1276 0 96.2629 12.6632 1219 129.297 23.4733 475.985
1277 0 99.3152 12.5056 1242 129.588 23.8849 474.58
1278 0 100.239 12.3904 1242 130.847 23.1441 472.977
1279 0 104.333 12.23 1276 129.48 22.2774 470.792
1280 0 107.257 12.2509 1314 128.823 22.7451 469.989
1281 0 108.198 12.4309 1345 129.685 22.4372 467.67
1282 0 112.287 12.5036 1404 127.506 22.6617 467.37
1283 0 117.234 12.7097 1490 126.524 22.4826 466.121
1284 0 121.204 12.9863 1574 125.483 22.6576 463.976
1285 0 124.265 12.8596 1598 124.853 23.1846 461.783
1286 0 127.277 12.7989 1629 124.418 22.7127 460.204
1287 0 131.382 12.5436 1648 125.661 22.929 458.851
1288 0 135.341 12.9451 1752 125.223 22.9292 455.333
1289 0 140.256 12.7339 1786 126.405 23.4059 455.39
1290 0 142.197 12.8554 1828 128.432 22.9568 452.19
1291 0 146.199 12.6814 1854 133.259 23.1429 450.278
1292 0 151.329 13.6391 2064 126.589 22.7602 447.646
1293 0 156.237 13.2107 2064 129.099 22.5218 444.936
1294 0 160.273 13.3772 2144 129.229 22.9925 444.117
1295 0 164.187 13.7039 2250 130.985 22.9062 441.896
1296 0 168.317 13.0408 2195 145.29 22.9585 440.872
1297 0 172.276 13.3797 2305 134.443 22.5072 439.344
1298 0 179.297 13.5976 2438 133.597 22.7309 434.848
1299 0 184.296 13.9558 2572 131.858 22.8379 434.177
1300 0 189.367 13.3444 2527 133.47 23.1045 432.121
1301 0 193.292 14.2634 2757 129.873 22.8865 428.219
1302 0 197.275 13.5851 2680 132.668 23.0754 425.983
1303 0 205.376 13.9013 2855 130.951 23.1646 422.579
1304 0 211.423 13.5179 2858 131.808 22.7481 418.822
1305 0 216.35 14.0467 3039 129.537 22.5169 415.185
1306 0 222.397 13.8626 3083 130.725 22.2449 406.281
1307 1 48.1381 8.68334 418 109.177 24.1866 499.373
1308 0 48.0511 9.11529 438 110 23.7123 497.208
1309 0 52.0515 10.9891 572 113.467 24.2657 501.614
1310 0 49.0408 9.46151 464 109.407 24.8211 504.418
1311 0 52.0754 9.54385 497 108.559 25.5211 502.646
1312 0 55.0753 10.0953 556 108.388 25.5719 502.496
1313 0 56.0384 10.011 561 108.8 25.1266 502.004
1314 0 58.1055 10.3605 602 111.076 25.2841 501.744
1315 0 60.1569 10.0404 604 112.293 25.2566 499.046
1316 0 61.0598 10.4324 637 112.83 24.9874 499.636
1317 0 62.1437 10.0412 624 115.152 24.9359 498.896
1318 0 65.1896 11.2595 734 112.023 25.0967 498.091
1319 0 66.103 10.287 680 114.704 25.2559 498.538
1320 0 68.1766 10.4875 715 113.681 24.9189 497.034
1321 0 70.1751 10.4453 733 112.719 25.1419 496.472
1322 0 70.1431 11.391 799 121.461 25.5181 494.854
1323 1 39.0174 10.2775 401 112.688 24.7531 509.382
1324 0 42.0163 10.5197 442 111.143 25.1312 508.885
1325 0 41.0314 10.3579 425 116.285 23.1718 507.953
1326 0 43.0558 10.2193 440 113.402 24.5182 506.832
1327 0 43.0543 11.0326 475 106.846 23.2779 507.232
1328 0 45.1162 10.9495 494 109.992 24.583 507.198
1329 0 46.1023 11.8866 548 107.807 22.823 506.947
1330 0 48.096 10.9781 528 106.091 22.5114 506.767
1331 0 49.077 10.7994 530 109.181 23.0038 505.96
1332 0 47.1134 9.7849 461 116.978 22.7852 506.694
1333 0 54.1683 11.3166 613 92.925 24.168 497.388
1334 0 50.1877 10.0224 503 104.111 24.2664 499.712
1335 0 53.0763 11.5871 615 97.9512 24.1967 495.566
1336 0 52.0335 9.03264 470 107.764 24.1234 496.46
1337 0 54.1304 8.97832 486 107.111 24.2737 495.934
1338 0 54.0639 9.02636 488 109.094 23.7725 496.689
1339 0 56.0798 10.3424 580 113.884 23.7241 502.122
1340 0 57.2044 10.0692 576 119.161 22.5382 504.264
1341 0 57.143 10.115 578 118.619 22.5554 503.803
1342 0 59.0751 10.2412 605 118.372 22.9702 505.129
1343 0 60.1596 10.3392 622 121.836 22.4904 502.746
1344 0 65.0236 11.888 773 110.189 21.4644 499.317
1345 0 67.0562 12.2136 819 110.01 22.5311 499.617
1346 0 69.0955 12.4176 858 109.064 22.162 497.253
1347 0 69.0803 11.7979 815 110.485 22.1387 496.279
1348 0 71.0921 12.2236 869 111.144 22.336 497.975
1349 0 70.093 11.8699 832 112.922 22.1815 497.606
1350 0 75.0711 13.2275 993 106.462 21.853 495.767
1351 0 73.0653 12.8378 938 152.607 19.903 494.668
1352 0 77.0632 12.5741 969 111.164 22.2363 493.225
1353 0 78.1301 13.0551 1020 111.282 22.1314 492.625
1354 0 82.0628 12.7829 1049 109.226 22.0181 492.913
1355 0 83.0401 13.1021 1088 110.987 21.0662 489.886
1356 0 86.2406 13.9493 1203 109.005 22.0474 489.514
1357 0 88.2456 12.4312 1097 114.824 22.0346 489.433
1358 0 89.1888 12.3895 1105 115.232 21.7647 487.762
1359 0 92.1458 12.7298 1173 116.066 22.3751 486.105
1360 1 49.0701 11.4326 561 115.396 22.3565 509.241
1361 0 52.1909 12.0327 628 114.594 23.1178 508.263
1362 0 53.0772 12.0391 639 113.402 21.8466 507.174
1363 0 52.0812 11.0981 578 106.363 23.5727 505.351
1364 0 55.0774 11.8742 654 104.783 23.6713 502.861
1365 0 56.0368 12.9736 727 109.212 23.7703 506.305
1366 0 58.1842 12.7182 740 110.142 23.8635 505.241
1367 0 55.0887 12.0351 663 115.807 22.4766 506.9
1368 0 55.1718 11.0201 608 118.232 22.4556 507.414
1369 0 58.1041 12.2883 714 115.371 22.5434 504.717
1370 0 60.1069 11.7291 705 115.945 22.2255 503.925
1371 0 62.1473 11.9233 741 113.441 22.6316 504.19
1372 0 63.1103 11.6463 735 115.619 23.5088 503.045
1373 0 63.1941 11.7891 745 116.76 23.4993 500.878
1374 0 66.1553 11.8509 784 115.167 23.5765 501.404
1375 0 68.2006 11.9061 812 113.328 23.0727 500.518
1376 0 70.1608 12.2291 858 111.036 22.8112 498.179
1377 0 74.185 11.9162 884 106.389 22.9446 497.265
1378 0 74.1476 12.0031 890 105.572 22.8247 497.29
1379 0 75.1658 12.2928 924 100.529 23.0411 497.315
1380 0 75.1196 12.1007 909 110.287 23.4015 495.745
1381 0 76.2005 12.1259 924 112.585 23.1623 496.165
1382 0 77.2192 11.8105 912 113.946 22.8871 495.438
1383 0 79.1622 11.8112 935 112.512 22.692 494.699
1384 0 80.1899 11.8594 951 110.568 22.4763 492.729
1385 0 83.1531 11.6652 970 108.07 22.0392 493.071
1386 0 86.2271 11.8176 1019 106.168 23.1089 492.02
1387 1 47.1288 11.6277 548 107.146 22.3339 510.058
1388 0 48.1166 11.8254 569 105.591 22.6011 508.872
1389 0 51.0803 12.5293 640 102.745 21.7172 507.38
1390 0 51.1214 12.2649 627 109.668 21.9809 506.258
1391 0 52.1903 12.4353 649 109.693 21.3652 505.831
1392 0 54.1928 12.6216 684 108.268 21.2602 505.934
1393 0 56.2135 12.5415 705 108.301 21.6482 504.41
1394 0 56.3462 12.4409 701 109.738 21.5307 504.719
1395 0 58.2273 12.9664 755 108.946 21.9417 504.58
1396 0 60.1928 12.6925 764 111.576 21.7631 502.669
1397 0 63.2073 12.5302 792 112.801 21.5341 501.231
1398 0 65.1918 12.3328 804 116.685 21.796 500.996
1399 0 63.1272 11.9125 752 123.436 21.6476 499.499
1400 0 67.1484 12.0777 811 122.005 21.9359 499.564
1401 0 68.1699 11.9261 813 124.368 22.5633 499.4
1402 0 71.1237 11.5011 818 128.949 22.5171 497.099
1403 0 70.2013 11.8231 830 132.561 21.3928 495.571
1404 0 73.2609 11.4386 838 133.173 21.4773 495.14
1405 0 75.294 11.3688 856 136.409 21.2792 493.252
1406 1 37.0867 10.435 387 128.475 23.5762 512.563
1407 0 38.1833 10.7115 409 124.812 23.4474 513.193
1408 0 40.1073 11.4443 459 126.17 23.7451 511.1
1409 0 41.1324 11.7183 482 130.124 23.7925 510.317
1410 0 41.0637 11.6405 478 127.967 23.3556 512.184
1411 0 43.159 12.257 529 127.834 23.3195 511.229
1412 0 42.0837 11.8098 497 133.221 23.4326 511.046
1413 0 44.0747 11.7301 517 132.822 23.5783 509.884
1414 0 46.0366 11.9905 552 130.953 21.5815 509.103
1415 0 47.0386 11.4799 540 131.05 21.0037 507.809
1416 0 47.0326 12.1618 572 131.874 21.3986 506.474
1417 0 49.0337 11.4615 562 137.886 21.726 506.943
1418 0 51.0428 12.0095 613 135.822 21.6509 507.855
1419 0 50.025 12.074 604 138.702 21.1308 507.81
1420 0 52.0272 11.9553 622 138.73 22.2797 505.286
1421 0 54.0397 12.0097 649 137.609 21.7119 505.772
1422 0 56.0321 11.5648 648 139.079 22.1651 504.767
1423 0 57.068 12.5289 715 135.79 21.6937 503.421
1424 0 59.0175 12.7928 755 133.328 22.0887 502.779
1425 0 58.0586 12.539 728 136.562 21.6772 502.198
1426 0 60.0281 12.6441 759 137.134 21.6574 500.345
1427 0 63.0194 12.1074 763 139.548 21.6645 498.752
1428 0 65.0381 12.0852 786 140.363 24.0674 499.861
1429 0 66.0253 12.4498 822 137.595 23.6959 499.221
1430 0 69.0581 12.8587 888 136.822 23.5946 499.293
1431 0 69.0909 12.346 853 141.648 23.7163 498.247
1432 0 71.0891 12.5195 890 140.133 23.9551 497.364
1433 0 75.0362 12.6339 948 138.629 23.5749 496.192
1434 0 75.0563 12.5106 939 141.755 23.7753 496.318
1435 0 77.0724 12.7413 982 142.221 23.7128 495.189
1436 0 76.0894 12.8796 980 144.348 24.0735 493.816
1437 0 78.0777 12.5644 981 148.895 23.9174 493.631
1438 0 76.081 12.8284 976 147.472 24.1055 493.161
1439 0 78.131 13.3238 1041 145.465 24.073 492.673
1440 0 81.0806 13.2461 1074 143.669 23.9935 491.929
1441 0 81.0904 13.1952 1070 146.563 23.6131 491.634
1442 0 82.0843 13.3643 1097 142.983 23.6481 489.098
1443 0 84.0984 13.4129 1128 141.47 23.7119 489.467
1444 0 92.2682 10.6104 979 135.901 20.666 329.662
1445 0 97.1985 9.29027 903 126.777 20.1838 310.369
1446 1 57.0789 10.5643 603 104.92 20.476 327.68
1447 0 56.1033 10.0707 565 102.244 19.8142 322.409
1448 0 52.0629 9.62298 501 99.9182 20.1657 321.182
1449 0 55.0808 10.2032 562 94.5801 19.7544 318.505
1450 0 53.0887 8.62707 458 94.8559 20.3581 303.917
1451 1 18.0855 5.36342 97 93.9072 20.0928 319.969
1452 0 23.0384 5.9466 137 87.9708 19.7664 322.949
1453 0 20.0031 6.79894 136 88.2721 20.1838 317.132
1454 0 20.0054 6.79817 136 85.8309 20.4706 320.522
1455 0 15.0014 5.59949 84 87.7857 20.119 325.786
1456 0 17.0131 4.87858 83 86.6265 20 327.542
1457 0 18.0021 4.83277 87 85.1494 20.1149 330.425
1458 0 21.0025 6.28495 132 88.0455 20.6894 303.795
1459 0 19.0228 7.30702 139 83.3237 20.2014 293.511
1460 0 19.0114 6.57499 125 84.328 19.832 294.888
1461 1 53.075 12.4729 662 144.379 19.0619 255.891
1462 0 55.0293 12.1935 671 140.826 19.0462 259.891
