time division length width area intensity CMx CMy
0 0 46.0765 13.6512 629 135.777 251.968 501.45
1 0 47.0945 14.4178 679 131.829 251.784 500.133
2 0 49.0959 13.9116 683 130.471 251.876 500.827
3 0 50.2184 14.417 724 126.456 252.081 501.134
4 0 50.238 14.4313 725 126.897 251.545 500.65
5 0 51.1511 15.1512 775 123.637 251.799 500.557
6 0 53.2751 14.7912 788 121.541 251.81 500.472
7 0 54.1248 14.4481 782 122.063 251.642 499.48
8 0 56.231 14.3337 806 120.2 251.484 499.02
9 0 56.1245 14.5213 815 120.037 250.982 497.454
10 0 60.1485 14.9297 898 114.032 251.122 497.44
11 0 60.2302 14.5442 876 115.862 250.662 496.462
12 0 62.1714 15.3447 954 112.22 250.114 496.194
13 0 65.2301 14.8244 967 110.792 250.142 494.013
14 0 67.1564 14.8459 997 108.121 249.872 490.632
15 0 69.1163 15.0037 1037 103.273 250.006 492.038
16 0 71.1448 15.4614 1100 101.239 249.312 491.771
17 0 69.1407 15.0852 1043 103.168 248.91 488.668
18 0 72.221 14.5941 1054 102.324 248.702 489.311
19 0 76.1924 14.8571 1132 99.7677 248.299 485.38
20 0 79.1661 15.7138 1244 95.3392 248.445 483.907
21 0 81.174 15.5345 1261 95.609 248.957 482.504
22 0 84.2215 15.8273 1333 93.5896 248.515 482.273
23 0 86.152 15.3798 1325 94.7253 248.592 480.245
24 0 89.1446 15.6039 1391 93.317 248.311 481.01
25 0 92.1728 15.5794 1436 93.2723 248.113 478.666
26 0 96.1614 16.1707 1555 91.5608 248.833 478.221
27 0 99.1905 15.818 1569 93.3601 248.533 475.531
28 0 101.111 15.2209 1539 94.8142 247.763 475.676
29 0 105.194 14.9534 1573 94.9479 247.754 473.556
30 0 108.137 14.6019 1579 96.3775 248.07 473.284
31 0 111.137 14.9365 1660 95.5771 248.166 471.125
32 0 117.237 15.0294 1762 94.0341 247.844 469.91
33 0 121.222 15.319 1857 92.1255 247.591 468.009
34 0 126.236 14.8927 1880 93.7479 247.479 464.836
35 0 130.286 15.228 1984 93.7016 247.183 461.665
36 0 136.318 15.2731 2082 92.2056 247.705 458.507
37 0 139.233 14.8457 2067 93.6062 247.386 455.987
38 0 144.296 14.5327 2097 94.6109 247.5 452.424
39 0 149.296 14.5885 2178 94.5712 247.245 450.834
40 0 154.257 15.3056 2361 92.9814 247.318 449.307
41 0 158.265 15.354 2430 92.8255 246.942 448.531
42 0 164.264 15.1768 2493 93.8299 247.161 444.091
43 0 169.259 14.7053 2489 96.3949 246.458 440.096
44 0 177.247 15.1991 2694 93.8337 246.967 437.727
45 1 90.1289 12.7595 1150 88.6974 247.227 477.232
46 0 94.1242 13.2272 1245 94.6578 247.732 476.414
47 0 97.1205 13.962 1356 93.7891 247.162 473.107
48 0 102.207 14.138 1445 100.136 247.688 474.56
49 0 104.184 14.1385 1473 99.095 247.486 472.93
50 0 108.208 14.1486 1531 97.7329 247.653 471.579
51 0 112.172 14.237 1597 98.4678 247.905 470.463
52 0 116.104 14.332 1664 97.2127 247.376 467.774
53 0 120.111 14.1869 1704 96.2758 247.079 465.883
54 0 126.145 14.515 1831 94.8651 247.484 462.504
55 0 129.162 14.0521 1815 95.6479 247.721 461.07
56 0 134.098 13.8555 1858 95.936 248.013 457.674
57 0 140.081 14.0347 1966 94.6333 247.532 454.348
58 0 145.162 13.8535 2011 95.5719 246.923 453.579
59 0 151.14 14.5229 2195 94.6474 247.209 449.369
60 0 156.213 15.1396 2365 91.7315 247.547 448.95
61 0 161.177 15.0394 2424 92.4711 246.963 445.637
62 0 165.266 14.4252 2384 94.1846 247.26 442.753
63 0 172.413 14.9177 2572 92.9355 247.035 441.25
64 0 178.361 14.9079 2659 93.5401 246.772 439.121
65 0 184.292 14.7267 2714 95.5866 247.38 434.79
66 0 189.384 14.3307 2714 96.262 246.565 433.461
67 0 197.247 14.9812 2955 96.2541 246.627 428.778
68 1 112.214 12.7881 1435 90.8488 246.491 473.881
69 0 115.252 13.2926 1532 89.923 247.375 470.71
70 0 120.259 12.9886 1562 90.8137 247.308 469.452
71 0 124.228 13.2498 1646 89.4417 247.058 467.215
72 0 129.208 13.6369 1762 88.9722 246.701 465.928
73 0 132.34 13.2915 1759 91.9142 246.474 462.392
74 0 137.365 13.1838 1811 94.0872 246.468 460.668
75 0 140.398 13.711 1925 96.0197 246.62 458.355
76 0 147.387 13.8818 2046 95.0186 246.072 452.91
77 0 153.227 14.038 2151 92.8684 246.321 452.721
78 0 158.184 13.5096 2137 89.8446 246.84 447.441
79 1 91.0571 11.5422 1051 86.8906 248.316 483.188
80 0 96.1618 12.5622 1208 84.7583 248.677 483.023
81 0 97.185 12.5019 1215 82.7539 247.849 480.433
82 0 99.1315 11.5806 1148 85.581 247.664 479.011
83 0 104.132 12.5321 1305 83.0659 247.798 477.93
84 0 107.174 12.7084 1362 83.9905 248.025 477.41
85 0 111.232 12.3077 1369 85.4967 247.695 473.5
86 0 115.138 12.1333 1397 88.7824 248.045 471.706
87 1 61.4082 9.94981 611 83.7856 249.308 497.782
88 0 62.3118 10.7363 669 83.8475 248.958 495.88
89 0 67.3409 12.0432 811 81.4562 249.784 493.424
90 0 68.1295 11.5662 788 83.665 247.994 493.547
91 0 68.0734 11.2379 765 85.9935 248.514 493.812
92 0 72.074 12.1958 879 83.4232 247.738 491.811
93 0 74.2137 12.1676 903 90.247 247.183 492.221
94 0 78.1677 13.1 1024 89.2578 247.105 490.533
95 0 80.123 12.4933 1001 91.1508 246.29 487.738
96 0 81.1199 12.0316 976 92.2418 246.222 487.699
97 0 85.1323 12.0049 1022 91.2045 246.359 486.523
98 0 88.1058 12.1104 1067 90.3618 246.134 485.037
99 0 92.0973 12.4759 1149 89.0792 246.103 485.018
100 0 92.0973 12.5519 1156 146.103 245.098 484.965
101 0 97.2919 12.9096 1256 90.7452 246.406 482.601
102 1 53.2301 10.3137 549 95.9763 247.077 503.998
103 0 52.3237 10.4733 548 91.8759 246.87 500.918
104 0 52.2586 11.1178 581 84.4957 246.969 495.064
105 0 55.0136 11.7789 648 93.7006 248.116 497.836
106 0 54.2341 11.6716 633 92.2701 246.826 502.188
107 0 58.1607 11.8981 692 91.3671 246.981 501.769
108 0 60.1227 11.9589 719 92.2643 246.631 501.477
109 0 60.1476 11.8708 714 93.5966 246.765 501.067
110 0 61.2329 12.183 746 93.6609 247.457 499.929
111 0 61.2224 12.1851 746 94.3499 246.627 498.85
112 0 65.1397 12.8186 835 92.2802 247.55 498.685
113 0 66.1631 12.3634 818 94.2751 247.48 496.921
114 0 68.2191 12.3866 845 93.9633 248.014 494.904
115 0 70.2099 12.5766 883 92.0815 247.438 493.539
116 0 72.1462 12.9598 935 93.2995 247.088 494.097
117 0 75.2314 12.9334 973 94.2076 246.584 492.53
118 0 76.1896 12.6001 960 94.799 247.3 491.615
119 0 80.3184 13.0356 1047 95.086 247.049 490.893
120 0 82.1429 13.2939 1092 92.4533 247.949 488.86
121 0 84.0611 13.395 1126 94.0924 247.844 487.766
122 0 87.1481 13.5402 1180 93.2051 248.075 487.487
123 0 90.1407 13.0574 1177 95.8912 248.615 485.783
124 0 91.1313 13.0691 1191 95.3241 248.423 484.751
125 0 93.1073 12.8776 1199 95.3578 248.208 483.807
126 0 96.1177 13.1297 1262 95.0412 247.825 482.321
127 0 101.096 13.0866 1323 94.3114 247.785 480.159
128 0 103.186 14.1686 1462 95.5985 247.899 478.504
129 1 55.1476 10.753 593 98.1585 249.236 502.165
130 0 57.0556 11.9007 679 94.9632 249.13 501.186
131 0 58.1134 12.4756 725 94.2234 247.025 501.492
132 0 60.118 12.8747 774 89.522 247.306 500.472
133 0 61.213 12.6117 772 90.8912 247.947 499.28
134 0 60.0903 12.398 745 90.4107 248.357 498.329
135 0 64.1969 12.0878 776 89.442 248.169 498.335
136 0 65.1169 12.5774 819 88.8474 248.405 497.306
137 0 65.1373 12.4506 811 89.0333 248.28 496.684
138 0 68.1422 12.562 856 89.0748 248.452 495.438
139 0 69.0843 12.6078 871 89.3307 247.96 495.602
140 0 72.0539 12.3935 893 89.8399 246.588 494.625
141 0 74.1137 13.2634 983 92.0407 245.593 494.513
142 0 77.0908 13.4906 1040 92.1635 246.187 493.29
143 0 78.0984 12.7403 995 95.7005 246.155 493.406
144 0 80.097 13.1965 1057 95.8155 246.251 490.433
145 0 83.0802 13.4448 1117 95.4109 245.992 490.73
146 0 87.1143 13.2125 1151 95.0565 245.972 489.681
147 0 89.1214 13.2965 1185 96.411 245.614 487.97
148 0 89.1291 13.1495 1172 96.9497 245.607 487.161
149 0 92.0768 13.1629 1212 97.7962 246.205 485.573
150 0 95.1326 13.0975 1246 98.4238 246.08 482.966
151 0 97.1015 13.7485 1335 97.5251 245.837 482.436
152 0 100.222 13.48 1351 99.2613 245.944 481.605
153 0 104.17 14.0444 1463 98.1722 245.843 479.69
154 0 105.151 13.8183 1453 100.088 245.604 477.683
155 0 107.121 13.4614 1442 101.718 245.971 477.314
156 0 112.098 13.952 1564 100.021 245.69 475.675
157 0 114.114 13.1359 1499 97.2702 246.985 473.868
158 0 119.162 13.6453 1626 95.8346 247.289 471.082
159 0 122.134 13.2068 1613 96.7136 247.33 469.978
160 0 129.153 14.0841 1819 94.083 247.655 467.599
161 0 132.444 13.7416 1820 98.0901 247.168 461.856
162 0 137.406 13.784 1894 97.6869 246.759 459.098
163 1 74.3109 12.34 917 93.7764 247.921 492.583
164 0 76.2862 12.4531 950 92.6158 247.529 490.017
165 0 79.1204 12.6769 1003 94.1117 247.441 490.516
166 0 80.1372 12.7656 1023 94.6804 247.137 489.841
167 0 84.1394 12.5387 1055 95.8891 247.179 487.265
168 0 85.1534 12.5656 1070 96.3626 247.557 485.992
169 0 88.0567 12.8894 1135 98.2123 246.328 484.194
170 0 92.1618 12.478 1150 98.6548 246.385 484.68
171 0 94.1083 13.442 1265 96.2506 247.113 483.625
172 0 96.2633 12.9125 1243 97.1529 246.781 479.975
173 0 100.133 12.6332 1265 92.2719 247.233 477.297
174 0 103.215 12.6436 1305 97.4322 246.638 474.729
175 0 108.153 13.1758 1425 91.1642 247.695 474.878
176 1 62.1047 12.1891 757 88.753 249.029 496.933
177 0 63.0551 12.2591 773 89.4799 248.714 498.248
178 0 65.0515 13.3125 866 92.1178 248.361 496.841
179 0 65.0344 12.1628 791 89.1783 246.944 497.196
180 0 66.0466 12.4155 820 89.5024 246.379 495.748
181 0 68.0968 12.2473 834 87.6703 246.283 496.741
182 0 70.0717 12.316 863 87.9467 246.024 494.188
183 0 72.0797 11.9174 859 88.0058 246.603 493.693
184 0 75.0715 12.5347 941 86.3454 246.581 491.687
185 0 76.1455 12.4761 950 86.9547 246.708 490.943
186 0 80.1149 12.3697 991 85.0151 246.747 490.212
187 0 83.0598 13.1472 1092 82.6355 246.528 487.714
188 0 87.1253 13.0502 1137 82.9894 246.051 486.282
189 0 88.0787 12.7159 1120 84.042 245.695 482.996
190 0 92.0999 12.7362 1173 83.8619 245.731 481.844
191 0 94.0433 12.0476 1133 86.2551 245.345 481.315
192 1 51.0959 10.6075 542 84.0849 244.891 504.089
193 0 52.2866 11.0736 579 82.2556 245.883 503.461
194 0 52.0683 10.7551 560 78.7268 245.155 503.114
195 0 54.0948 11.221 607 77.196 244.944 501.878
196 0 54.0487 11.6192 628 76.9363 245.279 501.525
197 0 56.1059 10.9258 613 77.5155 245.323 502.232
198 0 56.1039 11.7995 662 76.7251 245.437 501.523
199 0 57.0902 10.7724 615 78.7333 245.167 500.909
200 0 58.0528 11.369 660 77.5712 245.026 500.026
201 0 60.1123 10.7466 646 79.582 245.209 498.593
202 0 62.0839 10.9851 682 100.5 244.991 498.328
203 0 65.0718 12.0021 781 97.2574 245.732 496.776
204 0 66.1112 11.6622 771 99.1725 245.38 496.093
205 0 70.0533 12.1907 854 96.8396 244.535 494.165
206 0 70.0533 12.2193 856 151.081 244.553 494.088
207 0 76.0284 12.1139 921 94.7861 243.944 491.812
208 0 77.0644 11.964 922 95.2614 244.527 491.543
209 0 80.0395 12.4189 994 94.84 244.474 489.197
210 0 84.1381 12.1823 1025 94.0459 245.072 487.645
211 0 87.0452 12.706 1106 92.7911 244.362 486.596
212 0 87.0563 12.2679 1068 94.3024 244.483 486.719
213 0 93.0495 12.6922 1181 92.4776 243.862 484.537
214 1 48.0439 10.5112 505 95.2436 247.085 506.149
215 0 50.061 11.0066 551 93.4646 246.804 505.472
216 0 53.0931 11.4704 609 95.2282 246.305 505.153
217 0 51.0267 11.0334 563 100.135 246.54 503.103
218 0 51.1131 11.2691 576 88.3333 245.589 505.767
219 0 51.0491 10.9503 559 92.8909 243.977 504.542
220 0 52.0153 11.1698 581 92.969 244.019 503.324
221 0 55.0571 11.6606 642 92.8302 244.173 502.844
222 0 56.0502 10.562 592 96.0861 244.458 504.002
223 0 59.0592 11.9541 706 92.7705 244.331 501.101
224 0 61.063 11.7092 715 93.5566 244.856 500.917
225 0 62.0818 11.7748 731 94.6252 244.207 499.19
226 0 65.0977 11.5058 749 93.9586 244.239 498.59
227 0 66.0282 12.2069 806 93.9901 243.697 496.973
228 0 68.0469 11.6243 791 96.1479 244.556 496.683
229 0 70.042 12.207 855 97.3216 243.763 495.011
230 0 70.0157 12.1259 849 98.4664 243.987 494.126
231 0 74.0652 12.2865 910 98.9044 244.484 492.625
232 0 77.0245 12.7622 983 98.4649 244.442 492.379
233 0 79.0374 12.0323 951 102.121 244.202 490.982
234 0 82.0315 11.4834 942 105.964 243.442 490.106
235 0 85.0777 12.2711 1044 100.655 243.628 488.389
236 1 45.0137 10.5746 476 104.164 243.433 507.435
237 0 46.0182 11.2999 520 100.481 243.317 507.967
238 0 45.0377 11.1906 504 103.974 243.851 507.278
239 0 50.0464 11.1896 560 103.03 243.307 506.5
240 0 50.025 12.074 604 103.118 243.742 504.303
241 0 51.126 11.9704 612 91.5605 246.859 505.198
242 0 50.1442 11.0681 555 94.7117 246.434 505.955
243 0 52.1435 11.1999 584 94.3887 244.839 505.712
244 0 54.0842 11.7225 634 93.6609 245.943 505.415
245 0 54.1018 11.4784 621 95.6812 246.035 503.905
246 0 55.1183 11.9198 657 94.8158 245.569 504.253
247 0 57.318 11.8985 682 94.412 245.364 502.826
248 0 57.2083 12.3059 704 94.0014 245.186 502.365
249 0 59.1408 12.5294 741 93.5897 244.645 501.717
250 0 61.1274 11.3697 695 95.6676 245.081 501.013
251 0 65.1377 12.1896 794 95.0227 246.2 498.751
252 0 65.1363 12.0056 782 95.3286 245.572 497.629
253 0 68.2073 12.506 853 95.7022 246.141 497.971
254 0 69.1865 11.6497 806 94.1216 245.669 495.971
255 0 72.2126 12.3247 890 95.7449 245.436 495.36
256 0 76.1658 12.2233 931 93.2546 245.697 496.475
257 0 78.1787 13.418 1049 93.3794 245.93 493.635
258 0 81.1271 12.8317 1041 91.8934 245.973 492.245
259 0 85.1609 13.3629 1138 90.2417 245.083 491.226
260 0 87.2517 13.3063 1161 91.2145 245.809 487.972
261 1 49.058 10.9055 535 99.8131 246.617 508.026
262 0 49.0837 11.4091 560 98.7821 246.664 506.107
263 0 51.0199 11.1329 568 98.5581 245.873 506.972
264 0 53.019 11.958 634 92.5221 246.041 506.254
265 0 52.0621 12.5811 655 90.8427 243.95 505.56
266 0 56.036 12.4027 695 101.259 246.301 504.604
267 0 56.0597 12.3261 691 101.187 245.845 503.456
268 0 58.0548 12.4021 720 100.774 245.424 502.743
269 0 60.0482 12.0237 722 101.129 245.749 501.967
270 0 59.06 12.8005 756 100.492 245.646 500.595
271 0 63.0278 13.264 836 97.006 245.762 500.565
272 0 64.0243 12.6514 810 99.5235 245.138 499.575
273 0 67.0292 12.9794 870 98.1954 245.438 499.126
274 0 68.0237 12.9808 883 98.9524 245.245 497.439
275 0 71.1561 13.0136 926 100.162 245.585 495.974
276 0 73.1067 13.1041 958 99.4374 246.146 496.176
277 0 73.1067 13.1862 964 175.801 247.146 496.211
278 0 77.0457 13.4206 1034 96.0164 245.609 493.662
279 0 79.198 12.4372 985 102.126 246.485 492.003
280 0 81.2009 13.3989 1088 100.324 245.823 491.166
281 0 82.2495 13.1065 1078 101.28 245.439 490.54
282 0 84.1942 13.1719 1109 100.285 245.737 489.362
283 0 87.2574 13.2252 1154 100.268 245.652 487.676
284 0 89.2285 13.1684 1175 99.4894 245.855 487.031
285 0 93.2676 13.606 1269 97.6596 245.227 486.03
286 0 95.276 13.0988 1248 98.5721 245.492 484.905
287 0 95.2644 13.2054 1258 99.686 245.157 482.727
288 0 98.1217 12.7495 1251 96.9281 245.882 481.723
289 0 102.12 13.1316 1341 95.6786 245.16 482.103
290 1 53.0526 10.7818 572 95.1224 244.769 505.888
291 0 54.0344 10.5673 571 83.4308 244.669 504.585
292 0 56.0501 11.1329 624 81.4679 244.226 501.917
293 0 58.051 11.5933 673 80.4606 244.449 502.468
294 0 59.0682 11.292 667 83.3103 243.901 500.268
295 0 61.0231 11.6841 713 81.8205 243.853 500.187
296 0 65.0267 13.3945 871 80.6096 243.6 499.822
297 0 66.0755 13.2122 873 81.2451 244.05 498.517
298 0 68.0862 13.2039 899 93.6485 244.808 497.511
299 0 71.117 13.9207 990 91.9131 244.656 496.724
300 0 73.1354 13.5092 988 91.8704 244.82 497.439
301 0 76.1821 12.7064 968 94.9969 244.61 493.833
302 0 77.1423 13.1316 1013 96.7878 243.88 493.399
303 0 79.1111 12.552 993 99.7633 244.439 492.552
304 0 83.1453 13.3381 1109 99.0361 243.968 490.896
305 0 85.1567 13.5045 1150 98.8209 243.69 489.05
306 0 86.1477 13.2447 1141 99.716 244.695 488.521
307 0 88.0983 12.8266 1130 99.3204 244.176 488.327
308 0 92.1562 13.9003 1281 99.5761 244.428 488.892
309 0 93.328 13.8865 1296 101.4 244.709 485.983
310 0 96.3405 13.7118 1321 101.868 244.23 484.926
311 0 97.1779 13.3775 1300 104.402 244.297 483.084
312 0 100.075 12.3607 1237 97.6483 245.357 483.019
313 0 104.138 12.954 1349 93.5834 244.494 482.979
314 0 106.145 13.1141 1392 93.3046 244.095 481.927
315 0 112.14 12.2437 1373 94.8128 244.548 479.924
316 1 57.0406 11.8512 676 90.5843 244.543 506.155
317 0 59.018 12.3861 731 89.1368 243.999 504.834
318 0 62.1352 12.0704 750 89.6747 244.672 504.575
319 0 64.1267 12.1478 779 91.3697 244.313 503.901
320 0 64.0986 12.6368 810 90.8667 244.122 502.511
321 0 66.1128 12.8719 851 90.5053 243.703 501.589
322 0 69.0629 12.3511 853 91.8453 243.46 500.429
323 0 71.1109 12.2766 873 94.575 243.593 499.354
324 0 76.1706 13.2072 1006 91.3628 244.105 498.946
325 0 78.1265 12.4926 976 94.2695 243.489 498.103
326 0 80.1755 12.9466 1038 96.8632 243.712 496.314
327 0 83.1388 12.834 1067 93.0375 243.13 494.086
328 0 85.1929 12.1372 1034 95.0706 242.855 493.367
329 0 88.0943 11.8509 1044 97.2998 243.041 491.41
330 0 92.2759 12.3651 1141 96.4961 243.237 490.661
331 1 49.146 11.1912 550 89.8618 243.38 513.184
332 0 49.1319 11.1944 550 91.1873 242.307 511.26
333 0 50.0359 11.2319 562 92.1762 242.194 511.174
334 0 51.3765 11.6006 596 93.8372 243.523 506.344
335 0 55.0422 12.1543 669 91.0867 241.954 508.395
336 0 56.0517 12.0068 673 92.3314 241.41 506.639
337 0 58.1201 12.4226 722 89.0526 241.553 507.259
338 0 60.197 12.6917 764 87.8233 242.518 506.48
339 0 62.2155 12.6335 786 89.0089 243.24 505.317
340 0 63.1895 12.7553 806 89.0868 242.821 503.61
341 0 63.1818 12.6144 797 90.3501 243.578 503.045
342 0 67.2006 12.7975 860 88.236 242.733 502.21
343 0 68.0997 12.188 830 87.3627 241.11 501.877
344 0 71.0471 12.7802 908 86.8491 240.396 500.983
345 0 74.1073 13.1836 977 84.5005 240.627 500.405
346 0 75.0557 13.2568 995 85.8985 240.721 498.376
347 0 78.1257 12.8639 1005 86.8806 239.972 497.796
348 0 79.0407 12.8794 1018 88.7701 239.881 496.809
349 0 80.0946 11.6487 933 93.03 240.026 494.919
350 0 82.0959 11.9616 982 93.0122 240.137 494.341
351 0 86.1207 11.6348 1002 94.3633 240.1 491.762
352 1 44.0134 10.6104 467 90.06 239.891 512.516
353 0 44.0198 10.1318 446 90.2915 240.209 512.126
354 0 46.0274 11.5366 531 88.2298 240.243 511.043
355 0 49.0515 11.4981 564 87.1755 240.319 511.105
356 0 50.0316 12.2123 611 86.7267 239.682 509.655
357 0 50.2124 11.9691 601 85.02 242.865 509.74
358 0 50.1468 11.227 563 88.2327 243.14 508.453
359 0 51.2278 11.849 607 87.5618 241.853 508.048
360 0 54.2356 12.4641 676 83.8713 242.572 507.423
361 0 52.1965 11.1119 580 88.5862 242.403 508.829
362 0 54.242 10.8588 589 86.6061 243.051 506.776
363 0 56.2844 10.8734 612 85.799 243.175 505.709
364 0 56.2326 10.7055 602 85.1279 243.297 507.179
365 0 57.1377 11.1835 639 82.9327 242.513 506.374
366 0 60.2133 11.642 701 81.7746 243.411 504.766
367 0 64.1513 11.8938 763 80.5046 243.713 503.704
368 0 65.1918 11.2744 735 82.0898 243.068 501.11
369 0 68.2124 11.6694 796 81.6407 242.997 501.535
370 0 70.2165 11.4218 802 82.5461 242.796 499.13
371 0 71.1795 11.1549 794 84.267 242.719 497.098
372 0 75.2092 11.355 854 83.1932 242.597 496.274
373 0 77.1721 11.7141 904 82.9558 243.143 496.142
374 0 81.1889 11.2454 913 82.6955 242.653 493.975
375 1 42.0698 10.4826 441 84.7891 243.85 511.796
376 0 43.0817 9.93461 428 86.9813 243.862 512.049
377 0 44.0568 10.0779 444 87.8468 244.635 510.984
378 0 46.007 10.4332 480 88.4542 244.204 510.358
379 0 49.0494 11.6006 569 86.9033 243.731 508.847
380 0 50.0618 11.326 567 90.1446 243.974 506.06
381 0 53.0769 12.3594 656 88.3963 243.71 506.242
382 0 53.2724 11.3192 603 95.5141 241.985 504.804
383 0 56.1799 12.3532 694 92.2968 243.061 504.509
384 0 55.2122 11.7909 651 87.0952 243.748 506.313
385 0 57.2086 11.8514 678 85.7006 243.547 504.757
386 0 57.2339 11.0075 630 87.9603 243.884 503.83
387 0 60.1614 11.7517 707 86.4738 243.813 502.45
388 0 62.2205 11.5878 721 86.8363 243.76 500.634
389 0 64.1946 11.3561 729 88.9246 243.263 498.813
390 0 67.1362 11.9459 802 87.4065 243.531 497.677
391 0 68.1672 12.308 839 87.3468 243.225 496.439
392 0 68.1672 12.3226 840 125.089 242.229 496.404
393 0 71.1583 11.8047 840 91.9464 243.758 494.413
394 0 73.2033 11.5022 842 93.0416 243.138 492.599
395 0 79.1663 12.998 1029 88.7697 243.608 493.498
396 0 83.1357 13.5922 1130 87.6363 244.139 493.181
397 0 84.1808 13.3641 1125 92.6187 244.178 490.193
398 0 87.203 13.2564 1156 93.5926 244.675 491.433
399 0 91.1834 13.7086 1250 93.2688 243.974 489.739
400 0 94.2406 14.134 1332 92.1419 244.466 487.464
401 0 97.1459 13.7422 1335 92.5243 243.921 484.547
402 0 99.2764 13.961 1386 92.4076 244.504 482.565
403 1 50.1275 12.4483 624 97.1827 245.035 506.117
404 0 51.2083 12.2441 627 99.6045 246.088 506.223
405 0 52.2827 12.6046 659 99.3687 245.965 505.279
406 0 55.2918 13.6006 752 97.3338 245.282 505.037
407 0 57.1396 13.5633 775 99.5445 245.188 505.661
408 0 58.0313 13.441 780 99.8141 244.779 506.006
409 0 57.0716 13.0888 747 102.296 244.119 505.224
410 0 60.1352 13.1371 790 100.409 243.459 504.247
411 0 62.0602 13.3097 826 100.753 244.407 502.78
412 0 64.2211 13.3601 858 101.858 244.617 500.871
413 0 67.1867 13.3955 900 100.326 243.633 499.127
414 0 70.1735 13.7374 964 97.5207 244.599 498.837
415 0 72.1548 13.5819 980 97.8592 244.219 497.829
416 0 73.1812 13.5964 995 99.5095 244.276 495.948
417 0 74.2717 13.7064 1018 100.835 244.511 494.552
418 0 77.2134 13.6375 1053 106.272 244.201 492.435
419 0 80.2024 13.5407 1086 106.122 244.229 491.541
420 0 84.2253 13.9863 1178 103.786 244.292 488.95
421 0 85.2214 13.7172 1169 102.833 244.569 488.541
422 0 89.1706 13.8723 1237 101.321 244.25 486.666
423 0 91.2068 14.2533 1300 99.91 243.911 485.165
424 0 94.225 13.4678 1269 101.821 244.334 483.143
425 0 97.1885 13.8494 1346 102.919 244.319 481.553
426 0 102.185 14.3465 1466 98.4966 243.706 480.362
427 0 105.133 13.5068 1420 100.696 243.089 477.956
428 0 107.153 14.1854 1520 99.5138 243.453 475.618
429 0 111.184 13.7789 1532 100.315 243.082 473.92
430 0 115.293 13.9904 1613 98.8407 243.172 470.689
431 0 120.398 13.7793 1659 97.7251 243.958 469.728
432 0 123.269 13.7504 1695 97.6277 243.004 466.149
433 0 127.173 13.7372 1747 97.8031 243.294 462.947
434 0 131.256 13.3099 1747 98.9823 243.244 460.496
435 1 70.0915 11.0284 773 90.37 243.828 493.818
436 0 73.0948 11.0952 811 91.1282 243.208 492.469
437 0 74.1585 11.2327 833 91.4202 243.647 489.759
438 0 78.044 11.2116 875 88.7371 244.395 492.767
439 0 79.1338 11.2973 894 83.5861 243.008 495.223
440 0 81.1419 10.8822 883 84.624 242.982 494.403
441 0 82.1903 10.8772 894 85.6432 243.3 492.48
442 0 86.2279 11.3884 982 83.4369 243.999 492.018
443 0 89.2561 11.6183 1037 82.7869 243.276 487.829
444 0 89.1921 10.7969 963 85.1952 243.468 487.902
445 0 95.2764 12.1331 1156 81.7846 242.771 486.786
446 0 97.1669 11.9691 1163 84.779 243.175 486.353
447 0 98.242 11.2884 1109 86.9342 242.942 484.372
448 0 100.217 11.4452 1147 88.0985 243.346 482.05
449 0 105.252 11.5627 1217 85.9556 243.514 481.477
450 0 108.204 11.5985 1255 86.29 243.723 480.144
451 0 111.229 11.6426 1295 89.5459 243.014 477.633
452 0 116.195 11.6098 1349 90.2172 243.063 475.328
453 1 68.105 11.4676 781 87.1088 244.329 499.229
454 0 70.0915 11.0427 774 90.9974 243.683 496.234
455 0 71.0335 11.3327 805 90.8261 245.272 496.545
456 0 74.0275 11.4822 850 90.3788 244.631 495.561
457 0 71.0715 9.8211 698 83.6375 243.49 498.107
458 0 75.1046 10.0793 757 85.2127 244.318 496.775
459 0 76.1112 10.1825 775 86.2503 244.871 495.84
460 0 78.1678 10.0937 789 86.2839 244.989 492.156
461 0 82.2973 10.3163 849 86.96 244.33 490.111
462 0 86.2268 10.2752 886 86.9074 244.678 488.72
463 0 87.1611 9.88973 862 88.9965 244.271 488.028
464 0 87.1611 9.91268 864 131.928 244.26 488.008
465 0 94.2686 10.2897 970 88.9206 243.823 485.047
466 0 97.2124 10.1222 984 89.8089 244.272 482.511
467 0 99.2418 10.3182 1024 89.0977 243.749 478.823
468 0 102.21 10.4001 1063 88.2672 243.838 480.015
469 0 105.213 9.09581 957 91.6782 243.395 477.903
470 1 56.1004 9.8395 552 85.8859 244.092 502.232
471 0 59.0544 10.4649 618 81.9547 244.235 502.387
472 0 61.0842 10.6574 651 81.9447 243.685 501.541
473 0 61.0747 10.5281 643 83.283 243.611 501.403
474 0 59.0781 9.54669 564 86.4876 242.952 503.271
475 0 61.1247 9.816 600 85.3283 242.955 503.475
476 0 59.1542 9.41608 557 87.7145 243.361 501.686
477 0 64.1289 9.15345 587 86.4157 243.273 500.605
478 1 125.576 9.26927 1164 93.7741 243.04 469.049
479 1 190.011 10.2099 1940 97.9361 242.267 440.611
480 1 72.2507 10.8096 781 79.306 243.149 496.141
481 0 74.1951 10.5802 785 80.8522 242.961 493.678
482 0 76.1475 10.6241 809 80.4054 242.624 492.906
483 0 78.2211 10.7004 837 81.4552 242.895 491.072
484 0 81.2047 11.785 957 80.7941 242.788 491.859
485 0 82.1507 10.6755 877 83.7104 242.391 489.413
486 0 83.245 10.7994 899 83.2848 242.344 489.773
487 0 87.2658 11.2759 984 82.3821 242.763 488.021
488 0 89.1391 11.5213 1027 81.5511 242.091 487.271
489 0 93.1784 11.8482 1104 81.1803 241.688 484.281
490 0 95.1092 11.6392 1107 81.6965 242.176 484.674
491 0 97.1512 11.1373 1082 82.9196 242.564 482.559
492 0 98.1625 11.4402 1123 82.9305 242.138 479.576
493 0 102.238 11.7569 1202 82.9634 241.459 479.671
494 0 104.213 11.5245 1201 84.0033 242.199 478.849
495 0 107.136 11.5648 1239 85.4092 241.981 478.548
496 0 109.195 11.6855 1276 85.3299 242.781 476.116
497 0 113.243 11.8418 1341 85.4877 242.221 473.514
498 0 115.168 12.0085 1383 86.2654 242.503 472.44
499 0 119.199 12.6511 1508 86.3893 242.099 470.781
500 0 124.173 13.3926 1663 85.8611 241.777 469.55
501 0 127.248 13.6584 1738 86.5282 242.072 466.974
502 0 130.204 13.0104 1694 86.8028 241.657 466.366
503 0 133.277 13.3932 1785 86.6347 241.779 465.976
504 0 137.332 13.2235 1816 86.1999 241.716 460.398
505 0 143.219 13.3292 1909 85.7706 240.912 459.48
506 0 147.332 12.8553 1894 85.9155 241.207 456.775
507 0 151.232 13.2114 1998 85.1321 241.141 452.478
508 0 154.269 12.8606 1984 86.7339 241.541 449.527
509 0 160.437 13.0394 2092 86.3552 240.69 448.696
510 0 165.426 13.5348 2239 86.3524 240.354 445.53
511 0 171.468 13.6702 2344 86.8106 239.928 444.122
512 0 175.422 13.9435 2446 87.007 241.233 442.302
513 0 178.382 13.5104 2410 88.005 241.242 437.539
514 0 183.382 12.6458 2319 89.677 241.665 439.26
515 0 187.275 12.4042 2323 90.0168 241.506 433.972
516 0 195.318 13.7212 2680 87.2593 241.093 431.064
517 0 201.376 13.1892 2656 88.5166 240.829 428.4
518 0 207.234 13.381 2773 90.5903 240.76 425.035
519 0 214.366 13.2064 2831 90.2469 240.78 423.623
520 0 222.331 13.255 2947 89.7733 240.215 419.498
521 0 229.378 13.0701 2998 90.1408 240.4 413.303
522 0 238.392 13.4946 3217 90.7709 239.977 413.688
523 1 67.0368 11.3818 763 83.5413 239.946 501.088
524 0 68.0601 12.0482 820 79.6268 239.745 499.167
525 0 69.0783 12.1456 839 78.7533 241.61 500.685
526 0 71.1118 11.8686 844 80.9882 241.233 500.411
527 0 74.1253 13.1669 976 79.415 241.263 498.642
528 0 75.1073 12.0228 903 82.7043 241.643 497.798
529 0 80.1079 12.2085 978 81.8691 240.735 495.922
530 0 83.139 13.0745 1087 79.8795 240.883 494.048
531 0 88.1499 12.9212 1139 79.0246 241.02 493.903
532 0 88.1248 12.4256 1095 81.7297 241.345 492.758
533 0 89.1499 11.5199 1027 86.2483 241.286 493.574
534 0 95.2027 12.3211 1173 83.5362 241.131 492.671
535 0 96.1157 11.7879 1133 85.1015 240.656 491.455
536 0 102.176 11.2257 1147 85.4752 241.442 489.016
537 1 53.168 12.1502 646 84.9118 241.015 509.717
538 0 57.045 12.0957 690 85.8304 242.017 507.871
539 0 54.1199 11.1234 602 82.1346 240.369 510.329
540 0 55.0849 10.8015 595 83.3832 240.071 509.65
541 0 58.1204 10.9084 634 82.3549 240.541 509.213
542 0 60.1145 11.2286 675 82.8444 240.336 507.603
543 0 63.0248 10.9163 688 85.6352 239.363 504.109
544 0 64.1017 9.85933 632 85.1677 239.877 505.372
545 0 67.2081 10.9064 733 82.8513 240.031 503.25
546 0 69.2396 10.3409 716 82.9148 239.936 503.398
547 0 71.3306 10.8509 774 81.8979 240.026 501.681
548 0 77.3257 11.9365 923 79.8494 239.907 500.134
549 0 79.3115 11.9781 950 79.3126 239.959 499.712
550 0 82.2645 11.9128 980 79.502 239.792 497.773
551 0 85.2468 11.977 1021 80.0118 239.347 496.77
552 0 87.5488 11.9019 1042 81.0192 239.727 495.457
553 1 45.4018 12.4224 564 83.0213 241.028 514.658
554 0 46.3283 12.3251 571 81.5447 241.385 514.489
555 0 47.3221 12.2353 579 85.5855 241.149 514.035
556 0 50.3226 12.4 624 85.2917 241.171 512.231
557 0 50.209 12.5874 632 86.0997 240.926 513.057
558 0 50.3294 12.4579 627 88.0989 240.898 512.257
559 0 53.2674 12.8596 685 86.0102 240.937 511.653
560 0 54.2722 12.7321 691 85.8162 240.931 511.42
561 0 54.2672 13.1203 712 85.25 240.785 509.478
562 0 54.255 13.2707 720 86.4847 240.901 509.226
563 0 56.328 12.8178 722 87.3158 240.875 509.594
564 0 57.2344 13.5059 773 86.7167 241.212 508.966
565 0 58.2921 12.5231 730 87.4247 240.878 509.197
566 0 59.2414 12.3056 729 83.6708 241.558 509.364
567 0 59.1617 12.2715 726 85.4036 241.488 507.044
568 0 61.2259 12.56 769 84.671 241.01 507.883
569 0 63.1999 12.8956 815 85.6687 241.696 506.184
570 0 67.2014 12.5741 845 87.0178 241.785 504.317
571 0 68.1031 14.0082 954 84.5168 242.59 503.191
572 0 72.1209 12.895 930 86.757 242.176 502.325
573 0 74.1671 13.5505 1005 85.209 241.808 500.525
574 0 75.1387 13.1756 990 87.5354 241.71 499.268
575 0 78.2066 13.3365 1043 91.3317 242.72 498.083
576 0 80.1459 13.438 1077 88.6156 241.633 497.013
577 0 84.218 13.6432 1149 91.5587 241.703 496.361
578 0 85.1825 13.43 1144 95.8182 241.986 494.973
579 0 87.1179 13.5793 1183 95.9806 241.732 493.884
580 0 90.2013 13.8468 1249 94.518 241.576 492.818
581 0 93.2127 13.7642 1283 95.5253 241.248 491.097
582 0 93.2214 13.6235 1270 96.8433 241.262 490.667
583 1 50.2313 11.8651 596 98.4295 241.359 511.847
584 0 51.1849 11.9762 613 99.584 241.442 510.667
585 0 53.199 12.9326 688 97.4026 241.016 509.725
586 0 55.2932 13.2385 732 96.7869 240.434 508.877
587 0 55.2724 13.2073 730 89.0534 240.352 508.749
588 0 55.3576 11.6877 647 95.2411 240.558 508.968
589 0 59.2852 12.1953 723 94.3693 241.068 507.389
590 0 60.3975 12.3681 747 93.7336 240.344 506.3
591 0 61.4924 11.8389 728 97.0934 241.076 505.422
592 0 64.3476 12.7277 819 95.8034 240.64 503.297
593 0 67.1181 12.3663 830 95.5663 240.102 504.323
594 0 69.1314 11.9627 827 93.1028 240.493 504.653
595 0 73.1303 12.2521 896 92.2109 240.109 501.458
596 0 73.221 11.7999 864 94.2928 239.992 501.19
597 0 78.1609 13.5746 1061 91.3893 240.204 499.153
598 0 81.1828 13.525 1098 97.0956 239.336 498.588
599 0 83.1077 13.1997 1097 98.8113 239.22 497.049
600 0 85.0842 13.3867 1139 100.467 239.528 496.313
601 0 90.136 13.4463 1212 100.815 239.271 494.973
602 0 93.1587 14.1264 1316 99.5881 239.126 493.495
603 0 94.2404 13.6459 1286 101.733 239.622 491.096
604 0 98.3077 13.7324 1350 102.128 238.83 489.913
605 0 100.212 13.9804 1401 103.873 239.135 488.228
606 0 103.215 14.0095 1446 104.487 239.288 486.42
607 0 107.32 14.2471 1529 105.436 239.466 485.737
608 0 107.29 13.9342 1495 110.027 239.095 483.676
609 0 112.357 14.1158 1586 110.655 239.655 480.087
610 1 59.379 11.8897 706 110.363 240.545 507.235
611 0 61.454 12.9853 798 106.318 241.001 506.036
612 0 64.3586 13.4248 864 105.867 240.653 503.907
613 0 67.4488 13.7882 930 108.132 240.741 503.923
614 0 69.507 13.3224 926 110.941 240.517 500.392
615 0 71.5648 13.2747 950 112.422 241.205 498.689
616 0 72.6512 13.2689 964 113.733 240.942 497.752
617 0 77.5312 13.401 1039 112.771 241.081 496.299
618 0 78.5451 13.088 1028 115.03 240.602 494.606
619 0 81.5106 13.1885 1075 116.108 240.263 494.054
620 0 83.5618 13.0921 1094 115.172 240.998 491.712
621 0 85.5287 13.3289 1140 116.325 241.481 491.535
622 0 90.5352 13.7847 1248 113.756 241.115 490.12
623 0 93.7779 14.0225 1315 113.523 240.922 487.975
624 0 96.5184 13.6243 1315 114.974 240.706 486.512
625 0 100.578 13.9494 1403 114.95 240.396 485.399
626 0 103.502 13.6422 1412 117.618 241.087 481.952
627 0 103.502 13.6518 1413 173.141 241.081 481.962
628 1 55.3794 12.297 681 114.107 241.888 505.219
629 0 57.4543 11.8529 681 113.821 241.935 504.198
630 0 60.5091 12.5931 762 111.749 242.572 503.042
631 0 60.3941 12.5674 759 113.277 241.789 501.497
632 0 62.4571 12.5046 781 112.519 242.252 500.649
633 0 64.5146 12.4468 803 112.125 242.086 501.052
634 0 66.5039 12.7812 850 109.896 242.378 500.142
635 0 69.5259 12.4846 868 110.022 242.353 499.013
636 0 69.5135 12.6163 877 109.45 242.277 497.822
637 0 71.5939 12.8642 921 108.879 242.092 497.387
638 0 76.5504 12.998 995 108.046 241.431 495.4
639 0 78.5708 12.5874 989 107.917 242.399 493.476
640 0 80.6295 12.6505 1020 107.091 241.241 492.418
641 0 84.5706 12.7231 1076 106.576 241.455 490.959
642 0 87.6422 12.8705 1128 105.414 241.478 489.607
643 0 89.4476 12.4654 1115 105.966 241.383 488.284
644 0 91.5776 12.6668 1160 105.133 241.222 486.695
645 0 94.5061 12.7611 1206 104.511 241.737 484.795
646 0 97.5337 12.7648 1245 104.966 241.645 480.865
647 0 101.413 12.7695 1295 104.136 241.119 481.066
648 1 54.2589 11.0212 598 100.52 242.615 504.721
649 0 56.2391 11.8067 664 101.828 242.608 501.953
650 0 58.332 11.9145 695 100.623 241.96 503.19
651 0 61.3382 12.4718 765 97.1516 242.227 501.89
652 0 60.3899 12.4193 750 98.096 242.161 501.147
653 0 61.319 11.8723 728 100.085 241.716 499.526
654 0 64.282 12.4452 800 97.5525 242.344 499.21
655 0 65.2614 11.9979 783 98.7369 242.258 498.571
656 0 66.2652 11.8463 785 108.233 242.294 496.637
657 0 70.209 12.9613 910 102.829 242.008 495.232
658 0 73.3225 12.4655 914 104.09 242.5 494.399
659 0 75.2606 12.5165 942 103.916 242.53 493.16
660 0 77.1391 12.5228 966 103.203 242.864 492.743
661 0 78.1898 12.0604 943 105.577 242.884 490.372
662 0 83.0875 13.0585 1085 101.436 243.062 490.288
663 0 85.142 12.8726 1096 101.512 242.284 488.588
664 0 88.2488 13.1107 1157 101.129 242.272 487.991
665 0 90.1091 12.6291 1138 103.648 241.993 485.496
666 0 92.1061 12.4639 1148 102.053 242.159 485.675
667 0 96.1576 12.3235 1185 98.719 242.065 483.29
668 1 52.0157 10.343 538 91.0409 243.167 507.671
669 0 52.0103 11.44 595 91.5849 242.539 507.039
670 0 54.049 11.3601 614 89.9528 242.635 504.915
671 0 55.0683 11.9125 656 92.3857 243.099 502.988
672 0 56.0402 12.2234 685 92.6453 244.025 504.098
673 0 58.076 11.6055 674 93.9273 243.853 503.387
674 0 59.0215 11.6907 690 92.2058 242.48 501.394
675 0 60.0377 12.5754 755 90.7232 242.897 501.877
676 0 63.062 12.5274 790 91.0823 242.743 501.523
677 0 63.1231 12.642 798 94.8221 241.653 499.157
678 0 65.1577 12.9378 843 94.0937 241.846 496.861
679 0 68.2773 12.8886 880 94.4773 242.582 497.353
680 0 69.1622 13.5189 935 92.7112 242.001 497.083
681 0 69.2105 12.7004 879 92.0216 243.16 496.646
682 0 71.2173 12.848 915 92.1891 243.215 494.643
683 0 73.1436 12.2635 897 94.7447 242.3 494.875
684 0 76.145 13.1722 1003 93.4477 242.618 494.882
685 0 78.1366 13.2716 1037 92.1485 244.16 493.762
686 0 81.1859 13.0565 1060 93.2717 243.737 492.942
687 0 81.1764 13.058 1060 95.3651 244.351 490.439
688 0 86.1444 13.0943 1128 93.6702 243.239 489.178
689 0 87.3511 13.0851 1143 94.2493 243.668 487.897
690 0 91.1847 13.0614 1191 93.1713 244.223 486.931
691 0 91.1272 12.6197 1150 94.2104 244.509 483.831
692 0 94.1844 12.9427 1219 92.6645 244.345 483.461
693 0 98.1588 12.7039 1247 92.4338 243.391 480.905
694 1 51.0919 10.256 524 93.124 242.281 503.189
695 0 52.2536 11.0806 579 89.6805 243.166 498.44
696 0 55.2751 11.488 635 88.1402 242.794 498.386
697 0 59.0859 11.661 689 82.0131 241.588 506.849
698 0 62.0591 11.9402 741 81.502 241.556 505.684
699 0 61.0478 11.6138 709 84.7884 240.773 503.87
700 0 63.0526 12.1169 764 84.6728 241.3 503.123
701 0 68.075 13.162 896 80.375 241.114 503.53
702 0 66.0778 11.1989 740 87.6324 240.709 504.234
703 0 69.0874 11.8256 817 86.6928 241.248 502.1
704 0 69.2126 11.4719 794 88.3741 242.523 500.455
705 0 72.1752 11.8739 857 87.3104 241.965 500.308
706 0 75.1745 11.8391 890 87.5213 242.742 500.651
707 0 77.1757 11.4932 887 88.7182 241.982 499.709
708 0 78.1532 11.4007 891 91.3513 242.74 498.504
709 0 82.143 12.4417 1022 88.4883 241.151 498.258
710 0 84.1264 12.3267 1037 90.7859 241.282 496.774
711 0 86.1376 12.422 1070 91.0654 240.99 495.281
712 0 88.1468 11.6851 1030 93.5165 240.983 492.726
713 0 92.1306 11.6357 1072 95.7715 240.579 492.808
714 0 95.1411 11.8666 1129 96.5137 240.428 489.5
715 1 50.1266 10.1144 507 99.8757 240.686 510.89
716 0 53.1041 11.1668 593 99.575 242.472 511.484
717 0 54.0837 11.3528 614 99.5407 240.86 510.134
718 0 55.1313 11.5361 636 97.794 241.245 510.044
719 0 57.0293 11.2574 642 98.4657 242.534 509.827
720 0 56.027 11.2089 628 98.7293 242.653 507.573
721 0 60.0445 12.1077 727 95.5557 242.479 507.124
722 0 61.1037 12.4215 759 95.6469 242.223 508.916
723 0 63.053 12.3071 776 95.9858 241.643 507.572
724 0 64.0817 12.3904 794 95.7317 241.18 507.634
725 0 65.0539 11.6519 758 99.0092 241.639 506.964
726 0 67.0395 11.8139 792 98.6263 242.236 505.186
727 0 69.0487 12.4405 859 98.4726 241.92 503.641
728 0 70.0778 12.0866 847 99.5207 242.72 501.55
729 0 73.0442 12.691 927 97.7443 242.373 501.789
730 0 75.0804 12.6664 951 99.2366 242.699 500.23
731 0 77.08 12.1692 938 100.577 242.097 500.131
732 0 80.0605 12.3532 989 100.092 242.278 497.857
733 0 82.0772 12.6344 1037 98.9074 242.221 498.451
734 0 85.1085 12.4899 1063 98.1806 241.86 496.087
735 0 85.0777 11.5424 982 101.773 241.415 493.073
736 1 46.075 9.65816 445 98.4719 240.243 513.539
737 0 48.017 10.5379 506 97.7036 242.585 511.148
738 0 50.0342 10.3129 516 98.0988 240.659 510.397
739 0 51.0881 11.0006 562 93.3754 240.251 510.649
740 0 52.0598 11.2371 585 87.8564 238.94 509.802
741 0 52.0834 11.2512 586 87.3908 239.454 509.956
742 0 55.0728 11.0944 611 84.9247 239.985 508.756
743 0 56.0887 11.6779 655 85.8229 240.586 508.427
744 0 58.1417 12.1428 706 82.3541 240.341 507.653
745 0 59.1459 11.6661 690 83.1217 239.825 506.307
746 0 62.1174 11.9451 742 82.3558 240.311 504.557
747 0 63.1733 11.4447 723 83.982 239.976 504.947
748 0 64.1132 11.9164 764 83.4869 241.088 503.948
749 0 66.1629 11.6077 768 83.9427 240.443 503.598
750 0 66.0889 11.1517 737 87.3324 239.966 502.076
751 0 67.0573 11.3336 760 87.1237 240.978 500.572
752 0 72.1706 11.2788 814 86.6106 240.193 498.585
753 0 74.1523 11.2336 833 88.2881 240.419 499.184
754 0 76.1366 11.4531 872 87.7649 240.343 496.564
755 0 78.2209 11.5187 901 88.2797 240.232 494.694
756 0 80.0631 11.1287 891 90.5062 240.382 493.966
757 0 83.0975 11.7934 980 89.3327 240.643 493.171
758 0 85.1221 11.1722 951 90.9085 240.616 493.111
759 0 89.151 11.8002 1052 89.3783 240.601 492.777
760 1 47.0109 10.2104 480 91.7167 241.523 512.492
761 0 48.0287 10.5562 507 90.787 240.239 511.089
762 0 48.045 11.5517 555 97.1514 240.641 509.941
763 0 50.031 11.353 568 99.5687 240.157 507.718
764 0 49.0242 10.6274 521 91.8023 240.553 509.069
765 0 52.0097 11.4402 595 89.5697 240.235 509.089
766 0 53.059 10.8935 578 90.3962 241.085 508.626
767 0 54.0229 11.347 613 89.3654 241.038 508.122
768 0 55.0631 10.4789 577 92.3501 241.017 508.118
769 0 56.0413 11.0097 617 90.7569 240.493 505.251
770 0 58.0783 11.2779 655 91.2412 241.394 503.844
771 0 59.1284 11.4666 678 91.5737 242.301 502.773
772 0 60.086 11.4003 685 92.1869 242.324 503.286
773 0 63.1472 11.2752 712 93.3947 242.41 499.893
774 0 64.0805 10.9862 704 94.8807 242.058 499.71
775 0 65.1978 11.8102 770 94.2922 242.874 500.258
776 0 67.1546 11.4214 767 95.5241 243.751 498.005
777 0 68.2114 11.2738 769 97.1378 242.563 497.766
778 0 72.1437 12.0593 870 95.2989 243.267 495.598
779 0 74.2345 11.7196 870 96.5471 242.829 496.475
780 0 75.2304 12.2557 922 97.1735 242.366 494.239
781 0 78.1979 11.9057 931 98.319 242.334 494.986
782 0 80.1753 12.3729 992 97.2853 242.385 492.214
783 0 82.2211 11.9069 979 98.8601 242.904 491.052
784 0 86.2405 11.9086 1027 98.3651 242.463 491.312
785 0 87.2079 12.0402 1050 100.614 242.541 487.794
786 0 91.2248 12.0472 1099 100.417 242.921 488.236
787 0 93.216 12.1867 1136 99.9789 243.122 488.386
788 0 95.2525 12.1572 1158 101.442 242.514 484.087
789 0 100.155 11.6419 1166 101.999 243.292 485.313
790 1 55.0798 11.0748 610 101.187 243.697 506.48
791 0 58.1055 12.0815 702 95.1923 244.61 505.718
792 0 58.1706 11.8273 688 97.6759 244.619 504.315
793 0 60.071 12.1356 729 95.4568 244.251 502.743
794 0 57.1554 10.7426 614 95.7899 244.508 505.114
795 0 59.0967 11.1174 657 94.6149 243.728 503.606
796 0 62.1497 11.7137 728 92.7431 244.301 503
797 0 64.1993 11.511 739 92.4723 244.617 501.889
798 0 67.1946 11.489 772 92.2759 244.785 500.672
799 0 68.1982 11.9358 814 91.2224 244.439 500.601
800 0 71.2127 11.8378 843 90.242 244.477 499.865
801 0 71.2175 12.0476 858 91.5711 244.348 498.646
802 0 74.2186 12.0455 894 90.2841 244.206 499.834
803 0 78.1824 12.4197 971 88.6725 243.509 497.213
804 0 81.1456 12.3482 1002 89.8573 244.082 495.236
805 0 83.1706 11.9994 998 90.1563 243.794 495.415
806 0 85.191 12.2313 1042 90.644 243.799 493.52
807 0 86.1535 12.4661 1074 93.7896 243.493 494.061
808 0 89.147 12.0812 1077 94.6583 242.381 492.208
809 0 91.2237 12.2117 1114 94.9497 243.083 490.796
810 0 94.15 11.5879 1091 96.1412 242.996 488.507
811 0 96.1263 11.797 1134 95.8827 242.16 488.469
812 0 98.1956 12.0779 1186 96.6653 241.538 484.804
813 1 52.1785 10.3874 542 98.6218 241.587 505.867
814 0 54.1518 11.2277 608 96.852 242.048 507.051
815 0 55.1705 11.0566 610 93.4459 241.792 501.27
816 0 56.1957 11.282 634 91.877 241.117 501.361
817 0 57.2916 10.8044 619 94.3053 242.601 507.124
818 0 57.2916 10.752 616 140.727 243.627 507.162
819 0 60.1108 11.4455 688 93.7267 242.173 506.292
820 0 65.2749 11.7963 770 91.2351 242.377 504.464
821 0 65.2179 11.7452 766 92.2441 242.415 502.477
822 0 68.2389 11.7968 805 91.7242 241.858 502.682
823 0 71.0587 11.7649 836 91.0251 239.446 502.336
824 0 74.0511 11.5731 857 91.5356 239.926 501.889
825 0 75.0989 11.7578 883 92.7814 239.809 500.263
826 0 77.0669 11.7301 904 93.1117 240.417 498.8
827 0 81.1188 12.5125 1015 90.7133 240.557 499.518
828 0 82.1745 11.5608 950 93.3968 240.651 498.423
829 0 86.0722 12.931 1113 90.5337 240.002 495.996
830 0 90.1343 12.5923 1135 92.9278 240.586 495.211
831 0 91.1531 12.3858 1129 93.2445 240.574 493.196
832 0 94.1532 12.1717 1146 94.1728 240.156 491.501
833 1 50.0371 11.1917 560 95.4357 239.623 513.029
834 0 50.0346 11.8718 594 93.3687 239.685 513.855
835 0 52.0375 11.7223 610 95.2328 239.844 513.631
836 0 55.0445 12.6261 695 91.2417 240.081 512.686
837 0 55.0727 11.6573 642 90.9315 239.678 510.399
838 0 55.0675 11.8219 651 90.6974 239.086 510.661
839 0 56.0575 11.2028 628 94.4427 239.104 508.672
840 0 58.0787 12.0526 700 91.8429 238.867 508.196
841 0 58.0751 11.6745 678 93.4041 238.991 505.653
842 0 60.0585 11.8218 710 92.3972 238.948 506.244
843 0 62.0573 11.2638 699 91.8684 238.848 504.089
844 0 62.1385 11.4422 711 88.8833 239.966 503.235
845 0 66.1395 11.9747 792 86.7386 241.016 502.643
846 0 67.1229 11.8737 797 86.862 240.852 501.605
847 0 69.0933 12.1864 842 85.3278 240.931 501.71
848 0 72.1851 11.6922 844 86.4301 239.863 499.167
849 0 75.1564 12.148 913 84.805 239.952 497.854
850 0 76.1243 11.6914 890 85.3382 240.036 497.124
851 0 79.1855 12.1234 960 84.5125 240.328 494.457
852 0 80.1797 11.3994 914 86.7735 240.732 493.943
853 0 83.1644 11.5314 959 86.4338 240.364 493.248
854 0 85.3972 11.1245 950 87.8147 240.649 492.553
855 0 89.1452 11.9244 1063 86.3001 239.366 491.486
856 0 89.1653 11.6862 1042 88.3369 239.888 488.918
857 0 93.2245 11.6064 1082 88.8327 239.635 486.884
858 1 52.1694 9.91002 517 90.3075 242.114 506.327
859 0 55.1389 11.2806 622 87.7267 241.362 504.135
860 0 57.1053 10.8746 621 90.752 241.097 504.726
861 0 57.1127 10.8207 618 139.396 242.094 504.78
862 0 59.0614 11.9706 707 88.0339 242.216 504.276
863 0 59.053 10.8377 640 88.2531 240.909 505.02
864 0 60.1063 11.5296 693 88.0159 242.027 503.834
865 0 63.1049 11.156 704 89.1278 241.703 503.382
866 0 64.2316 11.1627 717 90.7755 240.678 500.753
867 0 66.0717 11.1394 736 92.3995 241.395 499.659
868 0 68.1447 11.4903 783 91.682 239.981 499.655
869 0 71.1753 11.3522 808 83.4814 241.123 498.663
870 0 72.1453 11.9343 861 91.7712 239.977 498.232
871 0 74.1282 11.4801 851 94.5664 240.35 497.014
872 0 77.2008 11.7097 904 94.823 240.746 495.194
873 0 79.2206 12.1181 960 94.7615 240.516 494.461
874 0 80.1417 11.8415 949 96.6417 240.407 494.308
875 0 85.152 12.2722 1045 96.6344 240.985 493.399
876 0 86.1758 12.138 1046 98.6663 240.335 492.181
877 0 90.1645 13.2536 1195 94.995 239.526 489.846
878 0 91.2575 12.2291 1116 97.1039 239.78 489.496
879 0 94.1904 11.9439 1125 98.5938 239.805 488.57
880 0 96.1433 12.5438 1206 98.2139 240.123 487.067
881 0 100.177 12.6377 1266 97.4866 239.859 487.098
882 1 55.0806 10.7479 592 97.0084 240.591 510.686
883 0 54.2473 10.9683 595 97.7513 239.825 505.519
884 0 55.0722 11.6756 643 90.0295 239.384 503.908
885 0 57.1486 12.1788 696 91.4397 239.717 506.355
886 0 59.1331 12.4296 735 92.502 242.536 505.548
887 0 60.0583 11.9717 719 92.5953 241.412 504.606
888 0 61.0469 11.6632 712 94.9045 240.862 503.844
889 0 63.2315 12.478 789 93.1255 241.768 503.057
890 0 67.1484 12.733 855 92.1988 241.884 501.677
891 0 66.1612 12.1824 806 95.7519 241.633 499.774
892 0 68.2131 12.0945 825 97.4061 241.406 500.192
893 0 70.1611 12.2148 857 97.7865 241.428 499.156
894 0 73.2157 12.8115 938 95.8337 241.339 498.715
895 0 74.1715 13.4014 994 95.5966 240.841 498.123
896 0 76.1519 12.6458 963 98.2596 241.281 495.121
897 0 78.1658 12.7677 998 98.991 241.469 494.063
898 0 79.1659 12.6064 998 99.3848 241.366 493.053
899 0 82.1828 12.9467 1064 99.2914 241.192 493.024
900 0 86.2518 13.2055 1139 98.7278 241.263 490.991
901 0 89.1591 13.2011 1177 98.9269 241.597 490.274
902 0 90.1637 12.9431 1167 100.314 242.376 489.073
903 0 92.1668 12.9982 1198 99.6519 241.655 487.68
904 0 95.1783 13.2488 1261 98.9167 241.97 486.375
905 0 98.1957 12.9537 1272 99.7869 241.809 484.151
906 0 101.246 12.7116 1287 100.27 241.409 481.419
907 1 55.0702 10.1325 558 100.914 242.315 501.735
908 0 56.0236 10.3885 582 95.1856 240.649 489.074
909 0 60.0681 11.0042 661 93.062 240.278 489.561
910 0 63.0592 12.4486 785 98.5796 242.975 500.051
911 0 64.0371 12.7426 816 99.2806 243.028 499.787
912 0 68.0227 13.1133 892 98.4327 242.877 499.133
913 0 68.0419 12.9626 882 100.846 242.813 496.418
914 0 71.0576 13.3132 946 99.6998 242.985 496.725
915 0 75.0262 13.382 1004 99.7869 242.444 496.812
916 0 77.0533 13.3674 1030 100.8 243.009 495.671
917 0 78.0441 13.8255 1079 101.8 242.393 495.238
918 0 82.0825 13.925 1143 100.702 242.609 494.133
919 0 83.09 13.4914 1121 98.967 242.541 493.934
920 0 86.1275 12.9343 1114 101.057 242.308 491.284
921 0 89.103 14.1185 1258 98.182 242.473 490.458
922 0 90.1365 13.768 1241 100.425 241.617 489.355
923 0 93.1904 13.5851 1266 101.769 241.861 489.969
924 0 95.124 13.2669 1262 105.659 241.699 489.677
925 0 98.1395 13.2974 1305 105.098 241.017 489.665
926 0 101.222 13.2184 1338 106.735 241.011 486.814
927 1 54.03 11.7157 633 110.91 242.161 510.829
928 0 54.0766 12.02 650 111.025 242.043 509.932
929 0 59.0688 12.0199 710 109.656 241.637 509.827
930 0 55.157 11.1319 614 108.257 240.982 510.878
931 0 57.237 11.6184 665 109.459 240.597 509.698
932 0 59.2448 11.6635 691 108.469 240.438 509.463
933 0 62.2273 11.9883 746 108.052 240.56 508.799
934 0 62.2786 11.9784 746 109.606 240.453 508.032
935 0 66.2651 11.8464 785 110.521 240.209 506.797
936 0 68.1989 11.8917 811 110.583 239.953 504.85
937 0 70.2936 11.9641 841 110.449 240.191 505.692
938 0 71.2449 11.8886 847 112.164 240.477 505.175
939 0 73.3157 12.5348 919 111.582 240.053 504.01
940 0 76.2336 12.7634 973 111.932 239.544 501.597
941 0 78.2459 12.384 969 111.689 239.086 500.585
942 0 81.1395 13.409 1088 107.675 239.423 500.023
943 0 84.1887 13.0303 1097 108.008 238.831 498.824
944 0 86.2207 12.8971 1112 107.941 238.878 496.949
945 0 91.1716 13.2497 1208 105.31 239.53 496.528
946 0 92.1964 12.8747 1187 108.8 238.082 495.21
947 0 95.2579 12.8493 1224 109.178 238.623 493.359
948 0 99.2172 13.3243 1322 107.073 239.103 491.216
949 0 99.206 13.3258 1322 108.846 239.186 490.491
950 0 103.138 13.7292 1416 107.194 237.891 488.093
951 0 106.317 12.2652 1304 120.4 237.65 489.041
952 0 107.281 12.2203 1311 121.529 237.701 486.88
953 0 111.159 13.1433 1461 118.313 238.019 486.433
954 0 115.143 13.1055 1509 118.92 237.294 486.055
955 0 118.175 12.5746 1486 120.244 237.869 482.486
956 1 63.0997 11.8226 746 107.327 238.347 509.446
957 0 65.0439 12.161 791 105.158 240.271 506.705
958 0 68.0888 11.9844 816 97.848 239.146 505.466
959 0 70.1512 13.1003 919 100.35 241.123 504.026
960 0 71.1436 13.1705 937 106.703 239.562 503.282
961 0 73.1588 12.9581 948 108.731 239.16 501.033
962 0 76.232 13.4064 1022 105.864 239.622 500.705
963 0 77.1451 13.1311 1013 107.021 239.718 498.375
964 0 80.2178 13.1268 1053 106.425 239.797 498.979
965 0 82.2086 13.4901 1109 105.044 239.904 496.405
966 0 82.2009 12.9804 1067 107.657 240.143 498.405
967 0 86.1697 13.1717 1135 105.802 239.727 496.536
968 0 88.2718 12.926 1141 106.858 239.76 493.933
969 0 90.2295 13.7316 1239 104.128 240.738 493.232
970 0 92.2052 13.4374 1239 104.935 239.328 489.958
971 0 95.2626 13.4155 1278 104.184 240.437 489.45
972 0 97.2114 13.3626 1299 104.236 240.069 488.429
973 0 100.334 12.7574 1280 104.148 240.749 485.447
974 0 103.387 13.4253 1388 101.774 240.323 484.993
975 0 106.303 13.4333 1428 101.361 240.419 482.593
976 0 109.32 13.3004 1454 102.213 240.827 481.336
977 0 112.336 13.5575 1523 101.195 241.513 480.391
978 1 60.1201 11.0612 665 101.838 241.069 506.574
979 0 62.0707 11.3097 702 107.115 240.803 506.413
980 0 63.0832 11.8256 746 106.942 241.747 504.686
981 0 67.3795 13.1049 883 105.675 242.995 505.18
982 0 67.3461 12.5174 843 108.254 242.949 504.482
983 0 70.345 12.4245 874 97.6522 242.494 502.682
984 0 72.3242 12.5961 911 97.3666 242.282 502.721
985 0 73.4097 12.3008 903 97.9468 242.064 500.425
986 0 75.3406 12.1847 918 98.5577 241.546 498.898
987 0 78.3805 12.1969 956 98.3222 242.041 497.771
988 0 80.3495 12.6199 1014 97.2436 241.501 494.619
989 0 84.3946 13.117 1107 95.9169 241.179 495.682
990 0 85.49 12.2821 1050 99.7581 240.983 491.959
991 0 87.3323 12.4811 1090 98.8165 241.101 491.764
992 0 92.4849 13.0075 1203 96.9443 241.18 490.643
993 0 94.3544 11.9337 1126 97.9858 240.134 488.794
994 0 97.3154 12.4132 1208 98.7823 240.874 486.673
995 0 100.356 13.5518 1360 96.3449 240.759 484.442
996 0 102.316 12.8328 1313 98.965 241.054 482.671
997 0 105.414 13.2525 1397 98.1052 241.49 482.215
998 0 108.279 12.6156 1366 99.3324 241.313 479.463
999 1 57.2431 10.7087 613 99.2447 242.858 505.744
1000 0 58.2993 11.8012 688 96.5669 242.577 503.378
1001 0 62.0516 11.0714 687 87.31 242.706 503.739
1002 0 61.2336 11.1377 682 85.0616 241.135 503.868
1003 0 66.0508 11.1884 739 82.839 240.234 503.13
1004 0 67.03 10.9205 732 84.5205 240.559 502.127
1005 0 70.0512 11.1347 780 83.7821 241.044 501.987
1006 0 72.0847 11.8888 857 82.5146 241.991 499.505
1007 0 74.0911 11.4724 850 83.7294 241.121 498.893
1008 0 76.0721 11.4497 871 84.039 241.657 497.403
1009 0 76.0665 11.5951 882 128.231 242.647 497.306
1010 0 79.0635 11.6995 925 85.3546 241.042 496.741
1011 0 84.0605 11.6583 980 84.351 240.577 494.8
1012 0 85.083 11.6827 994 84.8139 240.973 494.842
1013 0 88.0999 12.4404 1096 83.573 241.402 492.298
1014 0 90.2169 11.8936 1073 93.5471 241.265 490.936
1015 0 92.2068 11.9731 1104 92.3832 240.962 490.54
1016 0 97.2303 11.3648 1105 92.6443 241.274 488.443
1017 0 98.2505 11.5725 1137 91.3958 241.931 486.88
1018 0 99.1756 10.7889 1070 92.7262 242.206 487.06
1019 1 54.0349 10.0861 545 87.6991 243.321 510.987
1020 0 56.0477 10.5446 591 85.7124 243.953 509.489
1021 0 57.1605 11.2315 642 82.5857 243.162 508.231
1022 0 56.1888 10.5893 595 83.2908 241.25 503.982
1023 0 60.1747 11.4666 690 83.0101 242.58 506.864
1024 0 62.174 12.079 751 83.3316 243.47 505.638
1025 0 63.205 10.996 695 86.6417 242.846 506.235
1026 0 66.0874 11.4243 755 84.1391 241.423 504.911
1027 0 66.0698 10.837 716 85.838 241.839 504.284
1028 0 68.0941 10.7792 734 86.1717 241.39 503.074
1029 0 72.2194 11.202 809 85.0396 241.789 502.152
1030 0 75.1752 11.5331 867 84.669 241.633 500.089
1031 0 77.1615 11.3917 879 85.9636 241.787 498.799
1032 0 78.2368 11.5291 902 86.4856 242.409 498.297
1033 0 80.2744 12.0088 964 86.582 242.608 494.578
1034 0 84.3405 11.7381 990 88.8778 242.513 493.998
1035 0 86.227 11.5045 992 89.7812 241.677 493.869
1036 0 90.1834 12.2639 1106 89.7495 241.802 491.366
1037 0 93.274 12.0076 1120 90.925 241.869 490.268
1038 0 94.3375 11.5649 1091 93.6829 241.682 488.465
1039 0 98.2443 12.5605 1234 91.7925 241.393 487.272
1040 0 102.39 12.9309 1324 93.3452 241.498 485.335
1041 0 106.36 13.4732 1433 94.9253 240.999 481.779
1042 1 53.2079 9.75418 519 96.8709 243.241 507.829
1043 0 55.2715 10.8736 601 94.5774 242.932 506.216
1044 0 58.4805 11.6107 679 92.2091 242.436 504.903
1045 0 60.1228 11.8591 713 97.6171 242.94 505.595
1046 0 60.1462 11.5884 697 94.4132 241.522 506.824
1047 0 60.1678 11.6508 701 95.5877 241.749 506.117
1048 0 62.1628 11.6629 725 96.229 241.781 505.712
1049 0 64.1565 11.2693 723 96.8631 242.324 505.651
1050 0 68.1072 12.2014 831 92.6727 241.529 504.318
1051 0 69.157 12.0306 832 94.7524 241.448 501.804
1052 0 72.2125 12.6017 910 93.5615 242.09 501.871
1053 0 71.1719 12.1256 863 95.9085 242.029 500.698
1054 0 74.1657 12.2563 909 97.5985 242.194 498.209
1055 0 79.1173 12.412 982 96.5906 242.195 498.638
1056 0 79.1647 12.7329 1008 98.13 242.203 496.471
1057 0 82.1146 12.3242 1012 98.2658 242.657 495.033
1058 0 86.2757 12.2051 1053 97.3542 242.296 493.09
1059 0 87.1902 12.9028 1125 96.1893 241.853 491.667
1060 0 91.222 12.9355 1180 95.9136 242.518 491.534
1061 0 92.2198 12.6003 1162 97.3141 242.051 490.832
1062 0 95.1824 12.6599 1205 97.0315 241.685 492.627
1063 0 99.2153 12.9819 1288 96.2741 242.158 488.757
1064 1 56.0766 10.129 568 101.266 243.769 508.657
1065 0 56.0388 11.1708 626 98.8674 242.04 510.073
1066 0 58.0421 11.0954 644 98.9286 240.028 508.941
1067 0 59.0622 12.0043 709 97.1932 239.619 506.749
1068 0 59.0133 11.3364 669 92.5456 239.251 507.84
1069 0 59.008 11.3883 672 137.433 238.278 507.914
1070 0 62.0684 11.7451 729 91.6091 240.27 507.263
1071 0 64.0242 11.0583 708 93.9845 240.027 506.27
1072 0 66.0487 11.1736 738 92.7764 240.412 505.247
1073 0 69.0983 12.0119 830 92.0229 239.796 503.613
1074 0 70.0315 11.6091 813 94.4342 239.886 502.097
1075 0 72.0281 11.4261 823 95.8469 239.967 502.04
1076 0 74.0287 11.509 852 95.6162 239.973 501.592
1077 0 78.0282 11.7393 916 94.8963 240.401 501.06
1078 0 79.0356 11.5518 913 96.2453 239.186 498.286
1079 0 80.0637 11.9405 956 97.0251 238.938 498.669
1080 0 85.0528 12.357 1051 95.1456 239.906 496.898
1081 0 85.0446 11.4881 977 98.6162 239.617 496.144
1082 0 90.0576 11.9812 1079 97.3392 240.169 494.073
1083 1 51.0557 11.3993 582 98.646 240.869 513.457
1084 0 53.0892 11.1699 593 99.4688 241.565 512.879
1085 0 54.1016 12.2178 661 97.5688 242.259 509.941
1086 0 52.0123 11.4204 594 98.5825 242.596 507.2
1087 0 55.1853 12.449 687 100.755 240.568 509.786
1088 0 57.1158 11.9582 683 101.704 241.18 509.584
1089 0 59.0127 12.6244 745 112.823 240.157 507.781
1090 0 60.1053 12.711 764 113.838 240.921 507.668
1091 0 60.1943 12.5593 756 116.747 240.646 507.56
1092 0 60.0466 12.5236 752 111.959 241.67 509.274
1093 0 64.0621 12.3474 791 111.991 241.484 507.35
1094 0 65.0466 12.6063 820 112.312 241.076 506.56
1095 0 67.0253 12.6072 845 111.867 240.705 505.891
1096 0 69.0537 12.874 889 111.184 240.213 503.674
1097 0 71.0221 12.658 899 110.398 239.841 500.536
1098 0 75.0744 13.3601 1003 106.303 239.903 501.168
1099 0 76.0962 13.115 998 108.549 242.254 503.688
1100 0 81.1365 12.9411 1050 106.453 241.452 501.918
1101 0 81.0296 13.3038 1078 106.019 240.925 500.306
1102 0 85.0864 13.3629 1137 105.251 240.508 496.78
1103 0 86.0501 12.6322 1087 105.98 240.466 496.822
1104 0 88.0967 12.8268 1130 108.271 240.241 494.704
1105 0 93.0565 13.0458 1214 103.943 240.479 492.946
1106 1 48.115 11.1192 535 105.679 240.338 515.393
1107 0 49.243 11.8596 584 104.889 241.221 514.342
1108 0 51.1082 11.6811 597 97.5578 239.926 513.496
1109 0 52.0277 11.9167 620 104.46 239.458 513.653
1110 0 52.0154 10.843 564 101.431 239.778 513.576
1111 0 52.0146 11.3622 591 100.728 240.117 511.944
1112 0 54.059 12.0424 651 98.0983 240.293 512.905
1113 0 55.0207 11.6683 642 100.798 240.017 511.685
1114 0 57.0418 11.886 678 100.18 240.693 511.665
1115 0 58.0319 12.2002 708 99.7542 240.436 510.669
1116 0 60.0151 11.9637 718 100.085 239.781 510.058
1117 0 60.0103 11.8813 713 99.6367 240.203 509.568
1118 0 63.0262 12.0902 762 99.4554 240.399 507.257
1119 0 65.0623 12.342 803 99.406 239.861 505.592
1120 0 68.0221 12.2901 836 99.7859 240.116 506.193
1121 0 70.0619 12.3748 867 100.798 240.134 504.618
1122 0 71.03 12.1076 860 103.347 240.205 503.505
1123 0 73.0257 12.5161 914 102.104 240.535 502.526
1124 0 75.0404 12.6465 949 102.226 240.411 502.122
1125 0 77.0269 12.4242 957 103.93 240.765 501.492
1126 0 81.0323 12.9948 1053 102.613 240.232 499.583
1127 0 83.0688 12.616 1048 104.969 239.796 498.162
1128 0 83.0544 13.0156 1081 105.868 240.075 496.388
1129 0 88.0291 13.3592 1176 104.748 240.234 495.822
1130 0 90.1052 13.2734 1196 105.568 240.625 493.643
1131 0 90.0227 13.5632 1221 106.507 240.206 495.12
1132 0 92.0485 12.8085 1179 110.13 240.394 493.22
1133 0 92.0517 12.1019 1114 113.969 240.543 492.274
1134 0 97.0943 12.6578 1229 111.492 240.699 491.303
1135 0 98.0477 12.4633 1222 113.637 240.364 488.41
1136 0 102.074 12.8828 1315 100.177 240.073 485.466
1137 0 106.076 12.5193 1328 112.072 239.381 483.285
1138 0 112.085 13.4184 1504 108.566 240.007 483.295
1139 0 111.052 13.2911 1476 110.247 239.646 483.014
1140 0 115.137 13.3058 1532 114.457 241.856 483.27
1141 0 118.128 13.3668 1579 117.148 241.858 483.218
1142 0 122.155 13.1145 1602 117.215 241.703 480.439
1143 0 126.186 13.2582 1673 118.134 241.012 476.337
1144 0 131.156 13.8995 1823 116.883 241.22 475.463
1145 0 134.137 13.7248 1841 118.672 240.782 473.029
1146 0 137.187 13.7039 1880 121.056 241.415 470.673
1147 0 142.213 14.204 2020 119.751 241.269 469.261
1148 0 149.174 15.1836 2265 114.326 241.454 464.259
1149 0 154.198 15.4801 2387 113.296 240.465 460.525
1150 0 157.287 15.8182 2488 101.032 240.07 455.834
1151 0 158.298 14.7696 2338 106.924 239.444 453.557
1152 0 152.281 11.8531 1805 113.251 240.213 452.789
1153 0 154.348 10.9557 1691 116.116 239.715 455.845
1154 1 93.0909 12.1279 1129 106.904 241.534 489.988
1155 0 96.0541 12.6595 1216 107.376 241.65 487.397
1156 0 100.123 13.813 1383 108.516 241.758 490.275
1157 0 102.307 13.0196 1332 113.788 241.248 488.89
1158 0 104.316 12.6059 1315 116.574 241.369 486.951
1159 0 109.253 13.4459 1469 113.812 241.639 485.295
1160 0 111.443 13.5136 1506 113.738 241.122 484.604
1161 0 113.417 13.7633 1561 115.291 241.176 483.252
1162 0 116.265 13.667 1589 117.769 240.402 482.311
1163 0 120.339 13.4453 1618 118.47 239.847 479.073
1164 0 123.195 12.7521 1571 116.156 240.168 477.484
1165 0 128.202 12.4258 1593 117.134 240.259 474.731
1166 1 75.0157 11.7309 880 114.824 241.828 503.156
1167 0 75.1155 12.3144 925 114.185 241.379 502.165
1168 0 77.0351 12.2282 942 118.481 240.876 501.035
1169 0 80.034 12.2198 978 117.611 241.13 499.956
1170 0 83.0885 12.6251 1049 117.334 241.458 498.106
1171 0 83.0593 12.5332 1041 119.605 242.159 497.081
1172 0 87.0735 13.0005 1132 118.167 241.398 495.424
1173 0 88.0392 13.0169 1146 117.978 241.149 495.516
1174 0 92.0745 12.7614 1175 118.298 241.46 492.486
1175 0 94.0582 13.2896 1250 116.879 241.422 490.853
1176 0 97.0567 12.7966 1242 118.076 241.028 489.821
1177 0 99.0563 13.1642 1304 114.798 240.57 489.543
1178 0 102.056 12.7184 1298 116.172 240.627 486.127
1179 0 105.067 12.9917 1365 115.771 241.119 485.629
1180 0 107.137 11.6486 1248 109.052 239.371 484.564
1181 0 113.149 12.4526 1409 108.077 239.901 482.971
1182 1 60.1166 10.7624 647 105.297 240.238 511.858
1183 0 61.1901 11.2437 688 105.565 239.424 510.121
1184 0 64.2328 12.2679 788 102.584 239.572 508.137
1185 0 66.0597 12.0194 794 104.452 238.572 507.073
1186 0 66.06 10.3694 685 107.331 239.034 507.225
1187 0 67.1701 11.6272 781 107.609 240.723 505.552
1188 0 70.2059 10.9535 769 110.68 240.813 504.844
1189 0 72.2025 10.9553 791 111.059 240.789 504.735
1190 0 73.1985 11.1614 817 111.375 240.809 503.143
1191 0 77.164 12.0263 928 108.606 240.829 501.93
1192 0 77.1961 11.5809 894 111.775 241.028 501.342
1193 0 79.1561 11.6731 924 110.565 240.731 499.812
1194 0 81.1945 11.4047 926 112.523 240.637 498.346
1195 0 83.1808 11.3608 945 111.144 240.123 497.593
1196 0 88.2266 11.7085 1033 109.345 240.532 496.363
1197 0 88.2398 11.3441 1001 112.378 240.074 492.768
1198 0 91.2271 12.0578 1100 110.507 240.052 492.876
1199 0 95.2707 12.2388 1166 109.704 240.44 492.56
1200 0 97.2264 12.2806 1194 109.683 240.097 491.893
1201 0 100.244 12.6791 1271 109.323 240.854 490.203
1202 0 102.151 11.992 1225 110.651 240.245 488.469
1203 0 103.209 12.0822 1247 110.648 240.176 486.476
1204 0 108.354 13.1513 1425 106.613 239.825 483.513
1205 0 108.238 13.0361 1411 108.752 240.148 481.88
1206 0 113.237 13.3878 1516 106.317 240.036 481.194
1207 0 116.149 13.8099 1604 106.216 240.45 482.342
1208 0 119.292 13.4627 1606 107.451 239.448 477.655
1209 0 123.219 14.3727 1771 104.798 240.097 477.256
1210 0 126.182 13.9877 1765 106.216 239.935 477.075
1211 0 127.146 13.4019 1704 109.899 240.158 475.241
1212 0 133.089 14.479 1927 110.601 240.861 472.609
1213 0 138.21 14.9194 2062 102.794 240.525 470.879
1214 0 141.273 15.6931 2217 102.817 240.305 465.039
1215 0 146.313 14.7561 2159 105.792 240.293 466.077
1216 0 148.277 14.2571 2114 108.189 239.738 463.558
1217 0 153.294 14.4559 2216 109.312 240.444 460.151
1218 0 158.356 15.2188 2410 106.777 240.81 458.462
1219 0 161.287 14.4463 2330 107.536 239.586 457.101
1220 0 165.358 14.1329 2337 109.721 240.347 454.295
1221 0 169.23 14.9264 2526 108.587 240.131 453.527
1222 0 174.215 14.7978 2578 109.72 239.689 449.861
1223 0 179.407 14.3194 2569 115.583 239.78 449.495
1224 0 182.272 14.2095 2590 114.073 239.926 446.107
1225 0 189.313 14.3044 2708 116.079 239.531 442.941
1226 0 193.333 14.3793 2780 116.132 239.384 439.81
1227 0 197.348 13.9246 2748 116.785 238.901 434.181
1228 0 204.287 13.6818 2795 115.957 239.369 432.165
1229 0 213.33 14.4049 3073 112.955 239.803 430.215
1230 0 219.397 14.9774 3286 111.8 240.056 426.697
1231 1 171.235 12.8361 2198 116.178 240.985 454.526
1232 0 177.324 13.5853 2409 113.175 239.824 448.242
1233 0 182.332 13.8703 2529 111.653 239.988 444.051
1234 0 189.341 14.503 2746 109.114 239.025 441.57
1235 0 193.306 14.2417 2753 111.373 238.937 437.344
1236 0 200.315 14.3874 2882 112.079 239.477 433.521
1237 0 207.304 14.7416 3056 109.883 239.238 431.036
1238 1 56.0431 10.6347 596 98.7097 241.674 511.715
1239 0 55.0447 11.4271 629 100.027 240.971 509.701
1240 0 57.1224 11.169 638 104.285 241.351 508.345
1241 0 58.0664 10.6947 621 98.6667 243.188 503.928
1242 0 59.0166 11.0477 652 99.8988 240.995 503.422
1243 0 64.0298 11.7758 754 101.625 241.52 503.954
1244 0 62.0996 11.3849 707 96.5007 240.747 505.074
1245 0 64.1131 11.0898 711 97.7229 240.705 502.983
1246 0 66.1888 11.3766 753 97.1939 240.83 502.174
1247 0 67.1428 11.1404 748 98.3262 241.527 502.015
1248 0 69.1835 11.2165 776 97.5902 241.295 499.528
1249 0 72.1905 11.816 853 95.7116 241.721 499.885
1250 0 75.2939 11.0633 833 97.0324 242.477 500.43
1251 0 77.2329 11.4588 885 97.7672 242.444 498.651
1252 0 77.3403 11.2102 867 99.0334 243.279 498.814
1253 0 79.3159 11.6874 927 98.8759 243.644 499.609
1254 0 82.2697 11.596 954 101.215 243.743 497.647
1255 0 82.3218 11.5522 951 101.294 243.627 496.21
1256 0 84.3283 11.8228 997 100.051 243.514 494.157
1257 0 88.2953 12.3676 1092 98.359 243.871 492.466
1258 0 92.3733 12.0598 1114 99.0934 243.636 489.938
1259 0 94.349 12.7611 1204 96.5299 242.317 486.448
1260 0 96.273 12.6204 1215 95.8025 242.498 482.905
1261 0 98.1533 15.2415 1496 86.3556 242.79 461.36
1262 0 98.1204 14.3803 1411 90.8235 242.383 462.35
1263 0 101.144 15.1765 1535 88.9941 242.273 464.14
1264 0 106.441 14.3553 1528 88.5393 242.208 467.175
1265 0 107.19 14.5816 1563 90.9149 241.85 466.202
1266 0 111.442 14.5906 1626 90.1759 241.621 465.284
1267 0 113.417 14.8744 1687 90.9206 241.63 463.037
1268 0 116.489 14.8512 1730 91.4838 241.147 462.892
1269 0 117.346 15.0751 1769 91.6586 241.668 459.119
1270 0 123.406 14.8453 1832 92.2107 241.499 459.612
1271 0 127.215 15.6192 1987 89.9547 241.466 457.473
1272 0 129.348 14.7122 1903 93.2601 241.297 456.159
1273 0 131.264 15.008 1970 94.6817 241.23 453.343
1274 0 137.291 15.3688 2110 92.3242 241.329 450.302
1275 0 141.271 15.587 2202 92.1235 241.231 448.661
1276 0 145.314 15.3185 2226 92.8306 241.035 448.788
1277 0 149.328 14.8465 2217 94.6026 240.116 447.106
1278 0 152.272 14.8287 2258 96.4159 240.736 444.221
1279 0 155.313 14.7573 2292 97.572 240.14 442.068
1280 0 160.226 15.1411 2426 97.0816 240.197 439.479
1281 0 165.228 15.2093 2513 97.0665 240.114 436.184
1282 0 168.232 14.795 2489 98.2828 240.18 435.761
1283 0 173.233 15.0202 2602 98.8271 240.386 432.793
1284 0 177.188 15.5033 2747 98.1514 240.263 427.805
1285 0 181.243 15.3937 2790 98.9333 240.399 424.413
1286 0 184.146 15.0967 2780 99.8687 239.687 423.856
1287 0 191.138 15.0153 2870 100.239 239.818 420.884
1288 0 196.099 16.0786 3153 97.1415 239.481 418.766
1289 0 201.162 15.5596 3130 99.5843 239.815 415.411
1290 0 207.286 15.5003 3213 99.1335 239.513 414.855
1291 0 211.158 15.3108 3233 98.2122 240.006 411.395
1292 0 217.237 15.0021 3259 99.6628 239.599 408.876
1293 0 223.342 15.1338 3380 100.583 240.191 407.589
1294 1 42.1959 8.15245 344 80.5058 242.477 502.974
1295 0 43.1081 9.2094 397 78.6121 242.73 501.889
1296 0 48.2494 10.4043 502 75.8805 243.43 506.454
1297 0 48.0666 10.111 486 88.8683 244.317 508.87
1298 0 49.0529 10.8862 534 88.1161 243.165 511.356
1299 0 49.0608 10.6806 524 91.2729 242.221 510.42
1300 0 50.0127 10.5973 530 93.9264 244.034 511.566
1301 0 51.0549 11.5954 592 93.3361 243.483 511.155
1302 0 49.0146 11.568 567 97.0758 243.656 511.393
1303 0 50.0202 11.2954 565 98.8673 243.763 511.596
1304 0 51.0775 11.4924 587 99.3731 243.797 511.956
1305 0 51.0438 11.4607 585 98.6205 243.482 513.721
1306 0 48.124 10.9717 528 95.1155 241.884 515.195
1307 0 48.091 10.7713 518 96.4073 242.064 516.653
1308 0 47.0693 9.81531 462 101.292 241.576 515.946
1309 0 47.1054 10.2748 484 101 241.926 515.378
1310 0 48.1343 10.263 494 101.678 241.504 515.512
1311 0 49.2082 10.7909 531 100.288 241.309 515.994
1312 0 48.0867 10.9594 527 101.757 241.209 516.178
1313 0 47.1341 11.4142 538 101.671 241.407 514.632
1314 0 48.1417 10.5522 508 104.175 241.965 515.669
1315 0 48.121 10.3489 498 105.408 241.835 515.596
