time division length width area intensity CMx CMy
0 0 71.1252 14.9033 1060 119.178 1300.83 503.774
1 0 72.0717 14.5272 1047 119.519 1299.87 501.603
2 0 74.048 14.4636 1071 117.442 1300.12 501.985
3 0 77.0512 14.7954 1140 113.559 1299.85 500.857
4 0 79.0386 14.6131 1155 112.39 1299.9 501.613
5 0 83.047 14.4256 1198 108.92 1299.93 499.588
6 0 86.0515 13.7708 1185 108.354 1300.34 497.671
7 0 89.112 15.1607 1351 101.669 1300.14 496.495
8 0 93.0824 15.1049 1406 105.101 1299.65 494.634
9 1 46.0293 12.1227 558 108.502 1300.6 517.072
10 0 46.0399 12.8367 591 104.704 1300.12 516.87
11 0 49.0384 13.2549 650 102.815 1299.96 515.102
12 0 51.0111 13.3304 680 94.9309 1300.36 515.431
13 0 53.015 13.6565 724 93.8729 1299.51 514.32
14 0 53.0225 13.0699 693 93.3983 1299.04 513.44
15 0 56.0753 13.2322 742 91.8113 1299.06 512.747
16 0 58.0322 13.5097 784 90.0689 1299.36 512.838
17 0 60.0435 13.4069 805 88.3292 1299.17 508.764
18 0 63.0556 13.8291 872 86.0608 1298.73 508.812
19 0 64.0373 13.7732 882 86.2426 1299.04 507.986
20 0 66.0421 13.7185 906 86.1137 1298.66 506.205
21 0 70.0397 13.6351 955 85.0942 1298.82 505.556
22 0 70.0151 13.1115 918 87.3181 1298.82 504.537
23 0 73.0304 13.7203 1002 85.7734 1299.31 503.094
24 0 73.0269 13.8168 1009 132.181 1299.3 503.033
25 0 80.043 13.855 1109 91.9198 1298.7 501.272
26 0 83.0695 14.217 1181 90.3158 1298.55 501.395
27 0 85.0823 14.2333 1211 91.0223 1298.4 499.679
28 0 88.0766 14.7826 1302 89.066 1298.57 499.927
29 0 90.0663 13.9009 1252 90.3387 1298.09 498.766
30 0 91.1187 14.0037 1276 90.0345 1298.06 497.074
31 0 95.086 13.9873 1330 89.091 1298.4 494.929
32 0 98.0428 13.8613 1359 88.4562 1298.21 495.082
33 0 103.144 13.137 1355 89.4192 1297.58 490.909
34 1 54.0621 11.3573 614 85.1759 1297.27 516.591
35 0 56.0062 12.4093 695 82.046 1297.41 516.144
36 0 58.0298 12.9933 754 81.7759 1297.94 513.812
37 0 60.0267 13.7772 827 79.48 1297.25 513.03
38 0 61.069 13.8859 848 78.9941 1297.12 511.085
39 0 65.0326 13.3164 866 79.3199 1296.59 509.82
40 0 68.0331 13.7874 938 79.597 1297.63 508.598
41 0 70.0384 14.0923 987 78.4954 1297.56 507.759
42 0 72.0299 13.2306 953 81.6097 1297.63 506.864
43 0 73.0232 12.9137 943 82.2269 1297.09 506.449
44 0 76.0348 13.6385 1037 82.2507 1297.16 503.796
45 0 79.0943 13.4017 1060 84.3349 1296.74 502.741
46 0 83.0608 13.3276 1107 86.4083 1297.03 501.464
47 0 84.0563 13.1103 1102 91.1034 1297.55 500.261
48 0 87.154 13.2868 1158 92.418 1297.15 496.877
49 1 46.0159 12.0393 554 84.2455 1297.43 519.682
50 0 46.0457 12.9219 595 83.4454 1297.17 518.817
51 0 49.0265 12.6258 619 80.7108 1297.89 519.336
52 0 47.0303 11.7584 553 82.3092 1297.75 519.421
53 0 49.0158 12.1797 597 81.8945 1297.58 519.305
54 0 50.0464 12.4285 622 82.0434 1297.32 518.698
55 0 52.0525 11.7766 613 83.6313 1297.24 516.346
56 0 53.0243 12.0699 640 83.8 1297.41 515.702
57 0 56.0356 12.6348 708 83.0494 1297.62 514.186
58 0 59.0625 12.7153 751 89.1332 1296.88 513.871
59 0 60.0431 12.4244 746 84.8418 1297.7 513.048
60 0 62.0394 12.75 791 85.0708 1296.86 512.55
61 0 64.0494 12.1781 780 86.2628 1297.59 512.088
62 0 67.0589 12.9588 869 85.3326 1297.57 509.806
63 0 67.0589 13.0035 872 150.603 1296.57 509.845
64 0 70.0841 13.0415 914 87.5821 1297.64 508.348
65 0 73.0804 13.6972 1001 86.8132 1297.82 508.059
66 0 75.2027 13.683 1029 87.1555 1297.03 505.545
67 0 78.1207 13.9912 1093 87.6414 1296.6 505.796
68 0 80.136 13.3648 1071 90.042 1296.49 503.416
69 0 85.1638 13.8556 1180 87.6856 1296.36 502.893
70 1 45.0356 11.8573 534 91.4925 1296.95 521.815
71 0 47.058 11.9427 562 92.774 1297.8 521.269
72 0 47.0563 12.3469 581 93.3666 1297.78 520.243
73 0 49.0245 13.2995 652 91.3037 1297.81 518.64
74 0 51.1244 12.6554 647 91.7635 1296.82 518.431
75 0 53.0841 13.959 741 79.583 1296.71 518.922
76 0 52.1085 13.28 692 89.9827 1296.88 517.938
77 0 55.0723 12.9466 713 88.6438 1296.49 517.122
78 0 56.0198 13.049 731 87.6717 1296.12 516.36
79 0 57.0187 13.364 762 82.2047 1296.25 516.634
80 0 57.0105 13.7869 786 81.7519 1296.33 515.835
81 0 61.0313 13.8617 846 81.0603 1297.14 514.952
82 0 61.0661 13.3953 818 83.8325 1297.43 512.972
83 0 65.0222 13.4416 874 82.921 1296.73 511.622
84 0 65.071 13.9079 905 83.0784 1297.37 510.988
85 0 68.053 13.3572 909 83.5985 1297.13 511.227
86 0 71.0799 14.3641 1021 81.2596 1297.79 509.785
87 0 72.0725 14.1247 1018 82.7554 1297.06 507.039
88 0 74.088 13.214 979 85.0031 1297.95 507.617
89 0 77.117 13.5897 1048 85.1842 1297.26 503.501
90 0 81.1651 14.4643 1174 83.0681 1298.02 503.914
91 0 83.1627 14.1169 1174 86.0835 1297.88 500.843
92 0 87.2919 13.0253 1137 93.73 1297.32 499.033
93 0 89.1689 13.3679 1192 94.5738 1297.42 496.308
94 1 44.2487 10.9608 485 93.5588 1297.53 518.802
95 0 44.1411 11.8031 521 92.9271 1297.87 518.134
96 0 48.1948 12.74 614 86.0537 1297.61 518.485
97 0 47.0457 12.8173 603 79.9718 1297.42 520.942
98 0 47.0596 11.8148 556 83.2932 1297.7 521.399
99 0 47.0558 11.667 549 83.3005 1297.85 521.076
100 0 49.0758 12.0426 591 82.2504 1298.01 520.721
101 0 52.021 12.4373 647 82.3416 1298.09 518.981
102 0 54.0706 12.2248 661 83.3797 1297.26 518.301
103 0 53.0806 11.718 622 85.701 1297.01 517.994
104 0 57.0995 12.1017 691 84.8249 1297.04 516.124
105 0 58.0428 12.3185 715 84.6224 1297.81 515.357
106 0 61.0706 13.2633 810 83.9358 1297.76 513.522
107 0 63.0589 13.0354 822 85.253 1297.7 511.659
108 0 65.0328 12.9473 842 85.4347 1298.07 511.375
109 0 67.0524 12.7214 853 87.4748 1297.72 511.11
110 0 68.0549 13.1511 895 87.467 1298.51 508.975
111 0 71.1004 13.502 960 86.7188 1297.58 506.923
112 0 74.1382 12.9893 963 89.9242 1298.23 506.487
113 0 78.0497 13.6195 1063 90.1787 1297.52 504.836
114 0 79.0652 13.8493 1095 91.7781 1297.23 503.868
115 0 82.027 13.6053 1116 92.2957 1297 504.49
116 0 85.0421 13.5462 1152 92.5712 1296.59 503.31
117 0 88.0809 13.6692 1204 92.0266 1296.56 502.946
118 0 91.0367 13.6648 1244 93.6005 1296.06 499.886
119 0 93.1129 12.7802 1190 95.1429 1296.74 497.952
120 0 98.0629 13.4506 1319 93.7202 1296.64 496.635
121 0 102.174 13.428 1372 96.328 1296.82 493.703
122 1 51.0219 12.0145 613 93.5954 1296.74 519.688
123 0 53.0334 12.6901 673 89.9406 1297.09 518.29
124 0 55.0434 12.4811 687 92.885 1297.19 517.026
125 0 55.0434 12.4084 683 155.549 1297.2 517
126 0 53.0362 11.9918 636 82.5645 1296.41 518.255
127 0 55.0475 11.9896 660 83.2182 1295.9 516.053
128 0 56.0502 11.686 655 85.3649 1296.22 515.864
129 0 58.1028 12.082 702 84.4573 1297.41 513.634
130 0 62.1572 12.7097 790 81.6582 1296.95 513.724
131 0 63.0922 12.3787 781 82.6773 1296.38 513.795
132 0 67.0978 12.4892 838 83.1122 1295.58 512.455
133 0 69.1182 12.7174 879 82.8896 1295.85 510.581
134 0 70.1267 12.891 904 84.2666 1296.31 510.74
135 0 70.1267 12.891 904 163 1297.33 510.668
136 0 76.1807 14.0062 1067 86.7535 1296.08 506.958
137 0 79.1515 14.0111 1109 89.2047 1296.66 505.035
138 0 81.1042 14.1176 1145 88.7677 1296.75 503.193
139 0 84.0886 14.1042 1186 88.6914 1296.46 502.728
140 0 87.179 13.4207 1170 89.3299 1296.26 501.572
141 0 89.2644 13.6336 1217 88.6286 1295.53 501.523
142 0 93.3151 13.6205 1271 86.6743 1295.21 500.648
143 0 94.2132 13.0024 1225 88.1233 1295.69 498.726
144 0 99.1743 13.1486 1304 86.9946 1295.27 497.465
145 0 101.143 13.0311 1318 87.5948 1296.07 496.635
146 0 105.17 13.2642 1395 86.2459 1295.92 493.995
147 1 54.082 10.8909 589 81.1375 1296.18 519.851
148 0 54.1648 11.5758 627 80.2536 1296.64 519.424
149 0 57.1663 12.4199 710 79.9268 1295.84 516.83
150 0 58.1488 12.726 740 77.4838 1295.55 517.041
151 0 60.1014 12.612 758 78.8166 1296.25 515.451
152 0 63.043 12.5787 793 79.2888 1295.78 514.595
153 0 64.0611 12.5349 803 81.1071 1295.83 513.793
154 0 65.0448 12.6836 825 82.2121 1295.55 512.83
155 0 67.1165 12.8284 861 83.0232 1296.13 512.267
156 0 70.208 13.1039 920 83.1913 1296.49 510.843
157 0 70.1746 12.5402 880 85.2034 1297.08 508.544
158 0 75.155 13.053 981 83.4271 1296.59 508.14
159 0 76.1667 13.3654 1018 87.8212 1296.67 506.606
160 0 77.209 12.6281 975 90.2677 1295.87 506.648
161 0 78.1934 11.9447 934 91.3972 1296.51 504.942
162 0 83.1302 13.0037 1081 88.2118 1296.11 504.627
163 0 86.2289 12.6524 1091 90.417 1296.04 503.24
164 0 86.2154 12.4688 1075 91.506 1295.93 501.115
165 1 45.3331 11.2942 512 81.5234 1297.53 523.66
166 0 45.1537 12.0035 542 83.2804 1297.08 521.465
167 0 47.1441 11.6239 548 86.7719 1297.33 520.692
168 0 48.3504 12.5128 605 83.2529 1297.01 519.537
169 0 50.0464 12.3685 619 82.0759 1296.94 519.384
170 0 50.1536 12.4816 626 82.901 1296.16 519.113
171 0 53.1347 11.8755 631 83.7242 1296.23 518.759
172 0 54.0944 12.663 685 81.3693 1296.72 517.8
173 0 55.034 12.4287 684 83.4108 1296.94 516.048
174 0 55.0703 12.7292 701 83 1296.94 514.942
175 0 58.1145 12.6647 736 82.7582 1297 514.211
176 0 59.2071 12.1607 720 84.7611 1296.25 515.61
177 0 59.1119 12.5863 744 86.0672 1295.87 514.305
178 0 61.1399 11.9889 733 86.7872 1295.83 513.754
179 0 62.1256 12.4264 772 86.4028 1295.4 513.516
180 0 64.1147 12.1189 777 86.6023 1295.67 512.102
181 0 67.0746 12.3146 826 85.7494 1295.57 511.887
182 0 68.1178 11.9939 817 85.9657 1295.85 511.115
183 0 71.0969 12.054 857 85.5939 1296.51 508.398
184 0 71.1064 11.2226 798 87.2456 1295.81 507.197
185 0 75.1394 11.7781 885 86.6418 1296.59 506.753
186 0 76.1607 11.1081 846 89.2908 1296.34 505.221
187 1 42.1948 10.2619 433 86.6628 1296.19 522.667
188 0 44.1376 10.7165 473 86.6512 1296.2 522.438
189 0 43.1383 11.4283 493 86.927 1296.64 520.678
190 0 46.2334 11.7664 544 84.0754 1296.89 520.967
191 0 48.1794 11.6647 562 85.21 1296.66 519.044
192 0 49.1131 12.0538 592 84.3564 1296.74 519.971
193 0 50.0995 11.557 579 85.1537 1296.15 520.05
194 0 53.1225 11.9535 635 84.1921 1295.98 517.657
195 0 52.1176 11.8578 618 85.8948 1296.14 518.328
196 0 56.1202 12.0634 677 84.808 1296.26 516.217
197 0 57.0903 12.8919 736 83.2201 1295.2 514.562
198 0 57.133 11.9195 681 84.6065 1295.49 514.971
199 0 61.1029 12.1598 743 83.1696 1295.54 513.087
200 0 63.1844 11.9808 757 83.967 1295.81 511.727
201 0 65.1289 12.1605 792 83.7083 1295.82 510.884
202 0 69.1331 12.3819 856 105.279 1295.8 509.327
203 0 71.0742 12.7894 909 104.034 1295.68 508.796
204 0 72.1461 12.3499 891 105.813 1295.32 506.723
205 0 74.0576 12.5308 928 105.663 1295.88 506.17
206 0 78.098 12.2282 955 105.206 1295.34 503.469
207 0 79.075 12.1657 962 105.472 1295.51 502.672
208 1 42.0419 9.75217 410 104.617 1295.5 522.112
209 0 43.0818 9.63283 415 104.222 1293.63 518.231
210 0 45.1255 10.9472 494 99.5223 1293.17 517.316
211 0 45.0413 10.8123 487 98.5359 1293.25 518.023
212 0 46.0448 11.163 514 99.2529 1293.38 516.905
213 0 48.0696 11.5041 553 97.7613 1293.41 517.962
214 0 50.0324 12.2321 612 94.3382 1293.77 516.292
215 0 50.1385 11.5281 578 88.2595 1294.95 519.095
216 0 52.1198 12.6248 658 85.965 1295.59 518.512
217 0 53.0429 11.1796 593 90.2513 1293.53 516.997
218 0 54.0247 12.4758 674 89.0742 1293.91 516.752
219 0 56.0744 11.5382 647 91.3323 1294.65 515.649
220 0 56.0142 12.1219 679 90.9882 1294.46 514.938
221 0 59.0444 12.1095 715 90.0182 1293.69 514.004
222 0 58.0439 12.0254 698 89.8095 1293.89 513.241
223 0 63.044 12.0551 760 88.3645 1294.08 512.297
224 0 61.0167 11.9639 730 92.6959 1294.6 512.342
225 0 64.02 11.6682 747 93.8353 1294.1 512.46
226 0 66.0416 12.0076 793 93.8298 1294.42 509.528
227 0 68.016 11.7325 798 95.2343 1294.14 509.404
228 0 71.0554 11.8358 841 95.113 1294.09 509.018
229 0 74.0315 12.1435 899 95.5161 1294.11 508.089
230 0 76.0349 12.0997 920 93.8348 1293.97 506.443
231 0 81.0513 12.9054 1046 89.3078 1294.03 505.971
232 0 82.0779 12.9633 1064 90.4662 1293.06 504.413
233 0 86.0498 12.7949 1101 89.3815 1293.93 503.292
234 0 87.029 12.3522 1075 90.467 1293.61 500.275
235 0 92.0599 12.7743 1176 89.25 1293.55 500.173
236 0 94.1254 12.1965 1148 89.1559 1294.45 500.963
237 0 97.117 12.7784 1241 89.0089 1294.17 496.773
238 0 99.0847 11.0612 1096 88.8057 1294.21 494.93
239 1 52.0572 11.2376 585 81.0205 1294.81 519.109
240 0 53.0615 11.8165 627 86.7416 1294.85 517.727
241 0 55.2313 13.0542 721 85.9043 1293.93 514.427
242 0 57.1224 12.6045 720 80.9417 1294.94 517.692
243 0 57.0899 12.2263 698 82.7779 1295.06 516.788
244 0 60.0876 12.7647 767 82.4733 1294.62 515.356
245 0 61.1141 12.5503 767 84.7562 1293.92 514.421
246 0 64.1799 12.5896 808 86.0767 1294.11 513.741
247 0 66.0946 12.7847 845 86.2355 1293.63 512.768
248 0 66.0946 12.8301 848 143.857 1293.63 512.789
249 0 68.1745 12.6147 860 87.0616 1293.88 510.484
250 0 72.1041 13.0228 939 85.4132 1294.41 509.68
251 0 75.141 13.0688 982 85.7332 1295.25 508.757
252 0 77.1543 12.7537 984 86.7144 1295.09 507.902
253 0 79.1172 12.8923 1020 87.5471 1294.96 505.884
254 0 81.07 12.5571 1018 88.0904 1294.78 504.668
255 0 82.043 12.53 1028 88.3444 1294.87 502.725
256 0 85.1326 12.6861 1080 87.4778 1294.87 501.425
257 0 87.0472 12.1084 1054 95.2979 1294.83 499.477
258 0 90.1068 12.0857 1089 93.5895 1294.57 497.789
259 1 48.1166 10.5785 509 78.8173 1294.5 518.061
260 0 51.0941 11.9583 611 79.9296 1294.87 518.493
261 0 53.1138 12.332 655 80.0244 1294.65 518.023
262 0 52.1042 12.1487 633 123.856 1294.74 518.727
263 0 55.0557 12.0968 666 77.2162 1294.92 518.018
264 0 55.0869 12.6164 695 76.6777 1294.8 516.964
265 0 57.0691 11.8979 679 77.7305 1295.79 515.959
266 0 58.0305 12.8898 748 77.1711 1295.03 514.295
267 0 58.0699 12.175 707 78.3607 1294.86 514.147
268 0 62.0921 12.2721 762 77.3675 1294.41 512.604
269 0 62.1531 12.7266 791 78.0936 1294.7 511.716
270 0 66.0352 12.4782 824 78.6954 1294.58 512.467
271 0 68.1204 12.9623 883 80.1257 1294.4 510.331
272 0 69.0812 13.0571 902 82.3282 1294.04 508.973
273 0 70.1266 12.6343 886 83.2427 1294.34 508.728
274 0 75.2142 13.6809 1029 82.6229 1294.4 507.114
275 0 75.1788 12.9558 974 94.2813 1295.29 505.621
276 0 75.1829 12.995 977 146.984 1295.28 505.685
277 0 80.2014 12.7305 1021 96.2125 1294.47 504.178
278 0 82.2611 13.1046 1078 95.5918 1294.77 502.079
279 0 84.1711 12.9855 1093 97.2717 1294.24 500.344
280 0 88.2458 13.5304 1194 95.474 1294.89 500.421
281 0 89.1868 13.2979 1186 92.9604 1294.37 498.265
282 0 91.1964 13.1694 1201 94.6103 1294.63 494.186
283 0 92.4305 12.7231 1176 97.7772 1293.92 494.018
284 0 92.4305 12.7123 1175 148.275 1293.94 493.872
285 1 47.1954 11.5901 547 95.3419 1294.1 515.276
286 0 49.1982 11.5655 569 94.6063 1294.29 514.738
287 0 50.2588 12.0775 607 94.8056 1294.47 514.834
288 0 52.2688 13.5645 709 90.5021 1293.18 514.529
289 0 52.0894 12.9585 675 91.883 1294.08 514.366
290 0 55.1219 12.8624 709 90.6276 1293.59 513.694
291 0 55.1059 13.2472 730 87.8836 1294.05 512.471
292 0 58.1153 13.869 806 85.5285 1293.16 511.448
293 0 57.0836 13.3313 761 87.9842 1293.63 510.247
294 0 59.1125 12.9583 766 89.265 1293.35 509.407
295 0 60.2212 13.7161 826 88.1889 1293.32 508.449
296 0 61.1135 13.8922 849 89.6266 1293.52 506.101
297 0 60.1548 13.565 816 92.9632 1293.34 503.812
298 0 64.2524 14.1006 906 90.0751 1293.76 501.819
299 0 67.2155 13.9105 935 93.6706 1293.66 501.849
300 0 71.2408 14.3317 1021 91.7395 1293.27 500.037
301 0 72.2526 14.5323 1050 92.4705 1293.18 499.373
302 0 75.307 14.5803 1098 92.4872 1292.52 498.669
303 0 73.1514 13.4516 984 97.4177 1292.97 497.547
304 0 79.2783 13.8752 1100 94.9755 1293.82 496.755
305 0 79.1558 13.5303 1071 96.0532 1293.25 494.106
306 0 80.2273 13.4992 1083 95.9418 1293.73 493.991
307 0 83.19 13.4872 1122 95.3253 1293.41 493.593
308 0 87.2372 14.1453 1234 93.184 1293.16 491.169
309 0 90.3188 13.9174 1257 92.4312 1293.15 492.153
310 0 92.1674 13.4755 1242 93.5048 1292.41 488.425
311 0 96.1987 13.5657 1305 92.2222 1292.98 488.084
312 0 99.1909 13.8823 1377 90.8635 1292.87 487.15
313 1 49.0705 12.3088 604 95.9321 1293.22 509.775
314 0 52.1005 12.7062 662 92.0876 1292.73 510.074
315 0 53.1017 13.1634 699 91.5179 1293.4 508.757
316 0 56.0413 12.9547 726 90.7879 1293.01 509.045
317 0 57.0654 13.8262 789 89.5716 1293.13 508.589
318 0 58.1487 13.689 796 92.0653 1293.19 507.408
319 0 60.0858 13.5306 813 92.6802 1292.47 508.412
320 0 61.1146 13.1392 803 93.8954 1292.66 506.21
321 0 63.1353 13.4632 850 94.7071 1293.16 504.975
322 0 66.0932 13.4961 892 95.6704 1292.78 503.822
323 0 66.0559 13.3069 879 98.5097 1292.44 503.187
324 0 69.077 13.9265 962 97.1757 1292.31 502.165
325 0 72.0686 13.834 997 97.661 1292.93 502.042
326 0 73.0754 14.0813 1029 99.4966 1292.18 499.348
327 0 76.0731 13.4213 1021 100.461 1292.34 499.606
328 0 79.0779 14.2897 1130 98.6956 1291.89 497.319
329 0 84.1134 14.2308 1197 97.5205 1292.45 495.377
330 0 84.1475 13.9517 1174 99.2155 1291.61 494.906
331 0 87.1017 14.3625 1251 99.3301 1292.68 493.203
332 0 92.1441 13.5874 1252 99.976 1292.48 490.864
333 0 94.156 13.3608 1258 101.652 1292.47 489.913
334 1 49.071 9.90402 486 94.4774 1291.96 515.856
335 0 54.2118 11.9347 647 99.7821 1291.8 518.709
336 0 56.0637 11.915 668 88.7754 1293.05 518.722
337 0 57.0663 11.7057 668 89.2725 1292.82 516.868
338 0 59.0195 11.5216 680 89.5235 1291.96 516.479
339 0 60.0359 11.7596 706 90.306 1291.93 516.388
340 0 63.0562 12.5602 792 89.2386 1291.69 515.619
341 0 65.1521 13.0157 848 100.626 1291.59 513.229
342 0 67.2591 12.2957 827 102.918 1292.18 512.875
343 0 69.1792 12.1279 839 103.738 1291.99 511.402
344 0 71.1278 12.6814 902 106.612 1291.41 510.526
345 0 72.0888 12.6649 913 107.772 1290.79 509.984
346 0 73.1171 12.2817 898 107.013 1291.37 508.605
347 0 78.1449 12.8479 1004 102.774 1291.05 507.721
348 0 78.131 12.351 965 105.79 1290.83 506.24
349 0 82.1184 12.1045 994 107.145 1290.22 504.695
350 0 84.0457 12.9334 1087 104.871 1290.93 504.191
351 0 86.1034 12.7289 1096 106.042 1290.98 502.616
352 0 89.1267 11.8595 1057 107.216 1290.41 500.671
353 1 45.0798 9.05062 408 95.2524 1292.02 525.252
354 0 45.1236 10.4158 470 94.5213 1291.42 523.219
355 0 50.2115 10.6948 537 97.8138 1292.41 521.259
356 0 52.0403 10.588 551 97.824 1291.14 521.154
357 0 50.056 10.5282 527 89.8918 1291.65 523.839
358 0 51.0828 10.1404 518 91.832 1290.72 521.332
359 0 52.0408 9.9153 516 92.6996 1291.41 522.796
360 0 52.0434 9.87636 514 137.313 1291.42 522.805
361 0 53.0303 10.9183 579 92.1002 1291.43 520.425
362 0 54.0432 10.3251 558 91.2545 1291.41 519.536
363 0 57.0337 11.4669 654 88.8914 1290.63 517.521
364 0 58.0375 11.1824 649 89.7442 1291.74 518.379
365 0 62.0812 10.7923 670 88.9851 1291.8 517.133
366 0 64.0728 12.08 774 93.5698 1292.21 516.428
367 0 64.0992 11.685 749 95.6382 1291.48 515.566
368 0 66.0628 11.4134 754 96.7135 1291.1 512.752
369 0 68.1424 11.2852 769 96.3537 1291.66 513.224
370 0 71.0446 11.162 793 98.2888 1291.66 510.705
371 0 72.0223 11.3715 819 98.9267 1291.86 507.781
372 0 73.0236 10.613 775 100.111 1291.71 508.8
373 0 77.0283 11.2946 870 98.3851 1292.24 508.464
374 1 42.0309 10.0878 424 98.9976 1291.58 524.783
375 0 44.0192 10.4273 459 95.4205 1292.42 522.959
376 0 43.0168 9.67063 416 94.8462 1292.82 518.942
377 0 48.047 11.7385 564 90.5071 1292.11 522.319
378 0 42.0354 9.49201 399 85.0476 1292.38 525.486
379 0 43.0318 9.92288 427 84.5714 1291.2 524.119
380 0 46.0256 9.82062 452 84.7434 1291.75 522.327
381 0 48.0665 9.77811 470 85.2255 1291.33 521.64
382 0 49.084 9.98288 490 85.2531 1291.83 520.914
383 0 50.0585 9.46892 474 86.2658 1292.42 519.589
384 0 51.0472 9.63814 492 85.7785 1292.27 519.88
385 0 54.0395 10.1963 551 83.9129 1292.01 518.071
386 0 52.0402 10.0499 523 86.9369 1292.3 516.889
387 0 55.0555 11.3159 623 84.4575 1291.7 514.746
388 0 56.0919 9.94796 558 86.2455 1293.28 514.206
389 0 57.0643 9.56816 546 85.5 1293.33 513.531
390 0 61.099 10.1311 619 82.9063 1293.19 511.262
391 0 62.1065 9.95065 618 83.6246 1293.37 511.249
392 0 65.0586 10.6212 691 82.9204 1293.21 509.424
393 0 65.061 9.88304 643 82.1975 1293.07 509.51
394 0 67.075 9.54156 640 81.9547 1293.55 508.173
395 0 71.0888 10.8456 771 81.5629 1293.73 506.685
396 0 71.089 10.0859 717 84.4547 1293.64 505.411
397 0 73.114 10.9829 803 82.4807 1293.2 503.301
398 0 76.2206 10.8894 830 81.9964 1293.56 504.098
399 0 79.1903 10.2159 809 83.7033 1293.67 503.562
400 0 79.3508 9.94319 789 85.3042 1293.65 499.435
401 0 84.2432 11.1344 938 84.1748 1293.71 497.655
402 0 85.1921 10.4822 893 86.4278 1293.43 496.834
403 0 88.327 10.6423 940 86.3872 1293.46 494.416
404 0 91.3745 11.3051 1033 85.5615 1293.47 493.526
405 1 45.0887 8.64961 390 83.3718 1294.39 515.667
406 0 37.1589 7.99271 297 80.8788 1293.34 506.872
407 0 47.0753 9.36798 441 69.8639 1292.05 513.751
408 0 48.0316 10.7221 515 80.0214 1291.37 518.468
409 0 50.0915 9.72221 487 81.9035 1292.83 517.628
410 0 54.0766 10.744 581 80.3735 1292.37 517.103
411 0 55.0837 10.8199 596 79.505 1292.62 517.696
412 0 53.0948 10.6602 566 80.4223 1292.29 516.394
413 0 58.0931 11.516 669 77.8685 1292.51 514.71
414 0 59.1402 11.7855 697 77.8264 1291.83 515.459
415 0 62.0821 11.8714 737 79.3826 1292.18 513.992
416 0 62.0975 11.4497 711 78.5288 1292.04 512.383
417 0 63.085 11.4132 720 80.0194 1292 511.349
418 0 64.1522 11.2545 722 80.5512 1292.88 511.719
419 0 68.105 11.6438 793 81.005 1292.47 509.544
420 0 68.1461 11.2406 766 82.4856 1292.58 508.89
421 0 69.1235 11.5879 801 82.8202 1291.58 507.581
422 0 74.202 11.6035 861 82.6539 1292.21 506.49
423 0 76.1804 12.4441 948 83.2384 1292.51 502.955
424 0 77.1691 12.0126 927 84.0356 1292.19 502.153
425 0 79.1926 11.9708 948 84.2911 1291.82 502.046
426 0 82.0953 11.511 945 85.5069 1291.45 500.665
427 0 81.1158 11.8349 960 133.096 1290.45 501.085
428 0 85.2985 11.7001 998 85.5 1291.87 497.145
429 0 85.1788 11.4935 979 85.6057 1291.83 495.443
430 0 92.192 12.3655 1140 82.0939 1291.41 495.209
431 0 93.2065 12.1558 1133 82.5481 1291.57 492.139
432 0 93.264 11.3227 1056 84.5644 1291.05 490.35
433 1 45.2059 9.35718 423 85.747 1292.04 511.915
434 0 47.1353 10.6502 502 82.3606 1292.13 512.707
435 0 51.1366 11.2248 574 80.946 1291.97 511.58
436 0 53.0935 11.3385 602 77.4618 1292.85 512.455
437 0 56.1081 12.3512 693 78.0216 1292.25 513.26
438 0 50.1559 10.5072 527 76.1651 1292.26 507.074
439 0 54.07 10.7453 581 75.6885 1292.01 507.754
440 0 52.0953 10.7495 560 78.1857 1292.67 505.532
441 0 59.0566 9.99042 590 72.2983 1291.41 511.651
442 0 64.0172 11.6687 747 72.7349 1291.94 513.068
443 0 63.0249 10.1547 640 76.8047 1291.06 512.673
444 0 66.0516 11.4153 754 75.87 1291.62 512.04
445 0 69.0384 12.2396 845 75.4509 1291.23 509.715
446 0 70.0763 11.2591 789 77.9645 1291.9 509.175
447 0 72.0751 11.3493 818 78.6357 1292.59 508.386
448 0 77.0277 12.3981 955 76.8 1292.3 508.099
449 0 80.2043 11.7699 944 78.9852 1291.89 506.672
450 0 83.1149 12.597 1047 78.2588 1291.62 504.716
451 0 84.0554 11.8017 992 80.8044 1291.99 502.459
452 0 88.0366 12.1427 1069 80.7474 1291.84 501.472
453 0 89.0954 11.9759 1067 81 1291.88 501.455
454 0 93.0745 12.302 1145 81.1031 1291.9 497.315
455 0 95.0508 11.678 1110 82.1622 1291.62 496.844
456 0 99.1417 11.8013 1170 79.6949 1292.38 494.575
457 1 55.0281 11.5941 638 78.4608 1292.93 518.362
458 0 57.0928 11.385 650 80.4846 1293.06 514.694
459 0 60.0352 12.2428 735 75.9714 1292.22 515.234
460 0 61.029 11.4372 698 77.1132 1291.88 511.996
461 0 61.029 11.4863 701 122.592 1292.89 511.954
462 0 66.112 11.9192 788 74.4175 1292.94 509.725
463 0 66.112 11.8889 786 117.977 1291.91 509.915
464 0 69.0866 11.8257 817 75.5692 1292.87 507.721
465 0 72.0459 11.8258 852 74.2934 1292.82 507.405
466 0 74.0636 11.8142 875 75.0983 1292.71 504.472
467 0 78.1 12.6632 989 73.5935 1292.37 503.155
468 0 78.0651 11.8363 924 75.4275 1291.34 501.93
469 0 83.0231 12.1171 1006 75.836 1291.24 500.099
470 0 86.0464 11.9935 1032 76.187 1291.65 499.354
471 0 86.0389 11.4018 981 78.9123 1291.68 497.873
472 0 91.0767 12.5169 1140 77.2175 1291.03 496.337
473 0 93.0534 11.574 1077 81.1105 1291.8 494.339
474 0 96.0729 11.8556 1139 78.1888 1291.7 493.574
475 0 98.0794 11.9291 1170 81.2026 1291.87 492.24
476 0 103.077 11.6903 1205 84.3676 1291.53 488.475
477 1 53.1236 9.93908 528 76.2102 1290.41 514.225
478 0 53.1508 10.0657 535 75.6 1290.39 513.007
479 0 57.0552 10.113 577 74.5927 1291.29 515.667
480 0 59.0236 10.4873 619 75.6187 1290.14 512.96
481 0 62.0426 11.6855 725 73.8014 1289.98 513.396
482 0 64.0626 12.0351 771 70.4384 1290.07 512.961
483 0 63.0268 11.1064 700 74.7686 1290.15 510.764
484 0 68.0923 12.1453 827 71.7158 1290.47 509.605
485 0 68.0498 11.5651 787 73.2274 1290.58 508.978
486 0 70.03 11.6664 817 74.2203 1289.73 508.359
487 0 72.0933 11.9012 858 74.6806 1289.16 507.751
488 0 77.1551 12.5721 970 73.1423 1290.04 506.002
489 0 78.0606 11.9907 936 75.7361 1290.24 505.18
490 0 81.0838 12.0616 978 76.0818 1290.3 504.047
491 0 84.064 12.9663 1090 74.1917 1289.75 502.538
492 0 85.0503 12.8747 1095 75.8393 1290.08 501.647
493 0 89.0691 12.8215 1142 75.5201 1290.85 500.754
494 0 89.0716 12.3833 1103 77.5938 1291.4 499.283
495 0 94.0879 12.8284 1207 77.9495 1290.49 496.53
496 0 98.2188 12.859 1263 88.2716 1290.71 494.285
497 1 50.1328 10.7714 540 82.6352 1290.51 521.043
498 0 49.0404 9.95098 488 79.9877 1290.26 520.656
499 0 51.0258 10.3281 527 78.0778 1292.42 520.089
500 0 53.1469 11.3083 601 74.5973 1292.59 518.672
501 0 55.1337 11.6263 641 73.6568 1290.59 517.995
502 0 57.0386 11.7289 669 72.1734 1290.59 518.161
503 0 59.0251 12.3337 728 70.2006 1290.01 517.795
504 0 59.0339 12.3488 729 69.7929 1291.46 516.757
505 0 60.0811 12.0504 724 70.7583 1291.3 516.175
506 0 62.1353 11.7486 730 71.5918 1291.14 513.999
507 0 64.1106 12.7436 817 69.5508 1290.3 513.794
508 0 67.0417 12.2759 823 69.6015 1290.62 514.007
509 0 67.0894 12.1182 813 70.8782 1290.08 512.239
510 0 70.105 12.952 908 70.4482 1290.75 509.486
511 0 72.1199 12.7011 916 71.4825 1290.5 509.859
512 0 73.0834 12.5063 914 72.4705 1291.03 508.249
513 0 76.0609 12.3059 936 73.2083 1290.62 507.264
514 0 77.086 11.7791 908 74.6663 1290.63 507.95
515 0 81.1 12.4414 1009 73.6145 1290.85 506.054
516 0 82.117 11.9464 981 76.1978 1291.11 503.109
517 0 85.0642 11.9557 1017 76.7237 1290.36 504.958
518 0 89.1913 12.3442 1101 81.1626 1290.42 501.904
519 0 90.1944 12.0074 1083 82.3407 1290.17 499.645
520 0 92.1701 12.1731 1122 81.1301 1289.58 501.393
521 0 96.2255 12.1693 1171 78.9471 1289.39 497.674
522 1 48.0531 9.94733 478 75.8096 1290.26 522.738
523 0 47.0629 10.0291 472 75.9004 1289.84 522.403
524 0 50.0375 10.7919 540 74.7204 1289.7 521.944
525 0 50.0651 10.9657 549 73.9545 1289.17 520.259
526 0 52.0285 11.0709 576 80.8368 1289.13 520.141
527 0 54.0631 11.727 634 81.5063 1289.26 519.459
528 0 56.067 11.9857 672 81.7872 1291.62 517.935
529 0 57.0144 11.576 660 83.4576 1291.91 516.77
530 0 60.0334 11.5103 691 83.2518 1291.84 516.865
531 0 62.0644 11.7942 732 82.8552 1291.4 517.076
532 0 64.0619 11.7386 752 83.6343 1291.45 515.67
533 0 66.0835 11.6368 769 83.4096 1291.69 514.085
534 0 69.1084 11.8799 821 82.1547 1291.03 514.341
535 0 72.0655 12.7245 917 80.036 1290.78 514.242
536 0 74.151 12.2723 910 82.3176 1290.46 511.935
537 0 75.1039 11.5706 869 84.8838 1290.61 511.075
538 0 78.2316 12.1306 949 83.6618 1290.26 509.925
539 0 80.2236 11.9915 962 85.1674 1290.93 508.569
540 0 81.2439 11.9763 973 85.4861 1290.46 509.268
541 0 84.2023 11.9474 1006 88.0845 1290.25 506.503
542 0 87.2682 11.7798 1028 87.465 1290.75 505.896
543 0 89.3544 11.3816 1017 89.4838 1289.91 504.352
544 1 48.138 10.4491 503 85.1789 1290.11 524.909
545 0 48.02 9.99583 480 78.8958 1290.64 524.735
546 0 50.0292 11.2534 563 73.8028 1290.88 524.449
547 0 53.0405 11.4064 605 71.4066 1289.93 523.965
548 0 53.0202 12.0331 638 72.4749 1289.26 522.895
549 0 53.0175 12.2224 648 71.7268 1288.33 520.77
550 0 57.0328 12.747 727 72.0193 1289.49 521.272
551 0 58.0347 12.3547 717 74.0167 1289.34 519.953
552 0 62.1162 13.2333 822 72.337 1289.82 519.428
553 0 63.0351 12.0409 759 76.5731 1289.24 517.755
554 0 65.041 12.8227 834 75.0899 1289.48 517.675
555 0 67.0378 12.6048 845 79.7692 1288.48 517.199
556 0 70.0547 12.6758 888 79.1261 1288.91 515.613
557 0 70.1646 12.4992 877 80.3922 1288.65 514.778
558 0 73.0499 12.8816 941 79.322 1288.57 512.272
559 0 74.136 13.2594 983 79.353 1288.65 511.668
560 0 78.1016 13.188 1030 77.5437 1288.68 509.529
561 0 78.1361 12.6318 987 81.9524 1288.68 509.252
562 0 80.0693 13.2385 1060 79.8679 1289.51 507.558
563 0 83.1171 14.3051 1189 79.6627 1289.69 505.4
564 0 87.0989 13.4675 1173 81.6053 1289.15 504.495
565 0 87.0798 13.1259 1143 83.259 1289.05 502.753
566 0 91.055 13.4864 1228 82.9137 1289.28 502.022
567 0 95.0584 13.1288 1248 84.6402 1291.68 499.52
568 1 49.0148 10.0378 492 88.4411 1291.02 522.315
569 0 52.0566 11.7949 614 86.6889 1289.93 523.039
570 0 52.0326 12.1847 634 76.5599 1290.95 521.483
571 0 53.0433 10.7648 571 77.8581 1290.57 525.431
572 0 53.1265 10.9738 583 79.2796 1291.91 523.931
573 0 56.0643 11.6473 653 76.5651 1290.49 523.427
574 0 56.0847 11.3222 635 83.3685 1291.45 522.033
575 0 57.0602 11.6894 667 83.4258 1290.98 523.27
576 0 58.0679 11.8826 690 83.7884 1290.58 520.98
577 0 61.0983 11.2278 686 84.605 1289.4 520.615
578 0 63.0681 11.4955 725 87.0345 1290.66 519.519
579 0 64.1175 11.6817 749 86.0481 1290.6 518.92
580 0 66.1445 11.8831 786 85.2926 1290.03 517.845
581 0 69.1158 12.3127 851 84.725 1289.47 515.703
582 0 71.0993 12.588 895 84.3676 1289.83 515.697
583 0 75.1435 12.5759 945 83.3354 1290.33 513.975
584 0 75.1102 12.4218 933 84.0675 1290.6 512.777
585 0 80.0996 13.1336 1052 81.6673 1290.1 509.612
586 0 82.0834 12.8041 1051 80.7745 1290.18 507.304
587 0 85.1082 12.208 1039 79.6429 1290.53 508.004
588 0 86.0535 12.3179 1060 81.4076 1289.48 506.629
589 0 91.0815 12.5163 1140 81.8114 1289.92 505.708
590 0 94.1138 12.8674 1211 81.6986 1289.96 503.168
591 0 95.075 12.285 1168 82.5779 1290 502.061
592 0 100.081 12.7497 1276 84.5721 1289.73 501.936
593 1 53.0559 11.1204 590 89.2492 1289.52 523.608
594 0 54.0725 11.8175 639 89.5305 1288.57 523.408
595 0 55.0413 11.3188 623 89.9053 1289.45 520.146
596 0 58.0638 12.2452 711 86.5077 1288.55 520.942
597 0 59.1488 12.4263 735 88.9619 1288.75 519.493
598 0 57.1007 11.3659 649 85.3821 1288.58 522.735
599 0 59.039 11.5178 680 85.0088 1288.72 521.929
600 0 59.0297 11.4519 676 88.2056 1288.21 520.913
601 0 63.1015 12.1233 765 86.9111 1288.21 518.746
602 0 66.04 12.1442 802 86.9888 1287.96 517.532
603 0 69.1498 12.3211 852 86.4484 1287.86 516.933
604 0 69.1133 12.0093 830 87.9446 1288.47 516.452
605 0 70.1297 12.4484 873 89.0092 1288.76 515.044
606 0 74.1242 12.3306 914 88.5416 1288.12 514.162
607 0 75.1362 12.5905 946 88.3615 1288.74 511.777
608 0 78.1209 12.0582 942 89.4172 1288.13 510.434
609 0 80.1779 12.1106 971 90.7281 1288.94 509.095
610 0 80.1779 12.1854 977 146.732 1289.94 509.099
611 0 84.1136 12.1978 1026 90.4873 1288.18 507.236
612 0 86.1345 12.2018 1051 90.8972 1287.89 504.485
613 0 88.1568 12.024 1060 90.6028 1288.14 503.96
614 0 91.0848 12.7464 1161 88.4444 1288.56 501.252
615 0 95.1665 12.1366 1155 89.3957 1288.32 498.763
616 0 98.1028 12.4869 1225 87.12 1288.58 499.019
617 0 100.17 13.3872 1341 86.0589 1287.79 496.474
618 1 51.0376 10.4825 535 88.5944 1290.76 518.006
619 0 53.1077 10.4505 555 86.8649 1290.85 515.234
620 0 54.1024 11.3119 612 85.9608 1290.14 512.075
621 0 54.1136 11.0878 600 87.2067 1289.37 514.667
622 0 57.2457 10.8655 622 85.0595 1289.93 512.598
623 0 61.1642 11.9841 733 82.7394 1289.66 512.99
624 0 63.1213 12.0878 763 82.8231 1290.45 516.877
625 0 65.0439 11.9611 778 82.8843 1290.73 516.634
626 0 66.0457 11.9008 786 84.7939 1290.73 513.225
627 0 67.0568 12.1837 817 85.8299 1290.9 513.852
628 0 70.1043 12.0677 846 86.4291 1290.49 512.187
629 0 70.0923 12.0555 845 88.4225 1290.25 508.778
630 0 75.1143 12.3279 926 88.2138 1291.2 509.424
631 0 76.1357 12.6879 966 89.2122 1291.01 507.202
632 0 78.1356 12.3247 963 88.2887 1290.99 505.638
633 0 78.1252 11.904 930 90.0204 1290.06 503.904
634 0 81.0962 12.6516 1026 88.4435 1290.8 502.472
635 0 85.1232 12.2293 1041 91.6215 1291.26 501.897
636 0 87.1131 12.8339 1118 89.8989 1290.81 497.859
637 0 90.0572 12.2589 1104 88.8469 1290.69 497.346
638 0 90.203 12.0284 1085 89.5014 1290 494.046
639 0 96.2411 12.1258 1167 89.1859 1289.77 492.913
640 0 96.3112 11.629 1120 91.1018 1289.17 489.063
641 0 102.186 12.7708 1305 89.3778 1289.71 487.779
642 1 54.0673 9.91357 536 88.9683 1288.51 513.123
643 0 55.0266 10.613 584 87.8904 1289.65 510.687
644 0 58.043 10.9402 635 87.2803 1289.74 509.975
645 0 60.0541 10.374 623 73.4286 1290.59 515.803
646 0 63.077 11.589 731 78.357 1291.3 517.999
647 0 65.1815 10.8927 710 80.8127 1291.5 516.27
648 0 68.2195 11.5949 791 79.6283 1291.36 515.009
649 0 68.1164 10.8784 741 82.3293 1291.33 514.382
650 0 70.1507 11.903 835 81.7353 1290.67 513.268
651 0 70.12 11.2664 790 85.2165 1289.97 512.194
652 0 74.0984 11.4712 850 85.14 1290.92 510.555
653 0 77.0856 11.4418 882 83.8175 1290.97 509.659
654 0 77.1598 11.2883 871 86.2882 1291.4 507.886
655 0 81.1206 12.0561 978 85.0153 1290.84 507.824
656 0 84.0815 11.2748 948 87.0222 1290.43 504.9
657 0 86.1819 11.4873 990 87.3859 1291.2 503.633
658 0 89.134 11.4098 1017 88.6136 1291.58 503.536
659 0 90.1389 11.9815 1080 89.0898 1290.57 502.482
660 0 94.0967 12.3171 1159 88.5004 1290.82 501.55
661 0 96.1122 12.2253 1175 91.6315 1290.56 497.021
662 0 99.244 12.3332 1224 92.0523 1290.72 497.322
663 0 102.151 12.5207 1279 91.5223 1290.47 495.843
664 0 102.131 11.8377 1209 95.0844 1291.33 494.43
665 0 105.258 12.2556 1290 94.6008 1290.83 493.406
666 0 110.116 12.1872 1342 94.494 1291.19 490.007
667 0 110.116 12.1781 1341 144.622 1291.19 490.056
668 0 117.23 13.1536 1542 91.9877 1290.91 486.462
669 0 121.273 12.2946 1491 94.1864 1291.28 486.184
670 0 126.204 12.7571 1610 98.0615 1291.28 483.72
671 0 129.322 13.5785 1756 93.1663 1291.35 480.108
672 0 134.315 12.642 1698 95.2267 1291.75 478.346
673 0 137.369 12.1643 1671 98.3465 1290.91 475.397
674 0 141.217 13.2137 1866 100.803 1291.97 474.053
675 0 145.271 13.7467 1997 99.5093 1291.09 472.259
676 0 149.252 13.3532 1993 99.4782 1291.43 472.923
677 0 152.36 13.1465 2003 99.1643 1291.55 469.65
678 0 158.314 13.4732 2133 100.205 1291.69 464.374
679 0 161.258 13.6986 2209 101.957 1291.41 466.381
680 0 167.322 13.5846 2273 102.368 1291.34 461.949
681 0 170.268 13.9016 2367 102.159 1291.39 459.149
682 0 175.368 14.039 2462 100.573 1290.66 458.516
683 0 177.18 14.0648 2492 102.244 1291.42 454.589
684 0 185.291 14.8577 2753 97.0196 1291.42 454.944
685 0 191.28 14.8892 2848 94.9996 1291.83 450.238
686 0 195.38 14.7302 2878 94.9514 1291.57 445.845
687 0 196.378 13.5963 2670 96.9442 1290.98 445.187
688 0 205.277 13.874 2848 96.0021 1291.06 443.464
689 0 210.529 13.6371 2871 97.217 1291.41 439.648
690 1 164.371 12.119 1992 97.5251 1291.39 465.277
691 0 171.22 13.0593 2236 96.0644 1290.73 463.015
692 0 175.375 12.5331 2198 100.642 1291.46 459.268
693 0 181.329 13.0536 2367 98.4711 1290.97 456.677
694 0 187.396 12.4389 2331 100.767 1291.51 450.103
695 0 194.295 12.9545 2517 99.8939 1290.37 445.838
696 0 201.338 12.7696 2571 101.054 1290.51 442.569
697 0 208.229 12.5727 2618 101.614 1290.03 442.241
698 0 215.269 12.4449 2679 100.839 1290.12 439.196
699 1 46.0184 10.0829 464 88.8147 1292.14 525.481
700 0 48.0766 10.2961 495 88.2061 1290.52 523.689
701 0 50.053 11.5877 580 87.5638 1292.58 523.991
702 0 49.0353 11.0533 542 84.9262 1290.28 527.764
703 0 49.0756 10.2699 504 87.8849 1289.91 525.974
704 0 52.0827 10.6177 553 85.6817 1290.07 526.172
705 0 54.0659 10.8016 584 85.2894 1290.07 526.296
706 0 54.0659 10.7831 583 130.895 1290.07 526.341
707 0 54.0721 10.1346 548 89.6478 1289.54 524.573
708 0 55.0718 9.35142 515 91.7418 1289.1 524.421
709 0 58.1121 9.60214 558 87.9068 1288.67 523.805
710 0 59.1347 11.2793 667 85.2339 1288.72 520.537
711 0 63.0722 11.907 751 82.3356 1289.12 521.518
712 0 62.1128 10.4809 651 85.3226 1289.07 519.955
713 0 66.1074 10.9216 722 81.8061 1288.63 518.805
714 0 67.1501 10.6776 717 83.1311 1288.62 517.971
715 0 67.1303 10.4126 699 83 1289.48 518.628
716 0 70.2135 11.3938 800 81.675 1289.73 515.879
717 0 74.1301 11.4528 849 77.927 1289.5 515.497
718 0 77.3045 11.4482 885 80.9435 1289.2 512.437
719 0 79.1076 11.4275 904 81.3208 1289.3 511.061
720 0 82.1294 11.7741 967 81.6608 1289.71 511.978
721 0 86.1401 12.8512 1107 78.3035 1289.37 510.644
722 0 90.2656 12.8067 1156 81.4092 1289.49 508.882
723 1 48.1606 10.2781 495 89.7939 1289.86 529.321
724 0 45.0653 10.9841 495 84.4242 1289.14 524.418
725 0 47.0359 11.842 557 82.9946 1290.39 523.07
726 0 48.1535 10.7365 517 81.2302 1290.53 531.882
727 0 50.092 10.0615 504 80.873 1290.26 529.006
728 0 49.1102 10.1405 498 83.3715 1290.44 528.942
729 0 55.0798 11.4016 628 80.6879 1290.07 527.026
730 0 56.2303 11.5774 651 79.361 1290.58 523.177
731 0 58.1207 10.9083 634 81.9826 1290.27 524.284
732 0 56.1113 11.1386 625 90.0384 1289.79 525.173
733 0 59.178 11.7949 698 88.9928 1289.44 524.847
734 0 60.2002 10.681 643 83.3173 1290.99 524.154
735 0 64.1099 11.2775 723 81.2448 1290.93 521.835
736 0 66.0547 11.7176 774 81.6977 1290.91 518.306
737 0 67.1478 11.914 800 80.6088 1290.94 518.02
738 0 72.1029 12.3157 888 78.3863 1290.69 516.521
739 0 74.2166 12.7195 944 78.3824 1291.01 516.034
740 0 74.133 12.7339 944 79.7532 1291.44 515.892
741 0 79.2175 12.4089 983 81.412 1290.97 512.784
742 0 80.11 12.8823 1032 81.9079 1291.36 510.727
743 0 83.0837 13.1193 1090 82.1459 1290.28 510.302
744 0 85.109 13.0539 1111 82.8065 1290.21 508.354
745 0 89.0964 12.5482 1118 83.0957 1290.69 508.132
746 1 47.08 11.8946 560 86.3536 1291.34 526.111
747 0 49.1068 12.2997 604 86.1159 1291.4 525.406
748 0 53.0852 12.9415 687 82.4338 1291.09 526.114
749 0 54.1122 13.0654 707 81.8586 1290.21 525.209
750 0 55.1402 13.511 745 83.4765 1290.72 523.173
751 0 55.0575 12.8593 708 84.3093 1291.06 524.038
752 0 56.1534 13.4631 756 84.0714 1290.65 522.094
753 0 57.2326 13.384 766 84.7467 1290.77 522.001
754 0 58.0785 11.4845 667 87.997 1290.66 521.979
755 0 60.0725 12.4017 745 86.996 1290.86 520.519
756 0 64.0566 12.9885 832 85.2356 1290.74 518.501
757 0 67.1376 13.3606 897 83.3946 1290.78 518.548
758 0 68.0629 13.2671 903 83.9192 1291.41 518.307
759 0 71.0805 12.8305 912 85.6327 1291.12 516.797
760 0 73.0551 13.2776 970 84.2443 1291.12 515.411
761 0 74.0673 13.2312 980 84.3306 1290.51 513.45
762 0 77.074 12.9097 995 83.4191 1291.48 512.551
763 0 78.1026 13.0854 1022 83.9785 1291.33 512.046
764 0 83.1682 13.4547 1119 82.908 1291.44 509.732
765 0 85.1009 12.7613 1086 83.8296 1291.19 509.289
766 0 88.0884 12.794 1127 84.6761 1290.99 508.384
767 0 90.1009 13.1852 1188 84.8796 1291.47 507.041
768 0 94.0998 13.305 1252 85.4417 1291.14 507.096
769 0 96.125 13.316 1280 88.4375 1290.3 503.773
770 0 98.094 13.1812 1293 89.5839 1290.57 501.523
771 0 101.116 12.6587 1280 89.2516 1289.77 498.255
772 0 105.173 12.4271 1307 86.7927 1290.18 497.642
773 0 109.166 12.4672 1361 88.0154 1290.43 494.685
774 1 59.0863 11.7286 693 87.6292 1291.32 519.478
775 0 59.054 11.4641 677 87.5923 1290.95 520.035
776 0 63.2653 11.4597 725 86.8386 1291 517.114
777 0 67.1305 12.4831 838 85.2124 1290.7 516.501
778 0 70.1307 12.6621 888 85.4302 1289.93 516.884
779 0 70.0751 13.2715 930 85.6677 1290.5 516.53
780 0 73.1595 13.2587 970 85.1804 1290.87 513.175
781 0 76.1649 13.7465 1047 82.8596 1291.26 511.725
782 0 79.1254 13.2069 1045 83.5244 1291.27 510.291
783 0 81.1346 13.3975 1087 84.6844 1291.27 507.958
784 0 83.1174 12.8493 1068 84.1629 1291.34 507.17
785 0 85.1447 13.1423 1119 84.9071 1290.59 506.926
786 0 89.156 13.2689 1183 83.8867 1291.43 505.096
787 0 91.1441 13.166 1200 84.9608 1291.85 504.646
788 0 93.1293 12.7565 1188 85.8098 1292.01 502.705
789 0 96.1144 13.0053 1250 85.6808 1291.34 502.024
790 0 97.0796 12.9275 1255 87.6072 1292.4 499.488
791 0 100.065 12.6217 1263 88.2059 1292.76 499.352
792 0 104.106 12.9772 1351 87.946 1292.66 497.524
793 0 106.102 13.1383 1394 87.8953 1292.13 495.783
794 0 111.161 13.5928 1511 87.4355 1292.94 494.108
795 0 115.13 13.6193 1568 87.7557 1292.03 492.378
796 0 116.148 13.2503 1539 90.0136 1292.17 490.085
797 0 117.048 12.3197 1442 92.7725 1292.17 489.189
798 0 123.117 12.7033 1564 90.6234 1292.43 486.16
799 0 126.179 12.4981 1577 91.123 1292.06 483.822
800 0 126.177 12.5062 1578 128.734 1292.06 483.886
801 0 136.155 12.5592 1710 91.7643 1292.33 480.713
802 1 71.0483 12.4704 886 91.2901 1292.2 509.358
803 0 76.0679 13.5405 1030 92.0641 1292.13 509.482
804 0 75.0476 13.3782 1004 97.9711 1291.5 506.653
805 0 78.1224 13.4149 1048 96.9685 1290.91 507.567
806 0 81.2349 13.7502 1117 97.3885 1291.09 508.167
807 0 84.1756 12.9966 1094 98.6143 1291.02 507.193
808 0 85.187 12.9949 1107 100.478 1291.16 505.722
809 0 86.1691 13.0325 1123 103.08 1290.59 504.595
810 0 91.1467 13.0449 1189 99.2389 1290.13 502.881
811 0 93.0993 13.2762 1236 97.9806 1289.91 502.755
812 0 97.0532 13.0341 1265 99.1304 1289.54 500.741
813 0 100.087 13.2184 1323 99.3341 1290.23 498.96
814 0 102.094 13.2427 1352 100.967 1290.12 498.972
815 0 105.281 13.2217 1392 100.968 1290.4 497.583
816 0 109.238 14.1342 1544 99.7377 1289.9 496.345
817 0 114.162 13.7962 1575 102.502 1290.37 492.504
818 0 117.098 14.1164 1653 102.959 1289.35 490.729
819 0 120.166 14.0056 1683 104.14 1289.61 489.418
820 1 65.0672 10.6659 694 102.857 1289.81 515.594
821 0 67.0527 12.0651 809 99.6193 1289.54 513.544
822 0 70.0311 11.7376 822 98.7871 1290.42 507.212
823 0 72.0323 12.6055 908 96.815 1289.61 505.716
824 0 77.0701 12.4562 960 95.1927 1290.21 512.567
825 0 79.0825 12.5439 992 95.494 1289.87 511.778
826 0 80.1102 12.7824 1024 95.2236 1290.98 508.719
827 0 80.1102 12.8573 1030 134.974 1290.97 508.638
828 0 90.1136 13.6605 1231 95.6499 1290.6 508.151
829 0 92.1173 13.6022 1253 92.751 1290.47 507.638
830 0 93.0638 13.4961 1256 93.3909 1289.2 505.6
831 0 96.1405 13.4907 1297 92.8088 1288.24 504.964
832 0 101.107 13.1939 1334 93.3703 1289.01 504.792
833 0 102.1 13.3007 1358 94.7415 1289.02 501.837
834 0 107.101 13.9775 1497 92.3754 1289.04 499.796
835 0 108.113 13.8188 1494 94.1372 1289.27 494.22
836 0 110.093 13.4886 1485 96.5259 1288.54 490.325
837 0 115.244 14.1525 1631 91.6223 1288.55 486.511
838 0 118.234 14.2683 1687 91.1061 1288.88 483.829
839 0 122.27 14.4761 1770 90.2492 1289.09 482.336
840 0 127.229 13.9198 1771 91.5511 1287.75 479.794
841 0 127.229 13.9827 1779 170.395 1286.75 479.711
842 1 72.0811 11.7784 849 89.3333 1289.18 506.767
843 0 75.0589 12.337 926 90.9622 1289.37 504.157
844 0 77.0389 12.9285 996 87.763 1289.84 506.133
845 0 78.139 12.9513 1012 88.3241 1288.89 503.723
846 0 82.1512 12.8909 1059 89.0567 1289.39 503.125
847 0 83.1442 12.785 1063 91.317 1288.8 502.353
848 0 85.1735 13.6193 1160 89.1741 1289.81 499.173
849 0 89.109 13.1188 1169 91.1831 1289.74 497.725
850 0 90.153 12.9558 1168 92.4221 1290.03 495.516
851 0 93.1891 13.0165 1213 92.2119 1289.87 495.041
852 0 95.1738 13.0498 1242 92.4396 1289.72 494.876
853 0 97.1518 12.5371 1218 89.4548 1289.69 496.655
854 0 100.152 13.0302 1305 90.354 1290.35 496.188
855 0 102.173 12.8214 1310 91.9817 1289.96 493.337
856 0 107.119 12.6495 1355 90.0598 1290.13 491.644
857 0 110.155 12.7094 1400 90.6329 1290.18 489.214
858 0 114.087 12.6395 1442 91.3696 1289.96 485.75
859 0 116.197 12.9005 1499 91.7465 1290.16 484.781
860 0 120.148 12.7593 1533 93.0157 1289.91 481.698
861 0 125.2 13.2828 1663 90.1191 1289.05 480.208
862 0 127.171 12.6758 1612 92.0043 1288.98 480.074
863 0 133.202 12.8902 1717 92.6016 1288.41 476.07
864 0 138.245 12.9263 1787 93.38 1289.35 475.181
865 0 144.159 13.0203 1877 93.5099 1288.95 473.265
866 0 148.314 12.2511 1817 95.9345 1289.02 471.319
867 0 153.212 12.734 1951 95.7242 1288.93 467.779
868 0 160.245 12.9614 2077 95.1228 1287.93 468.713
869 1 85.0686 11.4496 974 98.5329 1288.28 502.604
870 0 90.2879 12.3051 1111 96.2268 1289.21 499.541
871 0 94.3086 13.1059 1236 96.0769 1288.95 500.102
872 0 95.2156 13.3066 1267 96.5627 1288.66 498.293
873 0 96.1914 12.839 1235 96.8826 1288.83 502.823
874 0 98.1855 12.4255 1220 99.841 1288.9 498.807
875 0 102.288 12.8754 1317 98.385 1288.55 498.248
876 0 105.136 12.7074 1336 99.4326 1288.51 496.615
877 0 109.168 12.9525 1414 98.4024 1289 495.869
878 0 109.24 12.1292 1325 100.715 1289.12 493.209
879 0 113.112 12.1914 1379 99.8789 1289.04 494.673
880 0 117.238 12.2913 1441 99.8848 1288.95 492.575
881 0 123.214 12.3525 1522 99.2628 1289.09 489.61
882 0 126.188 12.4972 1577 97.9334 1288.98 487.805
883 1 71.0778 11.5507 821 99.8648 1289.46 514.568
884 0 72.0311 11.6339 838 99.9284 1288.26 508.794
885 0 76.1043 12.5223 953 99.2067 1288.42 510.987
886 0 76.1043 12.5091 952 142.404 1288.42 511.022
887 0 83.0721 13.1091 1089 101.611 1289.19 509.271
888 0 85.1272 12.8279 1092 102.741 1288.92 507.738
889 0 88.1764 12.9626 1143 101.551 1288.64 507.099
890 0 90.0586 13.5023 1216 102.488 1288.88 505.473
891 0 94.1001 13.7938 1298 101.074 1288.93 504.024
892 0 95.0836 13.546 1288 103.419 1289 501.357
893 0 99.0848 13.8265 1370 103.738 1289.12 500.093
894 0 101.113 14.0734 1423 103.486 1289.07 498.765
895 0 105.137 13.5727 1427 105.03 1289.09 498.026
896 0 107.069 13.2905 1423 98.3865 1289.5 497.143
897 0 109.127 12.7741 1394 91.9763 1289.37 493.671
898 0 114.15 13.0968 1495 90.0268 1289.87 492.85
899 0 117.15 13.5724 1590 92.1924 1289.87 492.906
900 0 119.16 13.0161 1551 93.343 1289.99 490.106
901 1 68.0771 12.1186 825 88.1358 1290.69 515.748
902 0 70.1279 13.0904 918 87.1885 1290.61 514.765
903 0 72.1247 13.033 940 90.7053 1291 512.108
904 0 73.1096 14.0474 1027 93.1276 1290.89 512.065
905 0 78.0941 13.5734 1060 101.288 1290.67 509.706
906 0 82.1484 13.926 1144 99.6713 1290.73 507.185
907 0 83.1297 14.1105 1173 100.341 1291.24 505.136
908 0 85.1279 13.8967 1183 101.143 1291.03 504.117
909 0 87.2144 13.6216 1188 103.952 1291.42 502.372
910 0 89.1462 13.9546 1244 103.146 1291.29 502.738
911 0 94.1191 13.5785 1278 102.103 1291.22 500.99
912 0 98.1248 13.6459 1339 102.333 1291.21 499.172
913 0 100.183 14.3138 1434 101.051 1291.19 498.025
914 1 51.0396 12.1278 619 102.018 1291.61 522.931
915 0 52.0482 12.9111 672 96.5744 1291.34 521.561
916 0 56.0865 13.2296 742 96.8383 1290.86 521.275
917 0 56.1021 13.4933 757 95.103 1290.51 521.827
918 0 56.0675 13.1092 735 88.9728 1291.47 521.605
919 0 60.0361 13.7251 824 87.0752 1290.68 519.93
920 0 60.0444 13.6233 818 88.7885 1289.78 519.764
921 0 63.0601 13.6854 863 87.9293 1290.26 518.924
922 0 64.0991 14.0564 901 87.6149 1290.19 516.974
923 0 67.0745 13.7608 923 88.0498 1289.64 516.393
924 0 67.1775 13.8142 928 89.1735 1289.61 517.852
925 0 69.109 14.0647 972 89.3148 1289.82 517.646
926 0 72.1083 13.7571 992 89.2379 1289.31 517.391
927 0 74.3001 13.6608 1015 89.3261 1289.63 516.52
928 0 76.0522 14.2928 1087 87.8795 1289.91 516.082
929 0 80.0952 14.6076 1170 86.3145 1289.13 515.251
930 0 83.1004 14.4163 1198 86.6628 1289.06 515.213
931 0 82.115 13.4933 1108 90.6435 1288.48 514.447
932 0 86.1374 14.2099 1224 88.4649 1288.35 511.876
933 0 89.0713 13.7418 1224 89.0539 1288.59 509.462
934 0 93.1462 13.817 1287 90.7374 1288.06 508.363
935 1 45.156 13.1987 596 94.1275 1288.69 531.171
936 0 48.0765 13.3953 644 95.1087 1288.98 531.033
937 0 50.1869 13.5493 680 95.9485 1288.25 529.844
938 0 49.2068 13.1079 645 100.611 1287.71 529.439
939 0 53.098 14.2943 759 97.0685 1287.58 528.809
940 0 53.0922 13.6367 724 93.9834 1287.82 529.533
941 0 54.1387 13.3361 722 96.644 1287.48 528.331
942 0 57.085 13.2259 755 96.9285 1286.99 527.672
943 0 59.1063 14.3301 847 94.0083 1287.41 526.975
944 0 63.0406 13.531 853 102.941 1287.89 525.722
945 0 64.0965 13.8853 890 100.296 1288.09 526.202
946 0 66.0481 14.0958 931 100.424 1287.52 523.907
947 0 69.0647 14.5371 1004 98.6165 1287.51 521.929
948 0 70.0478 13.5051 946 100.125 1287.26 521.041
949 0 73.0953 13.9818 1022 100.247 1287.58 519.65
950 0 74.0916 14.1716 1050 101.57 1287.96 517.351
951 0 77.225 14.27 1102 106.956 1287.67 519.338
952 0 79.0849 13.8965 1099 107.981 1288.24 518.253
953 0 79.0849 14.0103 1108 155.897 1289.23 518.129
954 0 84.2602 13.5295 1140 110.03 1288.87 514.691
955 0 88.1563 13.8504 1221 105.581 1288.61 513.174
956 0 89.2222 13.8979 1240 96.4677 1289 513.002
957 0 92.1746 13.7999 1272 97.6808 1288.43 509.91
958 0 96.1048 13.8807 1334 97.4115 1289.25 507.798
959 0 98.0882 13.1514 1290 98.869 1288.94 506.864
960 0 102.224 13.1672 1346 97.9562 1288.67 505.487
961 1 51.1623 12.2942 629 97.5453 1289.24 528.445
962 0 54.166 12.6463 685 97.9095 1288.52 525.876
963 0 57.0669 13.3528 762 96.0171 1289.04 524.955
964 0 58.051 13.0403 757 98.3593 1288.96 525.51
965 0 60.038 14.2576 856 95.5713 1289.79 523.746
966 0 63.0598 14.2563 899 100.501 1289.69 524.768
967 0 64.0919 13.5431 868 102.283 1289.74 523.238
968 0 65.0609 13.8486 901 102.929 1289.03 521.272
969 0 68.1062 14.2278 969 101.01 1289.7 519.963
970 0 71.0692 13.9723 993 101.25 1289.49 518.626
971 0 75.1364 13.1494 988 102.383 1289.7 517.686
972 0 75.1161 13.6455 1025 101.706 1288.96 516.665
973 0 79.0697 14.0382 1110 97.8703 1289.14 516.023
974 0 82.0709 14.8043 1215 97.7572 1289.55 515.263
975 0 83.0612 13.9897 1162 92.4226 1290.06 513.809
976 0 85.0825 13.6103 1158 92.8204 1289.71 512.628
977 0 87.0948 14.3637 1251 92.9896 1289.53 510.121
978 0 89.099 14.5007 1292 96.5364 1289.58 510.431
979 0 91.0849 13.8003 1257 108.356 1290.43 508.585
980 0 96.1798 14.3377 1379 114.048 1290.12 507.141
981 1 52.0399 13.2783 691 112.017 1290.56 528.441
982 0 54.0911 13.3848 724 110.052 1290.51 529.319
983 0 55.0666 14.2736 786 103.841 1290.2 527.061
984 0 58.0922 14.0811 818 109.939 1289.29 526.192
985 0 59.0583 14.2402 841 111.763 1289.74 523.911
986 0 62.1086 14.539 903 110.563 1289.67 523.568
987 0 64.1267 14.0035 898 113.007 1289.95 523.056
988 0 66.0093 14.2707 942 113.292 1290.68 521.926
989 0 66.0347 14.1592 935 116.852 1289.81 521.709
990 0 70.0941 15.094 1058 113.198 1290.45 519.758
991 0 72.0199 14.6765 1057 115.881 1289.88 519.116
992 0 74.0687 15.2291 1128 116.146 1290.09 518.594
993 0 76.0743 15.1957 1156 115.258 1290.66 516.537
994 0 77.0732 14.7522 1137 122.809 1290.76 514.639
995 0 81.0951 15.4387 1252 122.804 1290.32 513.5
996 0 84.1132 15.6812 1319 123.737 1290.03 512.286
997 0 85.0305 15.5944 1326 127.317 1290.15 512.024
998 0 88.0636 15.1595 1335 130.306 1290.84 508.7
999 0 92.0526 15.1435 1394 130.999 1290.67 506.611
1000 0 93.146 14.9765 1395 132.761 1289.76 506.149
1001 0 98.1158 15.2677 1498 132.032 1289.9 504.259
1002 0 99.0988 15.6712 1553 132.21 1289.62 502.07
1003 0 104.168 15.3407 1598 131.35 1290.07 502.76
1004 1 52.0663 13.1755 686 131.257 1290.6 526.432
1005 0 53.0867 13.8264 734 130.881 1291.53 526.251
1006 0 57.0604 14.3707 820 126.157 1291.3 525.952
1007 0 59.0496 14.6318 864 132.203 1291.44 522.572
1008 0 61.1293 14.3957 880 132.795 1291.72 521.556
1009 0 64.048 14.3642 920 129.892 1290.86 523.527
1010 0 63.0629 14.6679 925 133.253 1291.13 522.631
1011 0 65.0713 14 911 135.727 1291.22 520.997
1012 0 69.0464 14.5265 1003 132.952 1291.75 519.599
1013 0 70.1098 14.8196 1039 131.694 1290.89 518.308
1014 0 72.1698 14.1888 1024 134.021 1291.21 518.25
1015 0 74.0997 15.1148 1120 131.848 1290.89 516.503
1016 0 75.0718 14.4528 1085 136.982 1290.35 514.623
1017 0 79.0578 14.9005 1178 133.709 1290.8 513.698
1018 0 81.0261 14.6866 1190 134.483 1291.72 512.213
1019 0 85.1193 14.4973 1234 136.619 1291.55 510.863
1020 0 87.1322 15.2068 1325 133.153 1290.82 511.187
1021 0 91.0741 15.1086 1376 131.511 1292.23 509.304
1022 0 93.1128 15.0677 1403 131.209 1291.8 508.411
1023 0 95.0909 14.6807 1396 140.303 1292 505.522
1024 1 50.0805 12.6396 633 141.185 1291.63 527.684
1025 0 50.0165 13.2956 665 134.639 1292.16 524.672
1026 0 53.0208 13.2589 703 128.795 1291.52 521.711
1027 0 56.1098 14.3112 803 134.229 1292.1 525.191
1028 0 57.128 14.7038 840 134.005 1291.65 523.742
1029 0 58.1139 14.0242 815 136.476 1291.4 523.588
1030 0 60.0779 14.5478 874 134.822 1290.65 522.352
1031 0 63.1923 14.891 941 132.137 1290.63 520.821
1032 0 63.0855 14.8846 939 134.382 1290.63 519.852
1033 0 66.1482 14.1047 933 137.454 1290.49 518.341
1034 0 67.2328 14.5019 975 133.787 1289.92 513.61
1035 0 70.1689 14.6931 1031 133.934 1289.88 514.979
1036 0 72.0587 14.0164 1010 136.087 1289.82 513.145
1037 0 72.239 14.6874 1061 134.404 1289.95 510.304
1038 0 76.1478 14.9184 1136 130.208 1290.07 509.63
1039 0 77.2486 14.3304 1107 130.038 1289.97 507.072
1040 0 80.1153 14.5915 1169 128.687 1289.77 505.464
1041 0 81.1439 14.6407 1188 130.012 1290.1 506.205
1042 0 83.2738 15.2029 1266 128.854 1290.35 503.909
1043 0 85.2136 14.7042 1253 131.792 1289.78 505.105
1044 0 87.4664 14.4741 1266 130.133 1289.94 502.778
1045 0 91.3027 14.545 1328 130.843 1290.25 501.517
1046 0 92.4328 14.8324 1371 130.856 1289.23 499.59
1047 0 95.5772 14.3549 1372 133.093 1290.3 497.043
1048 0 98.4918 14.5697 1435 133.531 1289.92 495.411
1049 0 104.377 14.5338 1517 129.613 1289.76 496.359
1050 0 106.31 14.0345 1492 132.054 1289.92 495.516
1051 0 110.431 14.1626 1564 130.067 1290.3 493.481
1052 0 115.227 13.7121 1580 128.54 1289.94 491.31
1053 1 59.0369 11.0947 655 121.18 1289.69 522.679
1054 0 59.0295 11.7907 696 123.216 1290.16 521.588
1055 0 63.0181 12.8376 809 116.684 1291.25 521.135
1056 0 65.0242 12.1032 787 119.621 1290.98 520.105
1057 0 67.1442 11.9742 804 117.961 1290.56 520.797
1058 0 68.0326 12.2147 831 118.12 1290.65 519.114
1059 0 72.1119 12.7164 917 117.703 1290.32 517.794
1060 0 72.0829 11.7087 844 121.012 1290.61 517.297
1061 0 76.1423 12.7393 970 119.618 1290.67 514.936
1062 0 79.0587 12.3958 980 123.597 1290.6 515.544
1063 0 82.1003 12.4725 1024 126.298 1290.38 513.823
1064 0 84.0877 12.7367 1071 126.652 1290.05 511.225
1065 0 84.0772 12.5361 1054 131.051 1290.13 510.17
1066 0 88.1483 12.2634 1081 134.627 1289.39 509.859
1067 0 91.1546 12.5282 1142 133.237 1290.06 507.769
1068 0 93.1852 12.663 1180 135.153 1290.53 506.041
1069 0 97.3964 12.4029 1208 135.762 1290.36 502.594
1070 1 49.2127 10.3835 511 125.644 1291.36 526.973
1071 0 51.2312 11.3212 580 122.317 1290.61 525.795
1072 0 51.1182 10.8181 553 125.577 1290.91 526.667
1073 0 54.1032 11.3672 615 120.197 1291.08 527.041
1074 0 54.1179 11.3087 612 128.462 1291.81 526.524
1075 0 55.0919 10.9272 602 130.636 1291.18 526.596
1076 0 56.1527 10.9167 613 130.747 1290.97 526.693
1077 0 58.1206 11.6138 675 128.993 1290.64 525.316
1078 0 60.151 11.3049 680 128.247 1290.98 523.149
1079 0 62.1323 11.8135 734 127.617 1291.13 522.95
1080 0 64.0894 11.8272 758 127.497 1291.44 522.252
1081 0 65.1176 11.9783 780 128.236 1290.97 520.581
1082 0 70.0844 12.0426 844 127.691 1291.68 519.257
1083 0 72.1065 12.2042 880 123.506 1289.7 515.43
1084 0 74.0587 12.4496 922 124.24 1290.11 514.65
1085 0 76.1082 12.9684 987 123.744 1290.29 515.222
1086 0 81.205 13.1026 1064 134.879 1290.87 513.792
1087 0 83.1335 12.51 1040 135.247 1290.24 513.041
1088 1 41.0328 9.65082 396 133.854 1290.22 534.848
1089 0 42.0368 10.3243 434 145.894 1289.88 533.657
1090 0 45.1288 10.5698 477 139.839 1291.06 533.094
1091 0 45.1285 11.1903 505 141.778 1291.64 530.166
1092 0 47.12 11.3328 534 152.081 1290.18 531.743
1093 0 47.0352 11.4595 539 155.011 1291.71 530.575
1094 0 51.0283 11.6602 595 148.202 1291.74 529.452
1095 0 51.0278 11.3468 579 152.993 1291.91 529.269
1096 0 52.0171 11.7654 612 151.147 1291.74 528.123
1097 0 54.0606 11.6351 629 148.827 1291.53 527.739
1098 0 54.061 11.5055 622 149.584 1292.01 526.492
1099 0 55.0344 11.8835 654 146.515 1293.66 530.127
1100 0 55.0344 11.8108 650 141.422 1295.64 530.143
1101 0 58.0233 11.8745 689 142.582 1293.13 527.943
1102 0 60.0356 11.7097 703 141.191 1292.76 525.553
1103 0 62.016 11.9324 740 137.514 1292.68 524.108
1104 0 64.0333 11.6033 743 137.754 1292.44 522.957
1105 0 66.0493 11.9608 790 136.446 1292.08 522.276
1106 0 66.0192 12.36 816 137.23 1291.37 521.311
1107 0 67.0217 12.3841 830 137.992 1291 520.451
1108 0 69.0637 12.0324 831 140.083 1291.42 518.994
1109 0 72.0547 12.5877 907 139.078 1291.3 518.604
1110 0 74.0644 12.2326 906 134.567 1291.45 516.219
1111 0 74.0711 12.272 909 139.91 1291.44 516.139
1112 0 76.0887 12.3014 936 134.83 1291.24 514.73
1113 0 78.0576 11.7734 919 135.62 1291.6 513.955
1114 1 39.0681 10.3153 403 128.37 1292.24 535.814
1115 0 41.0831 10.7587 442 126.416 1290.34 534.477
1116 0 40.1444 11.1597 448 124.431 1291.37 534.036
1117 0 41.0201 11.409 468 121.823 1291.99 533.812
1118 0 43.0419 11.8025 508 117.89 1291.49 532.927
1119 0 44.2514 11.5024 509 125.314 1290.89 531.552
1120 0 46.3431 11.9759 555 121.813 1290.67 532.405
1121 0 46.2819 12.251 567 121.66 1290.2 532.27
1122 0 46.218 12.4843 577 121.712 1290.86 531.894
1123 0 48.2518 11.813 570 122.016 1290.22 530.093
1124 0 50.2674 12.6722 637 119.874 1289.88 530.002
1125 0 49.2015 12.5199 616 121.933 1290.42 529.289
1126 0 50.1493 12.3033 617 121.446 1290.7 528.786
1127 0 52.1293 12.258 639 121.842 1290.11 528.513
1128 0 53.171 12.4128 660 122.506 1289.84 527.041
1129 0 55.1624 12.4179 685 122.812 1290.17 526.987
1130 0 57.2012 12.5347 717 120.328 1289.78 525.824
1131 0 59.1163 13.0083 769 121.161 1290.13 525.168
1132 0 60.1916 12.8091 771 121.933 1290.77 524.468
1133 0 60.1301 13.0717 786 119.368 1290.67 525.177
1134 0 58.154 11.6071 675 110.836 1290.96 524.63
1135 0 61.1805 11.9319 730 110.249 1290.5 523.941
1136 0 62.1892 11.6901 727 111.538 1290.54 523.55
1137 0 65.1139 11.5183 750 111.257 1290.36 521.401
1138 0 67.0679 11.7791 790 109.982 1290.42 521.208
1139 0 68.03 11.6566 793 111.802 1290.61 519.793
1140 0 72.0682 11.7111 844 111.744 1290.22 518.454
1141 0 74.0359 11.8051 874 113.045 1290.27 519.264
1142 0 76.0455 11.5326 877 114.767 1290.58 517.518
1143 0 77.0773 11.2614 868 116.198 1290.7 517.401
1144 1 39.0291 10.6587 416 114.327 1291.2 536.618
1145 0 41.0209 11.2626 462 112.468 1290.43 536.097
1146 0 43.0582 11.287 486 114.15 1290.62 535.924
1147 0 42.0945 12.0681 508 117.923 1288.72 534.398
1148 0 45.0735 12.5129 564 115.569 1288.57 532.59
1149 0 45.0558 12.6732 571 117.497 1288.82 532.93
1150 0 44.123 11.6492 514 109.395 1289.16 532.144
1151 0 46.0288 11.7535 541 110.51 1288.92 532.074
1152 0 47.097 11.0623 521 110.413 1288.48 531.956
1153 0 48.0547 12.1528 584 109.983 1288.18 529.519
1154 0 49.0153 12.0983 593 112.135 1288.83 528.786
1155 0 50.0412 12.15 608 111.296 1288.88 529.513
1156 0 53.0578 11.9492 634 110.95 1288.71 527.669
1157 0 53.0227 11.4291 606 112.198 1288.59 526.624
1158 0 55.124 12.1181 668 110.711 1288.35 524.859
1159 0 55.124 11.973 660 135.814 1288.33 524.821
1160 0 58.0373 11.82 686 110.896 1288.24 523.987
1161 0 60.0946 11.3321 681 110.244 1287.96 523.627
1162 0 62.1522 12.4211 772 109.913 1288.04 523.053
1163 0 65.1082 12.6866 826 109.577 1288.22 521.102
1164 0 65.1321 11.9142 776 113.028 1288.59 520.129
1165 0 69.1247 11.9205 824 113.33 1288.61 518.746
1166 0 71.182 11.9693 852 113.236 1288.78 518.34
1167 0 71.1448 12.2426 871 111.964 1288.86 516.01
1168 0 74.1797 12.281 911 111.3 1288.97 517.002
1169 0 76.2075 12.0067 915 112.52 1288.85 514.885
1170 0 79.1178 12.2349 968 111.449 1288.89 512.978
1171 0 81.2352 12.3099 1000 111.724 1288.65 511.59
1172 0 82.1469 11.7716 967 114.143 1288.67 509.078
1173 0 84.2385 12.5002 1053 112.197 1288.45 507.603
1174 0 88.1534 13.0568 1151 111.801 1288.36 505.76
1175 1 45.1536 10.9404 494 114.881 1288.32 526.743
1176 0 45.1819 10.8672 491 115.688 1288.76 525.523
1177 0 48.094 11.6854 562 113.541 1288.78 524.576
1178 0 51.0545 12.5552 641 113.209 1288.13 524.445
1179 0 54.1356 12.6165 683 114.271 1288.53 525.316
1180 0 55.1124 12.6832 699 114.086 1288.91 524.854
1181 0 57.1209 12.9375 739 114.003 1288.25 526.237
1182 0 58.1326 12.7983 744 116.051 1288.9 526.298
1183 0 59.1339 13.1228 776 117.777 1288.65 525.117
1184 0 62.1028 12.8819 800 119.059 1288.55 523.34
1185 0 63.2227 12.97 820 118.194 1288.96 524.188
1186 0 63.1701 12.1893 770 121.551 1288.89 522.757
1187 0 66.1629 13.0738 865 120.883 1289.12 520.508
1188 0 68.1874 12.891 879 121.066 1288.6 519.413
1189 0 70.1112 13.0364 914 122.973 1289.09 518.388
1190 0 73.1334 13.031 953 120.723 1288.12 517.282
1191 0 72.1524 12.8755 929 121.198 1288.26 515.503
1192 0 74.1551 13.1077 972 122.557 1288.93 514.58
1193 0 76.225 12.9616 988 123.486 1288.58 513.718
1194 0 80.2129 12.8284 1029 124.152 1288.72 511.796
1195 0 81.147 13.0381 1058 124.91 1288.16 510.648
1196 0 83.1953 12.8253 1067 121.963 1289.4 511.585
1197 0 85.1326 12.5334 1067 123.881 1289.49 510.875
1198 0 86.1478 13.1402 1132 126.226 1289.78 509.546
1199 0 89.115 13.4321 1197 127.404 1289.57 508.529
1200 0 93.1668 13.7173 1278 126.736 1289.33 507.329
1201 0 93.1261 12.8643 1198 131.386 1289.41 504.064
1202 0 96.1538 12.7608 1227 115.911 1288.94 503.734
1203 0 96.1784 12.1025 1164 118.907 1289.21 503.165
1204 0 100.108 12.7562 1277 116.547 1288.88 502.81
1205 0 106.161 12.9992 1380 116.445 1289.05 502.496
1206 0 108.125 13.0405 1410 118.15 1288.62 499.478
1207 0 111.346 13.3817 1490 118.54 1289.15 497.617
1208 0 114.17 12.2624 1400 122.266 1288.59 494.328
1209 0 121.185 12.7987 1551 119.126 1288.92 493.841
1210 0 124.319 13.4895 1677 117.165 1288.68 491.753
1211 1 43.0851 10.398 448 115.984 1289.15 531.058
1212 0 44.0814 10.7528 474 113.141 1288.92 529.015
1213 0 45.1595 10.3633 468 115.032 1289.36 529.524
1214 0 46.1473 11.8967 549 113.27 1290.09 529.271
1215 0 47.1525 11.7491 554 114.643 1289.74 528.634
1216 0 49.0709 11.2286 551 106.637 1289.37 529.247
1217 0 50.1298 11.1909 561 109.319 1289.43 528.97
1218 0 53.145 11.2711 599 109.155 1289.3 527.76
1219 0 55.1726 11.2012 618 110.006 1289.49 527.516
1220 0 58.1359 12.0236 699 107.488 1289.15 526.046
1221 0 59.0917 11.6091 686 110.376 1288.79 524.595
1222 0 62.105 12.1568 755 109.113 1289.47 524.434
1223 0 63.0545 12.957 817 107.574 1289.45 523.898
1224 0 65.1054 11.8577 772 111.063 1289.26 523.246
1225 0 66.0349 11.7968 779 111.506 1289.55 520.9
1226 0 69.0874 12.3177 851 110.022 1289.25 521.603
1227 0 69.0336 11.5161 795 112.912 1289.27 520.615
1228 0 72.036 11.8274 852 112.056 1289.05 519.147
1229 0 72.0452 11.7288 845 109.799 1288.96 519.602
1230 0 76.0532 10.9923 836 111.61 1289.52 515.707
1231 1 42.0675 11.0299 464 110.778 1290.82 532.858
1232 0 41.0351 11.0393 453 114.607 1289.94 532.468
1233 0 45.0967 11.6638 526 116.196 1289.95 530.987
1234 0 46.1485 11.3763 525 120.472 1289.33 530.619
1235 0 46.1622 11.4379 528 107.985 1289.98 530.216
1236 0 49.1094 11.8715 583 105.334 1290.57 528.148
1237 0 49.1246 11.135 547 108.901 1290.3 528.814
1238 0 51.1791 11.8603 607 106.269 1290.73 529.117
1239 0 52.0691 12.0225 626 109.858 1290.45 529.551
1240 0 54.0335 11.7705 636 110.492 1290.38 529.094
1241 0 53.1017 12.2407 650 111.151 1290.68 527.331
1242 0 56.0858 11.7855 661 111.929 1289.99 526.189
1243 0 59.0363 12.162 718 106.877 1289.7 525.489
1244 0 60.0383 12.5253 752 107.439 1290.19 523.846
1245 0 61.0944 12.3088 752 109.835 1290.47 522
1246 0 63.0629 12.4637 786 109.316 1290.94 522.562
1247 0 63.0415 11.6114 732 113.087 1289.84 520.005
1248 0 65.1698 12.6899 827 112.459 1290.78 520.088
1249 0 66.0752 12.1528 803 114.112 1289.31 518.518
1250 0 67.1344 11.9164 800 114.756 1290.42 518.866
1251 0 70.115 12.4367 872 112.086 1290.49 517.258
1252 0 72.144 12.7107 917 107.985 1291.01 517.266
1253 0 72.0162 11.553 832 108.483 1289.51 513.712
1254 0 76.0393 11.7571 894 114.768 1289.76 515.587
1255 0 74.1196 10.8473 804 119.55 1291.05 515.455
1256 0 75.0648 10.4044 781 119.964 1291.46 515.061
1257 0 79.0842 10.8745 860 116.514 1292.15 513.766
1258 0 81.0613 10.3749 841 117.92 1291.33 513.132
1259 0 85.1136 10.7856 918 113.766 1289.7 509.988
1260 0 87.0764 10.7147 933 113.469 1289.91 508.414
1261 0 90.1479 11.0152 993 110.271 1289.43 508.627
1262 0 91.2098 10.8431 989 110.274 1289.24 506.887
1263 0 93.1438 10.1349 944 110.636 1289.71 505.316
1264 0 97.1032 10.4013 1010 107.691 1289.47 504.069
1265 0 101.111 10.9286 1105 105.442 1289.03 499.742
1266 0 104.129 10.2469 1067 107.871 1289.64 499.276
1267 0 106.135 10.4207 1106 107.19 1289.3 499.357
1268 0 111.276 10.9637 1220 106.354 1289.22 496.019
1269 1 56.205 10.3194 580 109.669 1288.89 519.905
1270 0 61.0258 11.1264 679 107.66 1288.21 523.383
1271 0 62.0206 11.0125 683 107.802 1289.31 521.47
1272 0 63.0891 11.4124 720 104.644 1288.57 519.408
1273 0 61.1375 10.0593 615 111.693 1289.37 512.143
1274 0 64.0596 10.4122 667 109.244 1289.27 511.921
1275 0 64.0738 10.5659 677 109.549 1289.43 512.802
1276 0 67.0466 10.5598 708 109.363 1288.98 512.397
1277 0 70.0686 11.4316 801 106.541 1288.56 511.649
1278 0 74.0992 11.3361 840 102.174 1288.85 512.389
1279 0 72.0592 10.5885 763 106.111 1288.21 509.987
1280 0 76.0601 11.0571 841 105.438 1289.43 509.333
1281 0 78.0778 11.1043 867 110.104 1289.22 507.822
1282 0 81.0626 12.0154 974 108.097 1288.86 507.591
1283 0 83.0198 12.1658 1010 108.071 1288.86 507.596
1284 0 85.0559 11.9216 1014 111.994 1288.54 505.216
1285 0 88.0722 12.3648 1089 110.42 1288.93 504.117
1286 0 92.0696 12.1213 1116 110.551 1289.3 504.648
1287 0 91.0678 11.8593 1080 112.725 1289.27 503.486
1288 0 96.0809 12.4062 1192 110.47 1289.19 502.364
1289 0 99.0455 12.5902 1247 110.034 1289.9 501.742
1290 0 102.085 12.8227 1309 110.086 1290 501.144
1291 0 103.073 12.4863 1287 113.53 1289.55 500.095
1292 0 105.092 12.6079 1325 114.481 1289.73 500.755
1293 0 109.053 13.1588 1435 112.544 1289.64 500.303
1294 0 109.082 12.1835 1329 116.766 1289.5 496.716
1295 1 60.054 10.6737 641 109.25 1289.04 522.68
1296 0 61.0648 11.1357 680 108.101 1289.45 522.215
1297 0 62.0354 11.6063 720 105.182 1288.5 521.125
1298 0 64.0913 11.8893 762 103.932 1288.3 519.705
1299 0 65.037 12.0393 783 105.08 1289.31 518.152
1300 0 68.065 11.9738 815 106.115 1288.71 517.485
1301 0 70.0578 12.661 887 103.149 1288.77 515.594
1302 0 73.0539 12.8535 939 101.964 1289.19 515.076
1303 0 74.0883 12.9845 962 102.444 1289.34 511.052
1304 0 78.0486 12.9022 1007 99.9484 1288.59 511.386
1305 0 79.0377 13.2342 1046 101.262 1288.85 510.028
1306 0 80.0384 12.7439 1020 108.438 1288.19 509.179
1307 0 83.0609 12.7256 1057 109.097 1289.84 509.935
1308 0 86.1268 13.1318 1131 108.173 1289.83 510.143
1309 0 89.1116 13.1408 1171 105.692 1289.23 507.181
1310 1 47.0181 11.3361 533 112.979 1289.12 529
1311 0 47.1021 11.422 538 109.024 1288.12 527.394
1312 0 47.099 11.8474 558 108.24 1288.51 529.276
1313 0 48.2533 11.9577 577 100.293 1290.78 527.936
1314 0 50.1071 12.0941 606 98.9026 1290.86 528.875
1315 0 53.1074 12.164 646 94.6935 1290.8 527.531
1316 0 52.0612 12.4661 649 102.005 1291.32 527.39
1317 0 53.1297 12.0083 638 103.697 1291.1 526.008
1318 0 56.1279 12.3646 694 100.901 1291.02 524.235
1319 0 57.2474 12.3324 706 100.945 1290.47 525.676
1320 0 58.1208 12.3708 719 102.356 1290.5 524.919
1321 0 60.0904 11.8655 713 105.266 1290.69 523.475
1322 0 62.0752 12.4043 770 103.978 1290.2 523.018
1323 0 63.0671 12.8593 811 103.289 1289.96 521.065
1324 0 64.0665 12.7992 820 103.593 1289.84 520.374
1325 0 66.1567 12.9843 859 103.799 1290.6 519.349
1326 0 67.1053 12.8753 864 103.734 1291.75 519.205
1327 0 69.1032 13.1108 906 103.009 1290.15 518.588
1328 0 71.0726 12.6068 896 104.686 1292.07 516.834
1329 0 73.0591 13.2085 965 103.617 1290.5 516.37
1330 0 75.0793 13.1461 987 104.379 1290.12 515.017
1331 0 76.0717 13.1849 1003 104.192 1290.09 514.22
1332 0 78.0664 12.6687 989 105.255 1289.36 512.66
1333 0 82.1475 13.0254 1070 103.427 1289.99 511.162
1334 0 84.0857 12.9392 1088 103.348 1289.71 508.79
1335 0 89.1444 12.4854 1113 103.263 1290.01 507.836
1336 1 45.0782 10.6038 478 108.075 1289.6 529.211
1337 0 45.1035 10.2653 463 108.378 1290.5 530.114
1338 0 48.0816 10.4822 504 108.25 1290.35 529.236
1339 0 48.0942 11.124 535 109.508 1289.73 528.168
1340 0 50.0248 10.7746 539 109.089 1289.96 528.889
1341 0 51.0423 10.6774 545 105.299 1290.05 527.85
1342 0 52.0646 11.236 585 106.528 1290.64 527.504
1343 0 54.0435 11.0837 599 109.187 1290.3 526.27
1344 0 52.079 10.3881 541 113.2 1289.6 527.943
1345 0 53.0587 10.4413 554 114.354 1289.42 527.475
1346 0 55.1428 10.3187 569 112.663 1289.16 526.406
1347 0 59.1409 11.7009 692 109.517 1289.02 525.311
1348 0 59.0398 11.5515 682 111.833 1289.78 525.034
1349 0 62.0919 11.789 732 110.455 1288.4 525.331
1350 0 65.1478 11.3741 741 112.443 1289.26 524.752
1351 0 65.1461 11.9117 776 111.735 1289.29 524.031
1352 0 67.1065 11.5339 774 113.382 1288.89 522.36
1353 0 71.1311 12.6246 898 109.208 1288.83 521.15
1354 0 72.0978 12.2889 886 110.736 1288.74 520.144
1355 0 72.1363 11.9912 865 112.766 1289.02 520.393
1356 0 75.1324 11.7925 886 112.959 1288.92 518.447
1357 0 78.126 12.531 979 111.09 1289.72 517.817
1358 0 82.1895 12.1913 1002 111.297 1289.22 517.974
1359 0 84.1415 12.3958 1043 112.422 1288.99 516.484
1360 0 88.1174 12.4493 1097 112.782 1288.8 515.558
1361 0 88.1174 12.4153 1094 154.716 1287.81 515.607
1362 1 49.1115 11.6673 573 120.843 1289.41 531.677
1363 0 51.0036 11.2149 572 112.101 1289.27 531.622
1364 0 52.0364 11.9147 620 108.86 1288.23 531.303
1365 0 53.1043 12.1271 644 110.905 1288.68 530.613
1366 0 52.1319 11.1256 580 114.695 1289.42 531.155
1367 0 52.1067 10.728 559 116.363 1289.31 529.662
1368 0 55.2065 11.1762 617 113.285 1289.97 530.002
1369 0 57.0894 11.5783 661 115.228 1288.53 528.918
1370 0 57.0608 11.6192 663 115.259 1289.11 528.811
1371 0 59.1249 11.7379 694 115.67 1288.77 527.863
1372 0 62.0382 12.8953 800 115.786 1288.34 525.875
1373 0 64.0189 12.1683 779 116.282 1288.4 525.915
1374 0 65.0626 12.0807 786 117.838 1288.06 525.575
1375 0 66.0751 11.7745 778 120.81 1288.99 524.64
1376 0 69.1219 12.1814 842 118.957 1288.99 522.78
1377 0 72.1326 12.4493 898 111.85 1289.03 523.177
1378 0 73.1105 12.5153 915 115.855 1288.35 522.787
1379 0 73.0442 12.2939 898 116.095 1288.3 521.965
1380 0 74.0944 12.3761 917 122.589 1288.78 521.577
1381 0 76.0512 12.5573 955 124.239 1288.54 522.368
1382 0 78.0486 12.2744 958 127.204 1288.78 520.298
1383 0 80.0683 12.9889 1040 123.328 1288.5 520.055
1384 0 82.0559 13.3811 1098 120.464 1288.27 518.346
1385 0 84.0633 12.8237 1078 119.902 1287.51 516.743
1386 0 88.0871 13.0326 1148 115.723 1287.73 516.229
1387 0 91.0453 12.4993 1138 114.327 1287.62 515.072
1388 1 48.019 11.787 566 112.067 1288.28 535.046
1389 0 49.0752 11.6963 574 108.366 1288.18 534.303
1390 0 50.0227 12.0146 601 106.491 1287.54 533.331
1391 0 52.052 12.7949 666 101.068 1287.36 532.833
1392 0 50.0416 12.5895 630 101.159 1288.07 533.236
1393 0 52.0145 12.708 661 99.3041 1288.59 532.304
1394 0 54.1141 12.7693 691 101.861 1288.35 530.868
1395 0 55.1106 13.1735 726 100.935 1288.38 530.712
1396 0 57.113 12.7292 727 103.365 1288.63 529.054
1397 0 57.0636 13.3535 762 102.741 1287.97 529.587
1398 0 61.0924 13.586 830 101.663 1288.15 528.911
1399 0 62.1262 13.7784 856 104.599 1287.81 527.461
1400 0 64.1069 12.9471 830 108.037 1288.55 525.329
1401 0 62.1074 12.9775 806 143.825 1288.54 525.844
1402 0 64.0661 13.2363 848 113.507 1288.39 524.336
1403 0 68.1842 13.3902 913 114.851 1288.54 522.727
1404 0 68.0428 13.3005 905 118.22 1288.92 521.199
1405 0 71.0845 13.4347 955 118.733 1288.89 520.525
1406 0 73.1408 13.4535 984 120.424 1288.11 518.859
1407 0 74.0885 13.2274 980 122.084 1288.37 518.722
1408 0 78.1117 13.5831 1061 121.242 1288.46 517.287
1409 0 79.0672 13.1407 1039 124.214 1288.63 516.745
1410 1 41.0314 10.7966 443 135.519 1288.52 534.488
1411 0 42.0178 11.5189 484 134.455 1288.03 533.333
1412 0 44.032 11.6733 514 127.125 1285.95 532.078
1413 0 45.032 12.48 562 123.813 1287.18 532.219
1414 0 46.0214 12.2769 565 123.848 1287.35 532.166
1415 0 47.0172 12.6337 594 123.68 1287.28 532.458
1416 0 48.0127 12.3301 592 124.375 1287.32 532.294
1417 0 48.0334 12.4705 599 125.803 1287.68 532.117
1418 0 50.0087 12.5778 629 125.253 1288.21 531.159
1419 0 52.0247 12.6286 657 120.222 1287.09 530.729
1420 0 53.02 13.0517 692 123.828 1287.62 529.273
1421 0 54.0609 12.6524 684 124.494 1287.13 529.083
1422 0 53.0548 12.4777 662 131.742 1287.2 527.579
1423 0 57.0207 12.7322 726 127.322 1287.36 526.087
1424 0 57.0733 13.141 750 126.775 1288.19 525.86
1425 0 59.1284 13.0563 772 128.799 1288.32 524.895
1426 0 59.0841 13.0831 773 128.138 1287.83 524.735
1427 0 62.2431 12.644 787 127.666 1288.33 524.088
1428 0 64.1464 12.9236 829 128.565 1288.67 521.83
1429 0 64.093 13.0747 838 128.848 1288.44 521.561
1430 0 68.0848 13.8357 942 124.531 1288.47 521.288
1431 0 70.1218 13.6049 954 124.249 1288.31 520.36
1432 0 69.0488 13.2225 913 126.344 1288.46 518.745
1433 0 73.1367 13.7277 1004 122.213 1288.06 518.561
1434 0 74.1352 13.4754 999 123.113 1289.14 516.6
1435 0 78.1586 13.4214 1049 124.078 1289.11 515.419
1436 0 82.2028 13.3937 1101 121.771 1288.72 513.919
1437 0 83.2419 13.7671 1146 119.4 1288.92 513.37
1438 0 85.2573 12.1514 1036 124.537 1288.95 513.629
1439 0 88.2617 12.7575 1126 120.671 1288.64 512.908
1440 0 88.3176 12.172 1075 123.287 1288.63 511.396
1441 1 49.2501 11.6751 575 121.774 1288.34 527.57
1442 0 51.136 11.577 592 118.826 1287.67 526.194
1443 0 49.1153 11.4832 564 152.122 1286.63 526.615
1444 0 53.2108 11.8209 629 114.568 1288.22 524.041
1445 0 52.0186 11.6881 608 115.257 1289.36 520.758
1446 0 54.0576 12.1907 659 112.423 1289.68 519.184
1447 0 57.0482 11.0784 632 105.259 1289.07 519.693
1448 0 57.0321 11.2042 639 104.793 1290 517.305
1449 0 58.0991 11.532 670 105.8 1288.07 515.375
1450 0 60.0897 11.8157 710 105.165 1288.11 515.651
1451 0 61.0545 11.0557 675 98.3318 1288.28 516.117
1452 0 62.026 10.7374 666 100.881 1287.61 514.904
1453 0 63.0627 11.2269 708 101.811 1288.38 513.545
1454 0 66.13 11.4925 760 102.899 1288.33 512.343
1455 0 69.1268 11.1968 774 105.049 1288.69 512.305
1456 0 70.0948 11.8268 829 106.83 1287.95 511.158
1457 0 69.1023 11.2587 778 112.468 1288.22 509.706
1458 0 74.0501 11.7488 870 111.095 1288.5 509.451
1459 0 78.1294 12.6969 992 106.171 1288.74 508.636
1460 0 79.0871 11.5316 912 110.331 1287.81 508.877
1461 0 82.1065 12.4107 1019 108.633 1288.6 506.283
1462 0 85.0423 12.4291 1057 110.901 1288.32 506.566
1463 0 87.081 12.1955 1062 111.479 1288.27 506.651
1464 0 90.1011 12.0753 1088 112.689 1288.02 504.676
1465 0 94.0405 12.6541 1190 111.472 1287.73 502.803
1466 1 49.0233 11.0968 544 106.478 1287.45 521.018
1467 0 51.0656 11.0642 565 104.25 1287.25 521.901
1468 0 56.0803 11.3944 639 104.939 1287.55 520.21
1469 0 56.0212 11.8883 666 113.132 1287.18 518.682
1470 0 58.0288 11.6494 676 119.01 1287.62 518.932
1471 0 59.0658 11.9697 707 119.141 1288.26 517.892
1472 0 60.0457 12.1241 728 119.453 1287.35 517.243
1473 0 62.0686 12.5345 778 117.964 1287.78 516.85
1474 0 66.0416 12.265 810 120.396 1287.03 515.177
1475 0 63.0377 11.3583 716 112.19 1287.95 516.802
1476 0 69.1271 12.5566 868 119.828 1287.95 518.517
1477 0 70.0838 12.7134 891 128.222 1288.15 519.044
1478 0 74.0728 13.1087 971 125.66 1287.54 518.073
1479 0 76.1517 13.1711 1003 124.935 1288.13 516.28
1480 0 78.1515 13.4098 1048 123.581 1287.69 515.21
1481 0 80.1889 13.1938 1058 124.115 1288.57 514.225
1482 0 82.1756 12.7897 1051 122.864 1288.23 513.025
1483 0 85.1815 13.3597 1138 117.077 1288.55 510.912
1484 0 86.2918 13.0719 1128 117.971 1288.09 509.697
1485 0 92.1623 12.8469 1184 112.673 1288.23 508.721
1486 0 93.1817 13.082 1219 113.13 1288.22 505.152
1487 0 97.1278 13.3844 1300 112.655 1288.75 504.248
1488 1 53.1376 11.6678 620 118.434 1289.21 527.021
1489 0 55.0525 11.9522 658 117.845 1288.12 526.017
1490 0 56.0937 12.6574 710 117.334 1288.74 523.58
1491 0 58.0657 13.1575 764 114.242 1288.13 524.114
1492 0 60.0079 13.1316 788 114.445 1288.19 522.58
1493 0 63.0489 13.0851 825 115.084 1287.92 522.223
1494 0 62.047 13.4575 835 115.263 1288.22 521.085
1495 0 65.0456 13.652 888 115.464 1289.06 520.849
1496 0 66.0405 14.5668 962 116.76 1289.26 519.836
1497 0 70.0507 13.6044 953 118.016 1289.58 519.321
1498 0 69.0602 13.7127 947 119.693 1289.5 517.836
1499 0 72.0474 14.1018 1016 116.536 1289.28 516.966
1500 0 75.0656 14.2409 1069 115.297 1289.05 515.11
1501 0 78.0862 14.215 1110 114.886 1288.81 513.345
1502 0 80.1315 13.8647 1111 115.795 1289.2 511.572
1503 0 83.0897 15.0199 1248 112.238 1288.67 510.196
1504 0 85.054 14.4967 1233 114.337 1288.81 509.603
1505 0 85.0741 13.6704 1163 119.393 1288.43 508.976
1506 0 88.0914 14.5417 1281 117.336 1288.53 508.899
1507 0 91.0562 14.6393 1333 117.429 1288.55 506.337
1508 0 94.0475 14.8117 1393 115.359 1288.39 503.887
1509 0 98.0669 14.7246 1444 112.529 1288.9 503.433
1510 0 101.071 14.8608 1502 113.318 1288.74 502.671
1511 0 102.147 14.1463 1445 116.664 1289.07 499.612
1512 1 53.0492 11.4422 607 119.799 1289.17 525.178
1513 0 54.0094 11.1462 602 110.958 1288.95 521.681
1514 0 53.0443 11.9711 635 107.556 1288.3 518.452
1515 0 54.0227 11.995 648 114.577 1289.32 519.272
1516 0 57.0061 11.718 668 113.997 1289.75 518.392
1517 0 59.0253 12.7742 754 111.391 1288.93 521.596
1518 0 62.0526 12.9245 802 112.112 1288.69 520.288
1519 0 62.0722 13.2426 822 107.382 1288.31 519.77
1520 0 67.0986 13.279 891 105.035 1288.5 518.721
1521 0 68.0655 13.2226 900 105.489 1289.27 519.202
1522 0 68.0281 13.024 886 106.293 1289.66 516.352
1523 0 69.0708 12.5668 868 107.304 1289.06 517.047
1524 0 70.0329 12.8511 900 107.144 1289.48 515.704
1525 0 72.0366 12.6186 909 108.794 1289.52 514.99
1526 0 76.064 12.7393 969 107.3 1289.49 513.657
1527 0 77.1074 12.8652 992 106.653 1289.56 514.471
1528 0 79.116 12.4627 986 109.481 1289.23 511.931
1529 0 83.071 12.7241 1057 108.146 1288.35 512.186
1530 0 86.0704 12.7454 1097 108.745 1288.74 510.905
1531 1 46.0853 11.5438 532 112.041 1289.28 529.893
1532 0 41.0619 10.472 430 103.479 1289.62 525.256
1533 0 44.0906 11.0454 487 97.6016 1289.66 523.838
1534 0 47.0442 11.4998 541 94.1534 1288.81 524.695
1535 0 50.0455 12.6485 633 109.622 1289.38 528.112
1536 0 52.0649 13.0414 679 109.295 1288.35 526.214
1537 0 52.0719 13.0012 677 110.928 1289.04 525.557
1538 0 55.0426 12.6448 696 111.557 1288.16 523.286
1539 0 57.0848 12.9807 741 110.556 1288.51 523.727
1540 0 60.0779 12.9332 777 109.171 1288.7 523.161
1541 0 59.0585 12.9363 764 109.522 1288.65 523.132
1542 0 62.0383 13.1532 816 108.42 1288.38 521.62
1543 0 59.0676 12.528 740 104.32 1289.32 521.685
1544 0 63.0985 11.902 751 105.423 1289.3 520.96
1545 0 66.0887 13.0885 865 103.264 1289.8 520.154
1546 0 66.0538 12.3384 815 106.315 1289.6 518.766
1547 0 69.0779 13.159 909 106.854 1289.31 517.125
1548 0 72.1132 12.8825 929 109.348 1289.57 515.861
1549 0 74.0968 13.172 976 114.158 1289.44 516.751
1550 0 78.0462 12.7489 995 116.851 1289.98 515.598
1551 1 37.0171 11.3461 420 116.121 1290 534.605
1552 0 38.238 11.35 434 118.281 1289.22 533.203
1553 0 40.1614 11.8273 475 116.665 1289.41 531.474
1554 0 42.0448 12.2251 514 118.391 1289.79 531.8
1555 0 37.054 11.3078 419 112.086 1288.93 533.974
1556 0 39.0761 10.953 428 115.343 1289.39 532.827
1557 0 41.0022 11.975 491 112.554 1287.39 533.809
1558 0 42.0218 11.8034 496 115.508 1288.03 533.371
1559 0 42.1086 11.7791 496 116.883 1287.59 531.647
1560 0 44.0411 11.8071 520 116.758 1288.22 531.629
1561 0 45.0323 11.6361 524 116.345 1287.65 531.139
1562 0 46.0799 11.632 536 118.933 1288.24 531.55
1563 0 47.0514 12.2419 576 124.062 1288.11 530.384
1564 0 50.0668 12.1637 609 124.777 1287.7 530.302
1565 0 51.0728 12.1787 622 122.955 1287.98 529.068
1566 0 51.061 12.3186 629 123.563 1287.85 528.787
1567 0 54.1093 12.3084 666 123.2 1287.76 527.542
1568 0 56.1616 12.3216 692 121.422 1288.01 526.246
1569 0 55.084 12.7805 704 122.054 1288.34 525.254
1570 0 57.1172 12.9733 741 120.447 1287.58 525.223
1571 0 59.1654 12.6932 751 121.489 1287.38 523.509
1572 0 59.1654 12.7777 756 152.533 1286.37 523.505
1573 0 64.303 13.8718 892 117.344 1288.17 522.559
1574 0 64.1198 13.35 856 121.185 1288.52 521.311
1575 0 67.3178 13.2209 890 120.593 1288.16 520.224
1576 0 69.1688 13.7779 953 118.676 1288.44 517.152
1577 0 71.3341 13.6961 977 119.835 1287.61 517.903
1578 0 73.3754 13.4377 986 123.796 1288.37 515.219
1579 0 75.2848 13.5884 1023 122.524 1288.06 514.203
1580 0 76.2741 13.4777 1028 124.603 1287.29 512.026
1581 0 80.3313 13.2452 1064 122.803 1287.56 509.937
1582 0 82.3174 13.9703 1150 121.077 1287.78 508.529
1583 0 86.5216 13.5804 1175 125.107 1288.72 506.047
1584 0 86.4848 13.5515 1172 152.277 1289.71 506.02
1585 0 91.408 14.7361 1347 116.268 1288.2 505.53
1586 0 93.1828 14.0047 1305 112.551 1288.19 503.961
1587 0 92.0808 13.5099 1244 114.965 1288.44 501.695
1588 0 98.108 14.0763 1381 109.752 1288.64 500.629
1589 0 98.16 13.2437 1300 105.626 1287.87 497.546
1590 0 98.16 13.2233 1298 138.04 1286.86 497.362
1591 0 106.187 14.1449 1502 109.522 1287.63 497.236
1592 0 106.124 14.0591 1492 110.822 1288.12 494.324
1593 0 112.092 14.0153 1571 108.354 1287.41 492.718
1594 0 114.095 14.2425 1625 107.821 1288.26 490.616
1595 0 116.111 14.1761 1646 110.226 1287.8 488.048
1596 0 120.135 13.8678 1666 109.55 1288.09 485.759
1597 0 124.247 14.4068 1790 110.092 1287.8 482.042
1598 0 127.195 13.7584 1750 112.986 1287.77 479.486
1599 1 63.0924 11.713 739 113.195 1287.91 511.329
1600 0 62.1055 11.4644 712 117.508 1287.4 508.287
1601 0 67.0759 12.1057 812 111.722 1287.9 510.99
1602 0 66.0289 11.3738 751 110.353 1287.23 509.332
1603 0 67.1122 11.6819 784 110.747 1287.9 510.638
1604 0 67.113 11.6967 785 126.079 1287.9 510.489
1605 0 70.1852 11.3842 799 115.791 1288.49 509.517
1606 0 73.26 12.1076 887 112.924 1288.19 508.441
1607 0 75.1307 12.2453 920 113.012 1288.56 504.924
1608 0 79.1617 12.2913 973 112.474 1288.68 505.302
1609 0 80.1414 11.9663 959 113.336 1287.78 502.282
1610 0 80.1641 12.0129 963 112.503 1287.95 501.68
1611 0 86.1228 13.1208 1130 108.219 1288.21 501.245
1612 0 91.199 13.0593 1191 110.687 1287.94 501.661
1613 0 92.0959 12.7259 1172 112.682 1288.46 500.956
1614 0 94.1505 13.2235 1245 111.454 1288.35 496.59
1615 0 96.1811 13.0691 1257 110.627 1287.97 496.084
1616 0 101.165 13.3149 1347 109.329 1287.22 493.285
1617 0 103.244 13.5602 1400 109.436 1288.07 491.638
1618 0 108.215 13.8058 1494 108.722 1287.33 489.63
1619 0 114.312 14.1892 1622 107.335 1287.3 487.346
1620 0 118.527 13.6088 1613 108.469 1287.44 486.591
1621 1 62.3548 11.8195 737 108.723 1287.09 518.111
1622 0 66.2664 12.7365 844 110.366 1287.66 519.318
1623 0 67.1294 12.9452 869 113.244 1287.92 517.62
1624 0 70.081 13.0848 917 116.351 1287.8 517.372
1625 0 73.0669 13.1934 964 116.039 1288.54 516.038
1626 0 73.2334 13.9144 1019 118.307 1288.46 515.099
1627 0 77.2931 13.5717 1049 116.446 1288.67 514.386
1628 0 79.2658 13.6629 1083 116.161 1287.26 514.331
1629 0 81.2047 12.7456 1035 122.149 1287.74 512.057
1630 0 84.2327 13.2846 1119 121.496 1287.93 511.08
1631 0 88.2202 13.353 1178 122.165 1288.19 510.271
1632 0 89.1676 12.6952 1132 123.022 1287.56 507.612
1633 0 92.1691 12.6724 1168 123.336 1287.63 506.434
1634 1 48.1654 12.1041 583 124.786 1287.3 522.703
1635 0 49.1513 12.6955 624 124.088 1288.24 522.49
1636 0 51.1833 13.3442 683 118.985 1287.83 522.389
1637 0 54.093 13.7541 744 117.853 1287.37 519.124
1638 0 54.0502 14.0425 759 114.808 1287.54 522.966
1639 0 55.0256 14.1389 778 116.919 1287.96 521.638
1640 0 57.0359 14.0438 801 116.119 1288.04 519.949
1641 0 59.0196 13.8937 820 115.935 1287.85 519.322
1642 0 59.077 13.6432 806 118.238 1288.5 517.998
1643 0 61.0617 13.8385 845 115.47 1288.09 517.557
1644 0 62.0588 13.9223 864 114.856 1288.56 517.637
1645 0 65.0253 14.3636 934 112.842 1288.05 515.69
1646 0 64.0728 13.7968 884 116.641 1288.85 514.439
1647 0 67.1546 13.4615 904 118.591 1288.2 512.838
1648 0 71.2158 14.1963 1011 115.315 1287.85 513.568
1649 0 72.1758 13.5502 978 117.36 1288 511.014
1650 0 73.1623 14.1193 1033 115.838 1287.62 509.114
1651 0 71.0367 13.4719 957 117.732 1287.88 514.388
1652 0 76.1553 13.9977 1066 114.04 1288 511.419
1653 0 77.0529 13.4972 1040 116.255 1288.52 511.637
1654 0 80.0258 13.6331 1091 115.096 1288.17 511.026
1655 0 80.0786 13.4243 1075 118 1288.6 510.271
1656 0 84.0924 13.3425 1122 118.353 1288.29 508.669
1657 0 86.0846 13.1963 1136 118.665 1288.92 508.389
1658 0 90.0604 13.8241 1245 116.63 1287.62 507.761
1659 0 90.0496 13.2371 1192 119.08 1288.55 506.062
1660 0 94.1036 13.2089 1243 117.131 1288.71 502.702
1661 0 96.0922 13.331 1281 115.657 1288.42 502.776
1662 0 102.241 13.6834 1399 115.204 1287.99 499.862
1663 0 104.177 13.8515 1443 113.299 1287.77 494.823
1664 0 104.177 13.8803 1446 138.639 1287.76 494.732
1665 1 60.0432 12.3078 739 115.57 1288.33 517.066
1666 0 61.1107 12.5019 764 118.751 1288.33 516.499
1667 0 62.0952 12.9318 803 113.352 1288.36 518.176
1668 0 64.1439 12.5811 807 100.76 1288.49 516.662
1669 0 69.1318 13.4381 929 111.513 1287.69 514.36
1670 0 71.0949 13.4327 955 111.911 1288.39 513.683
1671 0 74.1308 13.4087 994 111.569 1287.62 513.6
1672 0 73.0984 13.1056 958 117.525 1287.41 513.078
1673 0 77.0679 12.768 984 117.808 1287.12 511.63
1674 0 79.1107 13.3357 1055 116.269 1287.79 510.287
1675 0 82.0532 13.5766 1114 114.79 1287.89 509.613
1676 0 85.0976 13.8664 1180 114.503 1287.66 506.889
1677 0 89.0847 13.852 1234 115.147 1287.94 506.733
1678 0 90.0986 13.2189 1191 118.318 1288.15 505.901
1679 0 93.0835 13.6222 1268 118.066 1288.71 506.004
1680 0 94.1521 14.0093 1319 116.43 1287.76 503.703
1681 0 98.1242 13.5848 1333 119.093 1288.25 499.02
1682 1 51.0168 12.1921 622 115.304 1288.33 519.186
1683 0 51.0227 12.4062 633 120.087 1288.67 518.711
1684 0 51.0242 12.3863 632 162.299 1289.65 518.76
1685 0 57.0777 13.4553 768 124.84 1288.5 522.363
1686 0 58.0419 13.4213 779 126.077 1287.48 522.544
1687 0 61.0694 14.3443 876 121.887 1288.1 520.965
1688 0 62.118 14.231 884 125.277 1288.64 520.516
1689 0 63.0601 13.9232 878 126.433 1288.48 520.15
1690 0 66.0292 13.4637 889 128.611 1288.96 519.402
1691 0 69.0172 14.4602 998 124.375 1288.99 518.246
1692 0 70.0246 14.0379 983 128.085 1289.35 515.125
1693 0 72.0288 14.1888 1022 128.636 1289.45 512.591
1694 0 75.0358 14.1932 1065 129.332 1289.26 511.99
1695 0 76.0422 14.5183 1104 128.872 1288.45 512.056
1696 0 78.1304 14.3478 1121 132.308 1288.17 510.547
1697 0 81.0879 14.4041 1168 133.4 1287.74 509.069
1698 0 84.1405 14.3807 1210 132.411 1288.48 508.155
1699 0 86.1233 14.6302 1260 133.596 1287.92 506.918
1700 0 89.1787 13.8598 1236 136.432 1288.16 505.185
1701 0 92.1619 14.3552 1323 133.361 1287.49 505.062
1702 1 44.0935 12.2013 538 136.498 1288.81 526.204
1703 0 47.1106 11.9082 561 134.324 1288.77 525.811
1704 0 49.087 12.1213 595 129.676 1288.57 521.679
1705 0 51.166 12.9383 662 122.178 1288.09 519.4
1706 0 51.0916 13.2898 679 126.432 1288.96 522.698
1707 0 53.1036 13.7279 729 123.178 1288.67 522.18
1708 0 54.1266 13.0804 708 124.867 1289.07 520.734
1709 0 54.1 13.4011 725 125.095 1288.4 520.4
1710 0 57.0988 13.7131 783 121.71 1287.85 519.106
1711 0 57.0715 13.8949 793 121.544 1288.7 518.593
1712 0 60.0865 13.7968 829 120.361 1288.05 516.043
1713 0 62.1175 13.4745 837 120.492 1288.73 514.319
1714 0 63.0723 13.6668 862 117.055 1288.62 514.166
1715 0 66.0899 13.2547 876 110.588 1289.02 514.445
1716 0 66.0613 13.3815 884 110.443 1288.37 513.688
1717 0 69.0709 13.6526 943 112.624 1289.27 512.739
1718 0 70.0475 13.1482 921 114.535 1289.3 512.414
1719 0 70.0712 12.9012 904 115.921 1289.65 512.729
1720 0 73.1747 13.3516 977 113.662 1288.6 511.011
1721 0 74.0744 12.8114 949 116.112 1289.67 508.589
1722 0 78.1473 13.2698 1037 112.665 1288.65 507.777
1723 0 78.156 12.4239 971 115.162 1288.71 505.315
1724 0 81.1245 12.8814 1045 113.185 1288.65 503.258
1725 0 83.1321 12.7628 1061 116.205 1288.89 502.161
1726 0 84.1542 12.6791 1067 116.992 1288.86 499.916
1727 0 89.0823 12.6849 1130 114.66 1288.04 498.148
1728 0 92.0957 13.4208 1236 110.9 1287.98 497.894
1729 1 46.0384 12.4678 574 116.092 1288.59 520.831
1730 0 46.0918 12.1063 558 116.437 1288.11 519.993
1731 0 50.0514 12.7469 638 110.58 1289.17 522.152
1732 0 51.056 13.5537 692 107.224 1288.92 521.711
1733 0 48.0413 12.3852 595 110.751 1288.78 521.358
1734 0 51.1301 12.654 647 108.284 1289.06 520.385
1735 0 51.0594 12.7694 652 108.571 1289.12 519.368
1736 0 53.0679 12.4746 662 108.764 1288.58 518.441
1737 0 56.0488 12.3107 690 107.98 1288.05 518.096
1738 0 57.0618 12.32 703 108.984 1287.79 515.937
1739 0 62.0374 13.3468 828 104.64 1287.31 513.874
1740 0 62.0374 13.3307 827 142.786 1287.3 513.962
1741 0 64.0549 13.1294 841 108.719 1288.51 510.611
1742 0 68.0688 13.0309 887 108.862 1287.66 510.352
1743 0 68.1259 13.0641 890 110.257 1288.35 508.918
1744 0 72.0712 13.5838 979 108.888 1288.63 507.48
1745 0 73.0741 13.2195 966 111.783 1287.89 505.628
1746 0 76.1818 13.0871 997 112.299 1287.58 505.25
1747 0 79.1057 13.5641 1073 112.235 1286.78 503.43
1748 0 80.1918 13.2557 1063 113.707 1287.3 504.24
1749 0 81.1569 13.7388 1115 111.891 1287.28 500.869
1750 0 87.2141 13.7592 1200 109.23 1287.41 499.326
1751 0 85.1906 13.687 1166 155.191 1287.39 498.54
1752 0 93.1669 14.0823 1312 108.101 1287.51 496.701
1753 0 96.1561 13.1765 1267 112.148 1287.42 496.21
1754 1 49.1627 11.3501 558 109.36 1287.51 519.228
1755 0 48.0978 12.1627 585 109.983 1287.25 518.159
1756 0 52.0245 13.0708 680 105.681 1288.42 519.885
1757 0 55.0693 11.9123 656 105.515 1288.45 521.282
1758 0 56.0564 12.202 684 105.656 1288.73 519.754
1759 0 57.0257 12.9766 740 103.435 1288.37 518.899
1760 0 59.0324 11.1803 660 108.709 1288.97 519.164
1761 0 60.0584 12.4046 745 106.486 1288.75 515.828
1762 0 64.0396 12.8046 820 104.655 1289.04 514.76
1763 0 63.0585 12.1316 765 108.837 1288.74 514.648
1764 0 66.0659 11.8367 782 110.043 1288.85 512.549
1765 0 68.035 11.5529 786 111.429 1288.43 511.936
1766 0 69.0795 12.2612 847 110.277 1289.16 510.459
1767 0 71.1362 11.4991 818 112.727 1288.97 506.894
1768 0 74.1225 12.4928 926 111.745 1288.56 505.956
1769 0 76.1819 12.0107 915 114.372 1289.44 503.999
1770 0 79.1025 11.7695 931 116.039 1288.76 502.81
1771 0 81.0787 12.2104 990 116.249 1287.31 501.481
1772 0 84.2799 12.6246 1064 114.037 1286.82 498.984
1773 0 87.1175 11.8461 1032 117.273 1287.47 498.714
1774 0 90.1584 12.0676 1088 119.778 1287.48 497.006
1775 1 49.0578 10.824 531 116.053 1287.66 518.586
1776 0 50.0218 10.9152 546 116.94 1286.46 516.974
1777 0 52.0046 11.6528 606 114.431 1287.44 516.401
1778 0 54.0487 11.8042 638 112.962 1288.3 515.809
1779 0 57.0666 11.7932 673 115.08 1288.68 519.262
1780 0 57.109 11.7845 673 115.158 1288.33 518.706
1781 0 60.1203 12.4916 751 110.774 1289.06 517.493
1782 0 61.0467 11.3356 692 99.1705 1288.31 518.825
1783 0 61.1075 11.1934 684 99.2544 1289.14 519.342
1784 0 64.0599 11.3019 724 98.413 1288.73 515.291
1785 0 66.0712 11.2152 741 97.0958 1288.41 515.341
1786 0 67.1088 11.4441 768 98.2318 1288.24 515.426
1787 0 71.1078 11.8271 841 96.5898 1288.33 513.598
1788 0 74.0522 11.6269 861 97.5772 1288.16 511.286
1789 0 76.0636 12.0426 916 95.8908 1288.4 510.595
1790 0 78.0961 12.2797 959 96.0334 1287.99 510.285
1791 0 80.0715 11.6271 931 98.8303 1288.05 507.577
1792 0 84.0494 11.8264 994 97.1771 1287.65 506.045
1793 0 86.0404 11.82 1017 97.5959 1288.51 505.995
1794 0 87.0731 12.1163 1055 97.673 1288.18 505.409
1795 0 92.0358 11.7237 1079 98.2994 1287.77 503.457
1796 0 91.0506 11.6858 1064 103.699 1286.87 500.549
1797 0 94.0596 11.599 1091 102.076 1287.34 500.275
1798 0 99.0582 11.68 1157 100.262 1286.87 497.738
1799 0 103.041 12.2767 1265 97.1644 1286.6 496.29
1800 1 54.0508 9.75008 527 96.2884 1286.75 522.207
1801 0 55.098 9.85518 543 98.9742 1288.41 521.444
1802 0 59.1214 11.7893 697 99.3802 1288.68 520.504
1803 0 60.0776 12.0677 725 98.9641 1288.06 518.894
1804 0 60.049 11.3074 679 102.795 1288.34 518.542
1805 0 62.1047 11.8027 733 100.36 1287.65 518.711
1806 0 65.0988 11.4441 745 100.664 1287.57 517.313
1807 0 65.1034 11.1976 729 101.158 1287.74 517.624
1808 0 67.1401 11.5132 773 100.326 1288.26 516.427
1809 0 70.1371 11.6058 814 98.5123 1287.52 512.918
1810 0 72.1687 11.4316 825 101.007 1288.01 512.92
1811 0 74.2342 11.5041 854 102.008 1287.33 511.951
1812 0 79.1368 12.1309 960 100.991 1288.17 508.769
1813 0 80.2508 11.7133 940 101.965 1287.65 505.618
1814 0 80.1906 11.6348 933 102.296 1287.97 505.72
1815 0 83.2944 12.0776 1006 101.278 1287.43 503.982
1816 0 88.2746 11.6908 1032 102.542 1287.02 500.963
1817 0 92.1836 12.128 1118 101.057 1287.57 500.727
1818 1 49.1483 9.96984 490 100.339 1287.67 523.306
1819 0 51.1592 10.5748 541 98.7542 1287.32 522.192
1820 0 52.1068 11.3421 591 98.3604 1286.86 523.184
1821 0 55.0875 11.7994 650 97.6338 1287.64 522.523
1822 0 54.0854 11.4449 619 92.8368 1286 523.664
1823 0 54.0473 11.7305 634 94.1435 1286.69 520.655
1824 0 54.0227 11.199 605 97.1207 1286.26 523.4
1825 0 57.0333 11.0637 631 97.8225 1286.51 522.067
1826 0 58.041 11.5436 670 96.3851 1287.28 521.394
1827 0 57.0292 10.5911 604 100.114 1286.71 520.492
1828 0 61.0563 11.6941 714 97.7717 1286.79 517.76
1829 0 64.0458 11.0858 710 97.3803 1286.04 518.032
1830 0 64.0973 11.3577 728 98.75 1286.78 515.908
1831 0 65.0381 11.0089 716 101.405 1286.17 516.778
1832 0 66.0394 12.326 814 98.2039 1286.65 515.598
1833 0 70.05 11.6345 815 99.6356 1286.58 515.768
1834 0 74.0662 13.0829 969 95.9061 1286.98 513.281
1835 0 75.051 12.0318 903 104.667 1286.72 512.32
1836 0 76.1648 12.4336 947 106.442 1289.32 511.737
1837 0 77.0862 12.0904 932 111.1 1289.84 509.908
1838 0 78.051 12.2356 955 113.659 1289.51 509.073
1839 0 81.1443 12.2991 998 115.837 1289.19 507.25
1840 0 84.117 12.3756 1041 116.351 1289.54 508.007
1841 0 85.0666 12.3198 1048 117.243 1288.1 505.906
1842 0 87.0727 12.4379 1083 111.433 1289.33 506.119
1843 0 86.0601 12.1194 1043 117.754 1288.81 507.037
1844 0 91.0806 12.0113 1094 116.206 1288.59 501.165
1845 0 94.0771 12.8618 1210 121.151 1288.02 499.36
1846 0 96.0912 12.4569 1197 121.136 1288.71 497.604
1847 0 96.1424 12.6791 1219 117.318 1288.83 495.453
1848 0 101.082 12.6827 1282 116.521 1288.86 496.002
1849 0 101.106 13.293 1344 116.121 1288.4 493.478
1850 0 105.162 12.8278 1349 119.341 1288.81 491.949
1851 0 107.114 13.1076 1404 119.439 1288.09 490.316
1852 0 107.075 13.0376 1396 119.169 1288.57 491.895
1853 0 110.137 12.2393 1348 123.627 1288.29 488.696
1854 0 113.067 12.5766 1422 120.876 1288.96 485.92
1855 0 115.114 12.9002 1485 122.622 1288.06 484.613
1856 0 116.147 13.259 1540 119.854 1288.28 482.669
1857 0 119.217 12.9428 1543 123.272 1287.89 481.206
1858 0 122.173 13.8083 1687 115.983 1287.6 480.786
1859 0 125.246 13.0224 1631 118.31 1287.72 480.807
1860 0 126.181 13.1874 1664 120.963 1287.62 476.403
1861 0 129.185 13.4922 1743 118.762 1288.3 475.853
1862 0 133.195 13.7242 1828 118.243 1287.9 475.06
1863 0 133.151 13.4584 1792 121.002 1287.94 474.175
1864 0 136.198 12.8342 1748 123.461 1287.79 472.94
1865 0 137.13 12.9293 1773 123.538 1287.9 470.688
1866 0 141.218 13.1499 1857 123.106 1288.28 470.31
1867 0 142.18 13.4618 1914 173.833 1288.24 469.02
1868 0 142.18 13.4196 1908 173.504 1288.24 469.11
1869 0 142.195 13.4182 1908 173.151 1288.24 469.11
1870 0 153.24 14.1673 2171 120.792 1287.68 461.573
1871 0 155.139 13.7683 2136 120.693 1287.92 461.48
1872 0 160.116 13.8837 2223 119.776 1287.67 460.068
1873 0 160.114 13.684 2191 121.395 1287.33 458.308
1874 0 164.148 14.3224 2351 119.109 1286.9 456.006
1875 0 166.181 13.9607 2320 119.351 1287.32 454.98
1876 0 167.088 14.0106 2341 119.386 1287.14 454.495
1877 0 172.156 14.2545 2454 117.913 1286.8 450.471
1878 0 175.251 13.9057 2437 117.526 1287.06 450.982
1879 0 176.152 13.5394 2385 118.806 1286.78 447.791
1880 0 178.213 14.1236 2517 113.585 1287.31 446.176
1881 0 180.211 13.8616 2498 113.774 1287.37 446.702
1882 0 183.172 14.178 2597 114.621 1287.98 445.386
1883 0 185.108 13.7649 2548 116.578 1287.32 441.504
1884 0 187.26 13.767 2578 113.341 1287.8 439.363
1885 0 193.167 13.6204 2631 112.516 1288.13 439.877
1886 0 193.152 13.7767 2661 111.841 1287.66 436.927
1887 0 194.191 13.77 2674 110.641 1287.38 434.988
1888 0 199.164 14.1391 2816 108.567 1287.55 434.902
1889 0 202.21 13.7827 2787 111.227 1287 434.157
1890 0 203.128 13.814 2806 110.408 1286.73 429.674
1891 0 208.171 14.0318 2921 108.482 1286.68 430.563
1892 0 210.163 13.8321 2907 110.876 1287.11 427.806
1893 0 212.225 13.825 2934 111.256 1287.18 426.253
1894 0 214.196 14.0012 2999 110.607 1287.69 423.56
1895 0 214.186 14.0485 3009 158.441 1288.69 423.688
1896 1 226.207 13.5805 3072 108.538 1287.61 421.128
1897 0 227.216 13.1109 2979 108.604 1287.97 425.351
1898 0 230.271 13.6796 3150 106.275 1287.96 423.2
1899 0 233.367 12.8767 3005 108.158 1287.52 422.3
1900 0 238.212 13.8658 3303 104.351 1287.65 420.16
1901 0 241.352 13.586 3279 104.234 1287.72 418.119
1902 0 245.393 13.4519 3301 103.953 1288.16 417.411
1903 0 251.305 13.4816 3388 102.53 1288.28 418.973
1904 0 255.25 13.716 3501 102.165 1286.96 416.528
1905 0 258.338 13.6217 3519 101.693 1287.25 415.324
1906 0 263.161 13.4025 3527 101.935 1286.79 411.436
1907 0 266.307 13.1728 3508 101.587 1286.83 410.63
1908 0 270.358 12.9939 3513 103.206 1286.68 406.191
1909 0 272.242 13.2199 3599 101.463 1286.01 406.656
1910 0 278.269 13.6199 3790 98.1219 1286.02 403.267
1911 0 281.363 13.2249 3721 97.2244 1285.69 404.024
1912 0 285.269 13.4294 3831 94.5307 1285.99 402.27
1913 0 287.347 12.7581 3666 95.8213 1285.81 401.544
1914 0 305.361 18.7189 5716 79.0728 1285.46 373.071
1915 0 306.386 17.2984 5300 81.0543 1285.7 375.461
1916 0 306.45 17.9703 5507 79.1963 1285.9 372.75
1917 0 306.371 16.6302 5095 82.2063 1285.45 377.576
1918 0 310.294 15.9978 4964 83.2778 1285.29 373.367
1919 0 313.501 16.0733 5039 83.4148 1285.75 378.116
1920 0 312.405 13.4697 4208 89.2205 1285.32 388.106
1921 0 317.365 16.0478 5093 81.7685 1285.79 383.077
1922 0 320.449 16.6516 5336 79.809 1285.24 381.342
1923 0 325.678 16.3536 5326 79.773 1285.65 380.99
1924 0 327.331 15.993 5235 79.332 1285.18 378.567
1925 0 332.452 16.5708 5509 77.279 1285.69 376.768
1926 0 335.515 16.7712 5627 76.0546 1285.66 372.752
1927 0 338.577 15.3289 5190 78.5397 1285.18 374.171
1928 0 342.577 16.1453 5531 75.9188 1285.79 372.748
1929 0 344.455 15.6537 5392 76.4236 1284.71 370.282
1930 0 348.545 15.9807 5570 75.9515 1285.51 372.087
1931 0 351.523 16.4029 5766 74.9187 1285.77 368.056
1932 0 353.45 17.0689 6033 73.3918 1286.17 364.465
1933 0 356.594 16.0631 5728 74.4564 1285.61 361.685
1934 0 360.416 15.8206 5702 74.9309 1285.22 362.522
1935 0 360.416 15.8095 5698 161.435 1285.23 362.605
1936 0 367.487 16.7543 6157 72.051 1285.14 356.67
1937 0 369.502 16.5953 6132 71.6479 1284.66 360.788
1938 0 371.462 16.357 6076 71.8606 1284.51 357.644
1939 0 374.49 16.7054 6256 70.917 1284.83 351.47
1940 0 377.621 16.445 6210 71.1752 1284.18 353.1
1941 0 379.388 16.3474 6202 71.0145 1285.2 354.281
1942 0 382.452 13.6854 5234 76.0225 1284.82 356.42
1943 0 383.454 16.4818 6320 69.9911 1285.34 350.842
1944 0 386.47 17.2019 6648 68.3296 1285.05 347.262
1945 0 386.336 16.0353 6195 70.8689 1285.07 345.431
1946 0 389.433 16.6062 6467 69.407 1284.84 343.911
1947 0 394.559 17.1635 6772 67.1302 1284.79 344.149
1948 0 394.391 16.4329 6481 68.7812 1283.85 338.899
1949 0 395.419 16.1879 6401 68.3474 1284.75 339.393
1950 0 391.754 13.9093 5449 72.6449 1284.47 337.53
1951 0 399.574 16.2748 6503 66.2868 1285.12 338.16
1952 0 402.448 17.4557 7025 63.3651 1284.34 340.063
1953 0 403.348 17.092 6894 63.7367 1285.54 338.345
1954 0 403.409 16.4969 6655 64.3346 1284.56 335.1
1955 0 406.37 16.293 6621 63.9872 1286.18 337.556
1956 0 408.583 16.709 6827 64.1564 1286.11 329.915
1957 0 411.618 18.505 7617 60.1078 1285.99 329.593
1958 0 412.483 17.2007 7095 61.4017 1285.31 326.578
1959 0 413.495 16.7281 6917 61.686 1286.12 325.773
1960 0 415.58 18.1963 7562 59.2748 1286.02 325.323
1961 0 415.495 19.6705 8173 57.6677 1286.44 322.462
1962 0 415.505 18.38 7637 59.2646 1285.65 321.625
1963 0 414.354 17.2316 7140 59.8006 1285.71 325.398
1964 0 411.401 16.5483 6808 60.5914 1285.45 323.565
1965 0 415.447 18.1323 7533 57.5258 1285.16 324.667
1966 0 414.387 17.7539 7357 58.1467 1285.45 324.091
1967 0 413.34 17.3465 7170 57.7675 1285.62 324.555
1968 0 414.68 17.4617 7241 57.8966 1285.15 324.382
1969 0 415.381 17.4154 7234 57.9162 1284.62 323.231
1970 0 414.723 17.4792 7249 56.6308 1285.17 326.009
1971 0 413.658 16.9705 7020 56.6326 1284.68 323.643
1972 0 412.404 17.027 7022 56.688 1285.05 324.005
1973 0 416.454 18.4294 7675 54.2149 1284.2 324.728
1974 0 416.497 17.3207 7214 55.3712 1284.54 323.557
