time division length width area intensity CMx CMy
0 0 64.0309 14.1963 909 125.58 627.551 509.347
1 0 67.0503 14.6308 981 123.746 626.721 508.228
2 0 68.1297 14.3843 980 125.777 627.083 508.369
3 0 71.1123 14.5826 1037 125.8 626.704 507.526
4 0 71.157 14.4188 1026 125.741 626.788 507.301
5 0 73.1474 14.6007 1068 119.933 626.645 507.004
6 0 75.0747 14.0127 1052 109.143 627.199 507.632
7 1 38.0292 12.4378 473 109.33 627.467 525.537
8 0 38.0137 12.5481 477 109.174 627.002 524.451
9 0 39.0245 12.5818 491 108.338 627.426 524.623
10 0 41.0348 12.3066 505 106.352 626.861 523.909
11 0 41.0103 12.631 518 107.039 626.921 522.195
12 0 43.0112 13.5081 581 99.0861 627.688 521.847
13 0 41.0742 13.3904 550 100.662 626.287 523.422
14 0 43.0887 13.1125 565 98.6336 625.818 522.412
15 0 42.0396 13.8679 583 98.8765 625.87 522.232
16 0 46.0849 13.6053 627 96.6156 626.169 522.081
17 0 46.0514 13.789 635 95.2709 625.921 518.427
18 0 47.0846 13.274 625 94.96 625.531 520.627
19 0 48.0723 13.5629 652 94.2301 625.655 518.782
20 0 49.1254 13.3332 655 95.7344 625.339 517.705
21 0 53.1041 13.6148 723 92.2808 625.509 518.545
22 0 54.0724 13.5374 732 93.2227 625.399 517.434
23 0 56.1164 13.4363 754 92.9761 625.904 516.874
24 0 56.1164 13.4185 753 157.769 625.896 516.846
25 0 59.1151 14.1757 838 91.8317 625.239 515.45
26 0 61.0387 14.0566 858 91.2249 625.117 516.149
27 0 63.1306 14.6839 927 91.0949 624.999 514.429
28 0 65.0723 14.4762 942 93.1178 625.166 514.437
29 0 66.1046 15.2486 1008 92.1389 624.722 513.993
30 0 69.2266 14.3731 995 95.4904 624.745 512.721
31 0 69.1062 14.7454 1019 95.6045 625.036 511.897
32 0 73.1118 15.0455 1100 93.6427 624.852 511.791
33 0 75.1731 15.2448 1146 93.5375 624.456 509.741
34 0 76.1133 15.0434 1145 94.9817 624.278 507.99
35 0 78.0534 15.4125 1203 93.1729 624.126 507.985
36 0 81.0645 15.2594 1237 91.6888 624.803 506.998
37 0 84.1531 14.9014 1254 91.2209 623.844 504.38
38 0 86.0899 15.6 1343 88.4043 623.822 501.835
39 0 89.0998 14.4781 1290 90.0845 623.047 499.483
40 0 91.0629 14.8139 1349 89.3069 624.286 498.835
41 0 94.1056 15.1107 1422 87.2982 624.181 496.336
42 1 48.0898 12.539 603 86.607 624.816 521.405
43 0 47.1358 11.923 562 89.3808 624.173 520.322
44 0 50.0627 12.4444 623 83.5152 624.119 519.382
45 0 52.0454 13.2961 692 81.1012 623.603 518.513
46 0 54.0866 13.5153 731 82.8919 624.053 517.695
47 0 57.1078 13.6759 781 82.0358 624.475 518.158
48 0 59.0616 13.833 817 81.5484 623.885 515.815
49 0 61.0398 13.5649 828 80.8056 623.998 516.469
50 0 63.1259 13.5602 856 82.1682 623.869 514.195
51 0 63.0808 13.4906 851 82.3901 624.384 514.036
52 0 64.0893 13.3876 858 83.7424 624.279 512.107
53 0 67.0758 13.1642 883 83.761 624.077 510.564
54 0 70.0949 13.1108 919 83.6757 623.686 510.047
55 0 72.0914 13.1777 950 83.3505 623.735 507.919
56 0 74.0589 13.0437 966 90.9441 624.155 506.561
57 0 79.0972 13.0472 1032 89.5484 624.161 505.346
58 0 78.0911 13.5099 1055 93.2645 623.752 505.81
59 0 83.1113 13.1751 1095 88 624.445 504.419
60 0 85.1307 13.4499 1145 87.5983 623.705 501.756
61 0 87.1355 13.1864 1149 88.0714 624.233 500.601
62 0 90.0903 13.1535 1185 87.7342 624.029 498.83
63 0 93.0779 13.0643 1216 87.2122 624.618 499.67
64 0 94.1104 12.6979 1195 88.4084 623.748 496.759
65 0 99.1885 12.6426 1254 87.7998 624.094 497.026
66 0 101.121 12.2526 1239 87.3866 623.339 493.634
67 0 107.277 12.5004 1341 87.3691 623.063 491.944
68 0 109.173 12.6679 1383 86.8004 622.92 490.185
69 0 113.144 12.5327 1418 87.6305 622.813 488.114
70 1 56.081 11.3051 634 86.2161 622.667 515.964
71 0 59.0707 11.9518 706 83.4108 623.227 516.05
72 0 60.1197 12.2755 738 85.0867 623.13 514.175
73 0 63.0741 11.8274 746 84.4156 623.806 513.694
74 0 64.169 11.7814 756 85.1653 623.422 512.792
75 0 65.2295 12.0958 789 76.4943 623.203 512.118
76 0 68.04 12.1105 824 83.3799 623.221 510.734
77 0 70.0905 12.1272 850 83.7812 622.787 509.264
78 0 72.1043 11.7191 845 85.0675 622.996 508.799
79 0 75.1767 12.1447 913 84.724 622.544 507.296
80 0 76.2072 12.5841 959 86.1262 622.753 505.981
81 0 79.1847 12.6792 1004 85.7998 623.329 504.96
82 0 81.1366 12.1277 984 88.002 623.716 504.648
83 0 84.1169 12.5896 1059 86.4212 622.974 502.478
84 0 88.189 12.3938 1093 84.4099 623.2 501.853
85 0 90.1543 12.3899 1117 83.5434 622.994 499.911
86 0 92.1622 12.2067 1125 84.2996 623.9 499.205
87 0 97.1744 12.2254 1188 83.2071 623.269 495.811
88 0 99.1338 12.0443 1194 84.5955 624.198 494.461
89 0 104.17 12.0956 1260 83.046 623.666 490.575
90 0 108.178 11.7307 1269 84.3184 624.296 489.214
91 1 56.012 10.7298 601 85.1764 624.597 514.519
92 0 57.068 10.6364 607 85.0692 623.901 512.878
93 0 60.0425 11.2087 673 86.7325 624.129 510.14
94 0 62.0551 11.0063 683 85.0498 624.072 510.849
95 0 63.1089 11.3138 714 86.0014 623.874 509.578
96 0 67.0833 11.6572 782 84.0691 623.267 509.023
97 0 68.0887 12.0431 820 83.2866 622.945 510.06
98 0 73.0777 12.9725 948 81.5306 623.097 508.536
99 0 74.0764 12.9191 957 82.535 623.478 506.926
100 0 77.0373 13.3572 1029 83.7872 623.392 504.733
101 0 79.1109 12.7416 1008 87.2917 623.682 508.148
102 0 83.0753 12.6632 1052 88.0152 623.02 505.797
103 0 84.0737 12.5366 1054 87.6148 622.619 506.092
104 0 85.1007 12.6791 1079 87.2437 623.732 503.521
105 0 90.1385 12.8136 1155 86.8909 624.844 499.477
106 0 92.0777 12.2179 1125 87.3511 624.548 499.758
107 0 93.1097 11.6851 1088 88.0248 623.688 497.044
108 0 98.1205 12.291 1206 86.1907 623.849 496.651
109 0 102.094 12.3122 1257 85.6539 623.768 493.445
110 0 105.105 12.8253 1348 84.6128 624.458 493.055
111 0 109.12 12.4359 1357 86.0663 624.27 489.414
112 0 114.106 12.576 1435 84.931 624.071 487.774
113 0 116.161 12.147 1411 87.0369 623.921 484.108
114 0 122.156 12.615 1541 86.4977 623.818 484.654
115 0 126.194 12.6631 1598 85.3548 623.536 481.034
116 1 67.2339 10.7832 725 80.5683 624.368 512.356
117 0 70.1718 11.3721 798 79.6855 624.445 511.044
118 0 71.138 11.2036 797 81.3363 623.866 508.152
119 0 72.0484 10.8816 784 82.8202 623.533 508.474
120 0 76.064 10.6358 809 83.9629 624.219 507.613
121 0 77.1172 11.087 855 83.5965 624.604 506.594
122 0 80.101 11.9349 956 81.546 624.007 505.653
123 0 83.2115 11.2244 934 81.5535 623.465 506.386
124 0 86.141 10.6105 914 83.5361 623.821 504.042
125 0 89.1948 11.5478 1030 79.2825 624.182 501.437
126 0 92.1298 11.8854 1095 79.895 624.342 498.528
127 0 94.0904 11.2551 1059 81.678 623.751 496.536
128 0 98.1411 11.2695 1106 81.9376 624.074 495.767
129 0 104.077 11.3954 1186 81.1956 625.02 494.491
130 1 57.1147 10.4176 595 78.4941 624.203 516.682
131 0 57.1197 10.4517 597 77.2228 623.519 517.734
132 0 59.1218 11.248 665 76.818 623.596 516.189
133 0 63.0551 11.0856 699 75.9528 623.506 514.866
134 0 62.0591 11.2635 699 78.5422 624.501 514.817
135 0 62.0591 11.2151 696 129.124 624.488 514.764
136 0 65.1044 10.1529 661 79.2088 624.215 514.231
137 0 67.0445 10.6347 713 78.1374 624.697 512.603
138 0 68.1319 11.0081 750 76.8307 624.893 511.428
139 0 72.0531 11.1029 800 77.5638 624.445 509.092
140 0 73.0701 11.5916 847 77.843 624.249 508.179
141 0 74.0516 10.8843 806 80.0608 623.489 507.383
142 0 78.0995 11.0116 860 78.9826 623.402 506.596
143 0 83.0916 11.9868 996 76.0562 623.718 506.441
144 0 83.0724 12.0377 1000 77.427 623.038 503.907
145 0 86.138 12.5148 1078 77.3544 624.002 502.264
146 0 87.1868 11.699 1020 79.6216 623.719 502.987
147 0 90.116 12.2842 1107 78.5501 623.863 502.484
148 0 92.1458 12.2198 1126 80.1288 624.297 500.697
149 0 95.1234 11.9214 1134 81.9418 623.007 497.88
150 0 99.0952 12.7151 1260 80.4952 622.986 496.455
151 0 100.139 12.5825 1260 82.2214 623.214 497.49
152 0 104.179 12.9777 1352 84.2951 622.92 493.251
153 0 108.121 13.8364 1496 88.4425 623.098 489.376
154 0 108.079 12.3336 1333 85.5791 621.595 491.749
155 0 112.056 12.5027 1401 85.3134 622.349 491.551
156 0 116.123 12.9174 1500 84.224 622.29 488.297
157 0 122.128 12.4459 1520 81.5151 622.979 487.316
158 0 124.102 11.2488 1396 78.2099 622.65 479.202
159 1 71.2229 11.3587 809 77.9617 622.41 509.214
160 0 73.1836 11.601 849 82.51 621.941 506.727
161 0 77.0912 12.1933 940 71.4957 622.545 507.885
162 0 77.0471 10.9933 847 75.1287 622.267 510.523
163 0 79.0324 11.0334 872 75.8268 622.05 508.586
164 0 81.0711 11.6811 947 74.7973 623.129 508.204
165 0 82.1172 11.2035 920 75.987 623.525 507.3
166 0 86.1465 11.8055 1017 77.0492 623.286 502.489
167 0 90.1057 11.8306 1066 77.0544 623.846 501.481
168 0 92.1155 11.8004 1087 76.8031 623.27 499.598
169 0 96.1407 11.2335 1080 78.5537 623.614 497.534
170 0 100.135 11.5844 1160 79.5552 622.572 496.041
171 0 102.096 12.5666 1283 77.7896 622.426 492.424
172 0 104.132 11.1109 1157 79.9378 623.185 490.116
173 1 58.0703 10.7973 627 83.2376 623.067 514.97
174 0 60.0662 11.2709 677 89.158 622.257 513.285
175 0 62.1372 11.9574 743 83.7631 622.965 511.634
176 0 64.1766 12.2786 788 93.4302 622.405 511.553
177 0 67.1959 11.712 787 93.8844 622.367 510.423
178 0 70.1463 11.7754 826 92.9383 622.396 508.998
179 0 71.1896 12.7266 906 93.2792 621.765 508.592
180 0 75.1407 12.8027 962 89.8867 622.297 508.115
181 0 76.1127 12.4289 946 92.1416 622.209 507.642
182 0 79.1178 12.8416 1016 91.3711 622.076 505.738
183 0 83.0988 12.9725 1078 90.7532 622.735 504.805
184 0 83.0318 12.2965 1021 92.5299 622.76 502.052
185 0 87.0713 12.9664 1129 92.8787 623.523 500.522
186 0 89.0496 12.2965 1095 94.7598 623.255 499.957
187 0 92.0772 12.4569 1147 95.5859 622.633 498.063
188 0 94.0326 13.038 1226 95.1762 622.646 497.194
189 0 100.059 13.0023 1301 96.06 623.028 494.879
190 0 102.09 13.1355 1341 95.7502 623.36 492.999
191 0 104.074 12.8371 1336 96.6183 623.189 492.131
192 1 54.0403 10.6587 576 89.6059 623.37 518.736
193 0 56.0359 11.5105 645 85.6543 621.518 517.268
194 0 57.1261 11.4133 652 84.8972 621.587 513.956
195 0 59.0915 11.3214 669 87.9477 621.694 514.496
196 0 60.0885 11.3499 682 86.3138 622.897 514.784
197 0 60.0579 10.9727 659 87.1381 621.804 514.674
198 0 61.0413 11.1236 679 86.7953 621.872 514.007
199 0 62.1075 11.2708 700 86.14 621.954 512.501
200 0 66.0736 12.138 802 83.8716 622.198 511.439
201 0 68.0968 11.8801 809 83.3535 622.444 511.48
202 0 70.0905 11.5137 807 107.482 622.404 509.176
203 0 72.1088 11.9403 861 106.102 622.314 508.494
204 0 73.1293 11.6916 855 106.174 622.14 505.572
205 0 76.1402 11.8334 901 104.594 622.437 505.204
206 0 80.1 12.5343 1004 101.408 621.82 503.546
207 0 82.1041 12.2649 1007 101.348 622.113 503.442
208 0 83.0998 11.5644 961 101.736 621.613 501.655
209 0 86.0846 11.8953 1024 99.3496 622.062 500.412
210 0 89.119 12.5787 1121 95.7092 621.558 498.271
211 0 91.0963 11.8007 1075 96.7665 621.435 496.987
212 0 94.0545 12.1738 1145 96.3921 621.63 495.517
213 0 95.1393 11.4464 1089 98.4132 621.608 495.566
214 0 98.069 11.5735 1135 97.1427 621.816 494.144
215 0 102.067 11.7276 1197 95.7452 620.951 492.46
216 0 105.13 11.852 1246 95.7777 621.659 490.151
217 0 108.121 10.5992 1146 102.702 621.187 485.927
218 1 55.0688 9.66064 532 95.1429 622.491 515.062
219 0 57.0261 10.539 601 91.4892 622.89 513.208
220 0 59.1658 10.479 620 92.0903 620.894 509.011
221 0 61.1138 10.9632 670 93.5716 620.47 508.861
222 0 63.0504 11.9111 751 95.9374 620.292 510.084
223 0 64.0341 11.5876 742 97.589 620.408 509.807
224 0 66.0541 11.2938 746 98.5885 621.127 508.387
225 0 68.0689 11.8116 804 98.2761 620.515 506.796
226 0 69.124 11.53 797 98.9172 621.072 505.08
227 0 71.0819 12.0706 858 97.7972 620.78 505.08
228 0 71.1142 11.2355 799 101.151 620.839 503.364
229 0 73.0887 11.4108 834 101.542 620.903 501.065
230 0 75.1306 11.3536 853 100.431 620.837 501.896
231 0 79.2055 11.5396 914 98.8129 621.11 500.181
232 0 78.0587 11.3504 886 99.6693 619.754 498.849
233 0 84.0977 11.1656 939 98.524 620.474 498.507
234 0 85.1132 11.5023 979 98.2717 620.381 497.725
235 0 87.0958 11.4012 993 97.6908 620.195 495.275
236 0 90.1779 10.6124 957 98.2581 620.133 493.123
237 0 93.1977 10.7835 1005 96.4368 619.923 493.053
238 1 47.0407 9.24731 435 88.0966 619.89 517.2
239 0 49.0127 9.16088 449 88.0846 619.51 516.439
240 0 49.0295 10.3815 509 90.0452 620.609 464.261
241 0 54.0692 10.9119 590 81.9593 620.634 514.9
242 0 55.0995 10.4357 575 82.4661 622.339 514.788
243 0 54.0555 10.2302 553 83.83 621.837 514.168
244 0 57.0343 10.7479 613 83.3997 621.608 514.235
245 0 60.0457 11.1082 667 82.6147 620.16 513.03
246 0 62.0565 10.7805 669 85.4066 620.649 512.123
247 0 63.0525 11.8156 745 84.5732 619.542 510.412
248 0 64.0197 11.0122 705 87.7759 620.387 510.651
249 0 67.0239 12.1151 812 85.4138 621.084 510.554
250 0 69.0307 11.5746 799 87.4931 621.626 508.62
251 0 72.0483 11.8254 852 88.3016 622.416 508.136
252 0 73.0642 11.8115 863 89.8355 620.992 506.002
253 0 72.0548 11.7688 848 93.513 622.871 504.277
254 0 77.1148 12.2934 948 91.9146 621.869 503.936
255 0 79.1216 12.247 969 93.0433 622.126 503.156
256 0 82.0635 12.8437 1054 93.4943 622.037 499.888
257 0 82.0716 12.4647 1023 95.9629 621.975 500.276
258 0 84.1247 12.5766 1058 96.9102 621.756 499.59
259 0 88.0821 11.8185 1041 99.2767 621.735 498.652
260 0 90.129 11.772 1061 97.0688 621.688 497.965
261 0 92.163 11.9354 1100 97.1064 621.141 497.458
262 0 92.1663 11.4467 1055 124.07 621.211 496.299
263 1 49.1112 10.0384 493 92.5071 622.369 518.907
264 0 51.1643 10.7888 552 90.3967 622.12 517.52
265 0 55.089 11.5449 636 89.4057 623.535 516.503
266 0 55.0263 11.5218 634 96.2208 622.334 516.801
267 0 56.0649 11.2726 632 93.3924 620.18 514.934
268 0 57.0214 11.5921 661 92.4644 620.091 514.62
269 0 58.0249 11.0814 643 95.703 621.306 514.306
270 0 59.0823 12.0679 713 96.324 621.453 513.616
271 0 62.0495 11.8454 735 95.9401 620.151 512.003
272 0 64.0273 12.4478 797 95.2585 620.69 512.227
273 0 65.0951 12.1054 788 96.4657 621.188 511.901
274 0 66.0427 11.9317 788 96.0241 620.041 510.263
275 0 67.0634 11.1536 748 98.6805 621.779 512.68
276 0 70.0461 11.0927 777 98.1068 622.456 511.292
277 0 71.0482 11.0207 783 100.054 621.418 510.968
278 0 74.0953 11.4042 845 98.6024 622.497 509.447
279 0 76.1001 11.4849 874 98.3467 621.859 508.018
280 0 79.0861 11.2156 887 99.1894 622.67 508.381
281 0 81.1068 11.7869 956 93.6935 622.009 507.29
282 0 83.1356 12.2451 1018 94.6778 622.536 504.414
283 0 86.1335 11.4125 983 97.5636 621.976 505.655
284 1 48.0494 10.8638 522 148.964 621.785 523.163
285 0 48.026 11.5771 556 101.324 622.876 520.664
286 0 50.0667 12.4234 622 90.9727 622.973 520.666
287 0 52.0344 11.3963 593 90.9376 620.59 521.199
288 0 53.0421 11.8397 628 87.5366 619.46 519.632
289 0 54.0477 11.4899 621 91.6715 622.349 518.277
290 0 52.0431 10.107 526 94.0456 621.981 519.07
291 0 53.0352 10.8419 575 89.8296 621.186 519.788
292 0 54.0832 10.5578 571 91.2627 619.089 519.419
293 0 57.0798 10.5291 601 89.7072 619.516 517.86
294 0 59.0241 10.6567 629 89.0588 619.227 516.83
295 0 59.0651 11.1403 658 88.9453 619.251 515.474
296 0 62.0375 10.9772 681 89.7577 619.433 515.739
297 0 62.0649 11.0368 685 90.5285 619.394 514.549
298 0 65.0725 10.8187 704 90.2912 619.754 513.024
299 0 67.083 10.7181 719 92.3352 619.517 513.74
300 0 71.0588 11.3568 807 90.4808 619.316 510.817
301 0 72.0798 11.2098 808 92.2537 619.219 509.814
302 0 75.0629 11.0041 826 92.0182 618.512 509.303
303 0 75.0567 10.552 792 93.774 619.102 508.895
304 0 79.0499 10.9678 867 94.271 620.055 506.037
305 0 82.0523 11.1392 914 93.5383 619.383 504.115
306 0 84.0687 11.4668 964 93.1546 619.807 504.177
307 0 84.0395 10.9948 924 95.724 619.471 503.676
308 0 89.109 11.3008 1007 94.4707 619.75 503.08
309 0 92.0692 10.6985 985 94.7706 619.65 502.009
310 1 50.0179 11.3559 568 92.3539 618.949 523.125
311 0 52.0192 12.0532 627 89.8549 619.576 522.539
312 0 53.0121 12.3557 655 86.0794 619.597 521.093
313 0 55.0303 11.7572 647 87.5518 619.998 519.813
314 0 54.0431 11.9719 647 88.0062 619.236 519.926
315 0 57.0405 11.9564 682 87.2859 620.132 518.673
316 0 58.0322 11.9072 691 87.2562 619.757 518.958
317 0 58.0088 12.0671 700 87.0414 619.891 518.621
318 0 62.0288 11.9299 740 86.2757 620.703 517.278
319 0 64.0352 12.415 795 86.2906 619.52 517.624
320 0 65.1034 11.4894 748 88.3155 619.238 516.959
321 0 66.0691 11.821 781 87.5326 619.68 515.645
322 0 69.063 12.1773 841 85.9453 619.439 514.051
323 0 72.0312 12.4807 899 85.0957 619.216 513.545
324 0 71.0736 12.5363 891 85.9484 619.16 511.946
325 0 76.0792 13.1311 999 83.5866 619.638 512.471
326 0 78.0955 12.5103 977 85.7912 618.978 511.224
327 0 83.0623 12.906 1072 83.7882 619.373 510.877
328 0 84.1048 13.2216 1112 84.7221 618.906 508.895
329 0 87.1363 12.8534 1120 85.0545 620.081 507.549
330 0 90.133 13.1805 1188 84.8704 618.962 506.381
331 1 48.0113 11.289 542 89.4557 620.356 528.705
332 0 50.0578 11.3069 566 94.295 620.337 526.316
333 0 51.0603 12.1229 619 93.2294 620.549 525.315
334 0 51.0547 13.0448 666 85.8994 618.368 525.731
335 0 52.0496 12.4689 649 86.8059 619.091 524.496
336 0 53.0341 12.3128 653 87.3752 619.263 522.893
337 0 55.0315 11.8296 651 87.5407 618.794 521.796
338 0 54.0456 11.6013 627 86.7512 618.139 520.775
339 0 57.0808 12.4735 712 83.3357 618.156 521.154
340 0 59.0589 11.8018 697 82.6628 617.603 519.904
341 0 59.0821 12.4403 735 82.7374 617.55 519.044
342 0 63.0703 12.0342 759 81.274 618.08 519.39
343 0 64.0825 12.4371 797 80.6625 617.893 515.523
344 0 68.111 12.3769 843 80.8327 617.23 516.378
345 0 69.121 11.7041 809 80.8739 617.71 515.053
346 0 72.0794 11.6816 842 80.7957 617.849 513.169
347 0 75.0586 11.964 898 87.2205 616.85 511.488
348 0 76.189 12.4034 945 89.2423 616.607 510.746
349 0 78.2198 12.516 979 88.3585 616.462 509.617
350 0 80.1099 11.0973 889 87.6828 617.177 507.754
351 0 84.1197 11.02 927 87.6063 616.969 505.251
352 1 42.017 10.2102 429 82.6504 616.699 527.769
353 0 43.0114 10.4624 450 83.0733 616.998 527.209
354 0 44.0419 11.3074 498 76.9096 617.675 526.223
355 0 45.1411 11.0321 498 77.992 618.53 525.086
356 0 45.0385 10.9018 491 80.3279 618.059 525.882
357 0 47.0236 11.675 549 79.2842 618.658 525.182
358 0 49.0416 11.0926 544 80.7831 617.757 524.79
359 0 50.0608 11.4461 573 81.4468 618.529 523.531
360 0 50.0614 11.446 573 115.106 619.529 523.531
361 0 54.0318 11.6228 628 81.8248 617.274 521.326
362 0 55.0589 12.0961 666 81.2267 618.727 521.251
363 0 55.0602 11.8597 653 82.1041 617.94 520.744
364 0 59.0779 12.5597 742 80.6456 618.96 520.384
365 0 60.0668 12.5527 754 81.008 618.886 520.223
366 0 62.0671 12.6798 787 82.0229 618.832 519.053
367 0 63.0629 13.3835 844 82.16 618.123 518.794
368 0 66.0934 12.7093 840 83.9405 617.752 516.365
369 0 67.0526 13.1986 885 84.2271 618.328 517.797
370 0 69.0896 13.041 901 87.2764 618.264 514.434
371 0 72.1464 12.7518 920 88.4761 618.468 513.173
372 0 72.0591 12.2538 883 92.1393 618.292 512.493
373 0 74.0752 12.2443 907 93.8445 618.94 512.572
374 0 78.0915 12.8311 1002 91.7625 618.419 510.724
375 0 80.0361 12.3944 992 92.0696 618.96 508.03
376 0 82.0787 12.3662 1015 92.7369 618.597 507.238
377 0 87.1002 12.8128 1116 90.5108 618.321 507.346
378 0 88.0783 12.0348 1060 91.7236 619.293 506.655
379 0 91.0692 11.7164 1067 91.0815 617.888 504.714
380 1 51.0254 11.7784 601 88.1847 618.423 524.518
381 0 49.0496 11.7024 574 92.0523 619.017 523.767
382 0 52.0691 12.9059 672 89.7277 619.281 523.06
383 0 52.0463 13.0461 679 89.6127 619.68 522.962
384 0 55.1678 12.6523 698 90.5559 619.533 522.337
385 0 57.0746 13.3509 762 88.0984 619.171 521.406
386 0 57.0464 13.0946 747 90.8809 619.471 520.703
387 0 60.1174 13.2241 795 92.1799 618.862 518.854
388 0 61.0916 12.7841 781 91.6927 619.73 519.279
389 0 63.0952 13.2657 837 89.9176 620.303 516.949
390 0 65.1187 13.0838 852 90.5962 620.241 516.523
391 0 68.0642 13.3697 910 90.8176 620.234 513.604
392 0 68.0821 13.0431 888 92.1757 620.069 513.546
393 0 72.1151 14.1718 1022 88.0851 619.735 510.708
394 0 75.0871 13.1447 987 89.5147 620.186 510.894
395 0 76.0508 13.4778 1025 89.2439 620.168 508.928
396 0 78.0764 13.4356 1049 90.7283 620.118 507.837
397 0 79.1157 13.4613 1065 90.3277 619.8 506.516
398 0 81.0884 13.1955 1070 90.9449 620.16 507.632
399 0 83.0642 13.1465 1092 92.7317 620.217 506.461
400 0 86.1121 13.3547 1150 92.3287 620.17 504.509
401 0 87.104 12.95 1128 91.7252 620.556 502.613
402 0 91.0406 13.2029 1202 91.6947 619.951 502.05
403 0 92.066 12.5888 1159 94.931 620.292 502.092
404 0 95.1969 13.7294 1307 94.2563 620.247 498.775
405 0 98.1246 13.1669 1292 94 620.415 499.989
406 0 104.197 13.3785 1394 92.8257 619.269 498.56
407 0 105.132 12.3464 1298 96.1518 619.543 495.345
408 0 107.171 12.5314 1343 96.2576 618.947 494.442
409 0 111.182 12.5021 1390 96.1978 620.083 490.501
410 0 115.12 12.7606 1469 95.7332 619.801 487.372
411 0 118.107 12.8358 1516 96.2414 619.667 486.892
412 0 123.136 12.8395 1581 95.1879 619.359 483.844
413 0 127.069 12.7647 1622 95.9809 619.598 481.859
414 0 131.154 13.6633 1792 94.8666 618.894 480.224
415 0 134.163 13.4389 1803 98.0477 618.721 476.941
416 0 140.13 13.8157 1936 96.1214 618.897 476.65
417 0 146.156 13.3146 1946 99.4275 618.584 472.182
418 1 76.1121 11.4174 869 98.5075 619.606 505.104
419 0 75.1225 11.3548 853 94.9531 619.396 501.878
420 0 78.0598 12.247 956 96.0471 619.312 502.77
421 0 84.1081 13.3281 1121 97.3372 618.217 503.432
422 0 89.1088 12.6475 1127 98.9698 618.104 504.82
423 0 90.1363 12.8805 1161 100.258 618.432 501.73
424 0 92.104 13.311 1226 98.0791 618.325 502.157
425 0 94.0896 12.8282 1207 99.604 617.959 499.992
426 0 98.1621 12.5914 1236 98.7055 617.752 500.163
427 0 98.1621 12.5812 1235 157.996 617.741 500.092
428 0 102.116 11.9962 1225 100.256 619.283 493.324
429 0 103.116 11.5113 1187 99.5088 619.256 493.672
430 0 110.194 13.6577 1505 92.4671 618.802 492.45
431 0 111.222 12.965 1442 93.0007 619.012 491.798
432 0 118.238 13.3121 1574 92.3011 618.395 488.495
433 0 119.142 12.674 1510 93.4344 618.724 487.2
434 0 126.218 13.136 1658 90.9276 618.679 484.339
435 0 131.271 13.3007 1746 89.0441 618.694 484.257
436 0 135.336 12.4578 1686 89.3244 619.48 480.804
437 0 137.31 13.1455 1805 84.374 618.741 477.628
438 0 142.47 12.9641 1847 85.0211 618.761 474.929
439 1 73.08 10.4269 762 76.706 619.29 510.092
440 0 77.0441 11.1624 860 77.1884 619.557 508.74
441 0 80.0734 11.989 960 76.9708 619.229 508.236
442 0 82.0598 11.7963 968 79.4514 619.644 506.128
443 0 85.1412 12.2267 1041 79.9568 618.868 505.918
444 0 88.0802 12.6589 1115 80.357 619.224 504.978
445 0 92.1705 11.6523 1074 87.1136 618.756 501.634
446 0 95.1101 11.8705 1129 86.8565 619.586 501.183
447 0 98.2778 11.9966 1179 87.0492 620.229 497.752
448 0 100.126 11.3457 1136 87.8644 619.739 498.771
449 0 104.177 12.5268 1305 85.6559 619.425 497.738
450 0 106.092 12.2912 1304 87.4946 618.997 494.653
451 0 108.351 12.1549 1317 87.6408 619.285 493.532
452 0 111.237 11.6419 1295 89.9398 619.12 491.434
453 0 116.239 12.8185 1490 87.0215 618.993 489.195
454 0 120.187 12.6886 1525 87.0839 619.227 487.308
455 0 121.296 11.5668 1403 89.5011 618.795 485.687
456 1 66.1852 10.1987 675 86.4993 619.96 514.468
457 0 68.1925 10.661 727 88.2779 619.968 512.728
458 0 69.229 11.397 789 88.1952 618.99 507.285
459 0 70.1372 11.8197 829 87.5018 619.09 506.936
460 0 73.09 12.3683 904 85.6427 619.906 505.465
461 0 78.0852 10.7447 839 85.9249 619.549 504.763
462 0 74.1573 11.3947 845 85.329 619.924 498.856
463 0 72.1483 11.0328 796 139.32 620.921 497.839
464 0 78.1795 11.7934 922 86.9544 619.771 496.321
465 0 80.1735 12.448 998 85.6503 619.601 494.321
466 0 80.2284 12.1653 976 87.8842 619.616 492.09
467 0 84.1912 11.8421 997 88.3882 619.331 491.805
468 0 90.0783 12.3115 1109 88.8458 619.197 496.82
469 0 91.0843 12.1536 1107 91.2972 619.176 494.682
470 0 94.0498 12.2169 1149 90.9495 619.33 492.991
471 0 96.1473 12.3768 1190 91.5059 619.491 492.57
472 0 100.047 12.784 1279 90.731 618.582 491.694
473 0 101.107 11.8884 1202 95.1364 619.419 490.661
474 0 106.144 12.7845 1357 90.9506 618.948 489.67
475 0 111.09 12.5214 1391 91.5557 619.084 487.321
476 0 114.141 11.7662 1343 90.3671 618.314 485.601
477 1 68.1219 10.3931 708 89.815 619.27 510.477
478 0 71.0958 11.6885 831 88.1625 619.23 508.087
479 0 72.1357 12.3794 893 87.3068 619.111 507.439
480 0 76.1361 12.0574 918 92.2549 616.999 504.511
481 0 79.1431 11.8267 936 92.6581 616.378 503.88
482 0 81.114 11.7736 955 90.9089 617.327 505.287
483 0 85.1466 12.4961 1064 90.2237 617.2 503.428
484 0 87.1099 12.2259 1065 91.7127 617.852 502.49
485 0 90.0704 12.2793 1106 90.4801 617.989 501.872
486 0 92.1038 12.0408 1109 92.7024 617.596 500.493
487 0 96.0666 12.3144 1183 92.2029 615.512 499.4
488 0 98.0734 12.8067 1256 91.7357 616.519 497.253
489 0 100.12 12.3352 1235 93.7231 617.219 497.148
490 0 102.115 11.5066 1175 97.8102 617.368 495.24
491 0 108.152 12.4824 1350 94.2422 617.055 494.569
492 1 58.0165 11.445 664 88.4217 617.069 518.324
493 0 58.0148 11.6867 678 85.6667 617.586 517.845
494 0 61.0186 11.7014 714 82.9076 618.532 517.392
495 0 66.0192 11.3452 749 94.3351 616.781 513.632
496 0 66.0434 11.6439 769 93.948 616.912 511.343
497 0 69.0273 11.72 809 92.7726 616.341 512.382
498 0 71.0467 11.232 798 94.1804 616.911 510.363
499 0 73.0448 11.801 862 95.4513 617.041 510.102
500 0 74.0497 11.2897 836 96.5766 617.059 507.522
501 0 76.0458 11.9007 905 94.5204 616.263 507.954
502 0 78.0639 11.529 900 94.9656 616.584 507.459
503 0 81.0451 12.3635 1002 92.49 615.746 505.067
504 0 83.0727 11.6645 969 92.1961 617.411 505.378
505 0 85.0673 11.4615 975 92.5764 617.119 502.352
506 0 87.0745 11.1284 969 92.9009 617.235 502.323
507 0 91.0769 12.3412 1124 87.855 616.025 499.722
508 0 90.2722 11.1552 1007 92.422 616.764 498.14
509 0 95.166 11.5587 1100 90.2009 616.571 496.385
510 0 98.2114 11.8418 1163 89.4987 616.804 496.02
511 0 100.235 12.2313 1226 88.177 616.661 495.619
512 0 102.081 11.9904 1224 88.2565 617.248 494.694
513 0 105.121 11.6056 1220 89.0549 617.001 493.618
514 0 108.098 11.6561 1260 82.2619 616.748 493.229
515 0 109.103 11.9154 1300 81.9531 617.843 492.194
516 0 111.171 11.5318 1282 83.908 617.874 486.711
517 0 114.094 11.2451 1283 84.4217 616.006 488.72
518 0 118.097 11.66 1377 82.4118 616.978 485.648
519 0 122.177 11.1396 1361 83.4688 616.808 482.184
520 0 125.112 11.2299 1405 82.7246 616.926 482.288
521 0 129.149 11.2041 1447 81.8777 616.606 478.915
522 1 66.0468 10.3109 681 82.6035 617.571 509.841
523 0 69.0473 10.4132 719 82.8637 618.071 508.868
524 0 73.0758 10.7833 788 82.1371 615.697 508.881
525 0 73.1118 10.8601 794 82.8804 616.914 506.961
526 0 76.1089 12.1536 925 82.36 618.029 505.499
527 0 79.0578 11.9659 946 83.4207 617.567 503.751
528 0 81.1226 11.6367 944 84.4036 617.668 504.654
529 0 85.1329 11.6759 994 87.4286 617.821 504.414
530 0 88.1771 12.4182 1095 85.8785 618.147 500.89
531 0 90.1713 11.456 1033 87.5586 617.548 500.288
532 0 91.2025 11.7212 1069 88.1815 616.831 497.402
533 0 94.1425 12.1412 1143 87.2126 617.557 497.22
534 0 96.138 11.4419 1100 87.01 617.302 495.92
535 0 101.334 12.0788 1224 87.9502 616.618 495.647
536 0 104.211 12.4171 1294 86.8215 615.464 494.032
537 0 105.357 12.32 1298 88.9884 616.371 490.901
538 0 109.298 12.4614 1362 88.7394 616.203 490.764
539 0 113.257 12.1846 1380 90.0739 616.85 486.625
540 0 117.363 12.1504 1426 89.7356 616.703 485.227
541 0 121.198 12.1867 1477 87.367 616.274 483.718
542 0 124.115 11.9003 1477 82.4401 617.022 484.91
543 0 130.147 11.3948 1483 84.1767 616.724 481.544
544 1 75.1339 9.66275 726 84.0165 616.97 509.667
545 0 79.1048 10.4292 825 84.3079 617.308 508.651
546 0 82.0631 12.137 996 85.4297 617.047 508.402
547 0 82.192 11.169 918 89.8834 616.089 506.874
548 0 83.2895 10.4575 871 84.3467 617.169 508.837
549 0 86.2563 11.118 959 85.2753 616.165 506.672
550 0 88.1577 10.9009 961 88.0697 617.218 505.858
551 0 91.174 10.8364 988 90.0273 616.632 504.685
552 0 96.0994 11.3945 1095 90.2448 618.053 502.747
553 0 101.072 12.2586 1239 89.9508 617.755 501.188
554 0 102.097 11.9495 1220 91.4402 617.936 499.764
555 0 103.154 11.4877 1185 94.5899 616.396 500.565
556 0 106.135 11.2122 1190 98.1882 616.934 497.064
557 0 112.131 11.8789 1332 96.9002 616.857 494.526
558 0 116.082 12.5342 1455 94.5643 617.178 493.012
559 0 121.17 12.9818 1573 92.328 617.248 489.603
560 0 123.145 12.1482 1496 91.6517 616.767 487.98
561 1 67.0766 10.5849 710 95.5408 618.089 517.058
562 0 69.0995 11.5051 795 93.5585 618.941 515.678
563 0 72.1553 11.4198 824 97.1808 618.805 514.336
564 0 74.0544 11.8291 876 94.1507 615.606 513.635
565 0 76.0534 12.2414 931 95.1472 615.162 513.296
566 0 77.0482 12.1742 938 97.0906 615.257 511.647
567 0 80.0621 12.4403 996 96.4578 615.979 510.991
568 0 83.0425 12.5117 1039 96.5602 615.471 509.733
569 0 86.1397 13.2575 1142 96.3056 616.51 508.199
570 0 88.1588 12.6363 1114 98.307 616.738 506.16
571 0 90.1453 13.1676 1187 97.9781 616.554 505.594
572 0 93.1266 13.079 1218 97.844 616.571 504.9
573 0 95.1468 13.3478 1270 96.5291 616.652 503.003
574 0 99.1597 13.7556 1364 97.5799 616.32 501.469
575 0 98.225 13.6625 1342 99.8346 615.737 501.035
576 0 103.16 13.7262 1416 98.4266 615.536 499.141
577 0 105.177 13.2348 1392 98.9346 615.375 499.356
578 0 110.258 13.6861 1509 99.662 616.158 496.178
579 0 113.211 13.4439 1522 99.5072 615.867 494.966
580 0 114.282 12.6791 1449 99.2139 615.262 492.731
581 0 120.217 12.8102 1540 96.2604 614.575 490.532
582 1 61.0583 10.9895 671 86.0536 614.471 521.544
583 0 62.1383 11.0721 688 83.2863 615.429 519.359
584 0 64.1187 11.5255 739 82.4912 616.012 515.582
585 0 66.0565 11.1268 735 75.9007 615.118 516.846
586 0 68.0798 11.8244 805 75.0273 615.446 516.468
587 0 72.1014 11.4145 823 74.0474 615.644 516.057
588 0 71.1189 11.3894 810 75.8556 615.246 514.33
589 0 75.0716 12.0418 904 74.1173 615.367 513.822
590 0 76.0799 11.3433 863 76.0406 615.716 511.81
591 0 76.1089 11.6149 884 76.1742 615.8 512.821
592 0 80.1307 11.9804 960 75.1979 615.662 510.671
593 0 83.0539 12.0043 997 75.7242 615.16 509.149
594 0 86.0892 11.9179 1026 77.0088 614.375 509.019
595 0 88.0802 12.1821 1073 78.6142 615.449 504.773
596 0 90.0598 11.9476 1076 80.0214 615.362 504.411
597 0 92.1098 10.6395 980 83.7653 615.974 501.796
598 0 96.1696 11.5629 1112 87.964 616.392 501.929
599 0 98.1938 11.1005 1090 84.244 616.001 497.134
600 0 100.137 10.5256 1054 86.8634 615.847 496.57
601 1 50.0682 8.58828 430 79.6651 616.633 522.063
602 0 54.0161 9.84891 532 76.6128 616.376 521.036
603 0 57.0419 10.7114 611 76.6138 616.084 520.491
604 0 60.0568 11.972 719 76.9917 615.12 521.819
605 0 63.1206 11.7711 743 77.8991 616.79 521.191
606 0 64.1104 11.1838 717 79.7252 616.075 519.831
607 0 66.1133 11.5862 766 78.9648 616.595 519.255
608 0 66.1422 11.8381 783 79.8378 616.027 517.64
609 0 69.1188 12.0662 834 79.9329 616.831 517.559
610 0 69.1188 12.0373 832 135.606 617.844 517.566
611 0 73.0837 12.3831 905 80.495 616.128 516.129
612 0 75.105 12.1963 916 81.5066 615.81 513.175
613 0 79.0739 12.3176 974 80.3593 615.988 514.213
614 0 81.0724 12.4457 1009 79.669 616.335 511.555
615 0 85.184 12.6197 1075 79.2902 616.04 509.554
616 0 88.0842 12.4994 1101 79.5913 616.197 508.458
617 0 91.0921 13.2174 1204 78.1512 615.272 507.61
618 0 93.0568 12.0034 1117 81.2954 616.197 504.957
619 0 96.0516 12.2747 1179 81.0407 616.727 503.186
620 0 101.14 12.4284 1257 91.2458 616.632 501.065
621 1 49.1051 9.75459 479 80.2798 614.954 526.1
622 0 52.0655 10.2371 533 78.3077 615.749 525.377
623 0 52.0666 11.3316 590 80.5102 615.266 526.027
624 0 55.0834 11.8548 653 78.366 615.761 525.052
625 0 57.1202 11.9747 684 78.5526 615.974 524.518
626 0 59.0715 12.9843 767 78.6962 615.991 521.04
627 0 61.1865 11.9471 731 81.8659 615.934 521.888
628 0 62.1194 12.2023 758 82.8113 615.516 520.237
629 0 63.075 12.2552 773 83.8771 615.308 518.692
630 0 64.1272 12.4752 800 85.74 616.189 519
631 0 66.1189 11.9633 791 100.31 616.64 517.522
632 0 69.2809 13.0483 904 98.7201 616.061 515.231
633 0 73.2712 13.1839 966 98.6791 615.388 514.975
634 0 74.2831 13.0312 968 99.6467 616.091 513.996
635 0 77.2022 13.2898 1026 102.747 616.681 512.062
636 0 77.1695 12.9196 997 104.725 616.391 510.46
637 0 81.2455 13.2438 1076 102.204 616.805 509.479
638 0 84.3127 13.1416 1108 101.627 616.458 507.858
639 0 86.294 13.1179 1132 102.784 616.351 505.699
640 0 89.0736 12.4392 1108 97.8556 615.69 505.63
641 0 91.0814 11.2207 1022 96.7319 617.62 505.244
642 1 45.0647 10.2963 464 92.6272 617.614 529.218
643 0 44.0784 11.1619 492 91.6301 618.335 528.39
644 0 48.1259 11.1582 537 90.2179 618.188 524.879
645 0 47.2417 11.7693 556 91.2338 618.32 523.878
646 0 51.0715 12.0224 614 91.6954 616.104 525.166
647 0 51.0956 12.2516 626 93.0351 616.537 523.358
648 0 53.1076 12.6347 671 92.7079 616.428 522.538
649 0 54.1214 12.4535 674 94.1024 616.384 521.41
650 0 53.0911 12.1301 644 95.8121 616.054 520.385
651 0 55.109 12.3392 680 95.9809 615.563 520.121
652 0 58.0901 12.3257 716 95.7025 616.462 519.418
653 0 59.0884 12.9806 767 93.8735 616.198 518.408
654 0 62.1128 12.4773 775 95.7948 616.816 516.959
655 0 61.0434 11.8604 724 98.9019 616.503 519.541
656 0 62.0877 11.4838 713 101.797 615.69 516.651
657 0 66.0784 13.3175 880 95.9 616.951 515.999
658 0 66.0716 12.2594 810 101.372 616.711 514.23
659 0 71.0793 12.8589 914 99.1116 616.238 513.561
660 0 70.0401 11.9646 838 102.126 616.511 512.767
661 0 74.0427 12.5738 931 101.324 615.907 510.465
662 0 77.0698 12.4822 962 101.535 616.595 510.239
663 0 79.1471 12.3694 979 97.8539 616.907 510.718
664 0 83.2407 12.3377 1027 98.6456 617.432 506.572
665 0 86.2234 12.6996 1095 98.0301 617.584 504.837
666 0 87.3431 12.8573 1123 99.187 617.978 502.256
667 1 47.0081 11.2746 530 102.862 616.876 522.781
668 0 48.101 11.3095 544 102.353 616.195 521.129
669 0 46.0229 9.95157 458 88.3515 617.535 520.576
670 0 47.0289 11.5036 541 100.211 617.166 525.235
671 0 50.0148 11.9165 596 97.3809 616.789 524.643
672 0 49.0325 11.3802 558 101.392 617.484 525.235
673 0 51.033 11.5416 589 101.759 616.482 523.239
674 0 53.0133 11.7895 625 101.594 617.445 521.643
675 0 54.04 11.695 632 102.201 616.585 521.5
676 0 57.036 12.3782 706 99.7493 616.983 520.715
677 0 58.0658 11.797 685 99.3372 617.139 520.696
678 0 60.0361 11.3598 682 100.99 617.35 519.018
679 0 63.0209 11.6469 734 101.41 617.074 518.311
680 0 65.0439 12.3916 806 99.7246 617.047 516.574
681 0 67.0335 12.3222 826 100.401 617.025 515.757
682 0 71.0332 12.9235 918 98.6525 616.703 514.443
683 0 71.0259 13.0797 929 100.306 617.392 512.786
684 0 74.0244 12.4689 923 99.7389 617.469 512.168
685 0 78.0486 12.7228 993 98.2276 618.053 510.155
686 0 80.0689 12.5142 1002 96.9331 617.823 509.919
687 0 83.0377 12.2595 1018 98.332 617.446 509.464
688 0 87.0809 12.8501 1119 95.2797 617.802 507.852
689 1 44.0404 11.6711 514 100 617.967 528.245
690 0 46.0341 12.1866 561 99.0178 617.52 527.654
691 0 47.0571 12.0279 566 93.6184 616.673 526.892
692 0 46.0625 12.9824 598 95.1572 617.547 526.846
693 0 48.0213 12.2446 588 93.0391 617.136 527.187
694 0 47.0434 12.0314 566 96.1396 618.368 528.385
695 0 46.0669 11.8957 548 98.6588 616.69 526.106
696 0 51.0321 12.208 623 95.4494 617.101 525.953
697 0 50.0295 11.6131 581 97.9191 616.399 526.594
698 0 52.0493 12.5266 652 94.4693 616.451 525.617
699 0 54.0571 11.8763 642 92.6246 616.922 525.578
700 0 53.0143 12.1477 644 93.4022 616.644 523.916
701 0 56.0282 12.0297 674 94.273 617.331 525.766
702 0 59.0168 12.166 718 93.8482 616.914 523.989
703 0 59.0396 12.4154 733 94.8813 616.768 522.798
704 0 62.0745 12.7266 790 92.7443 616.933 522.558
705 0 62.0364 12.0897 750 95.548 617.209 521.9
706 0 65.0322 12.3016 800 96.92 617.034 521.504
707 0 66.0826 12.8022 846 96.7364 616.886 521.167
708 0 70.0866 12.9839 910 96.9714 616.553 519.975
709 0 72.0448 12.6449 911 96.9056 616.022 517.965
710 0 76.0589 13.2266 1006 95.4175 616.099 516.935
711 0 78.1143 13.7491 1074 94.5158 616.42 516.812
712 0 79.0767 13.5185 1069 96.9457 616.472 515.434
713 0 81.06 13.4592 1091 95.9395 615.811 515.104
714 0 84.0681 13.9887 1176 94.5034 615.991 513.856
715 0 88.0711 13.8411 1219 93.7752 616.622 512.147
716 0 90.0688 14.1225 1272 93.5928 616.763 509.875
717 0 92.1399 13.7834 1270 95.1228 616.198 509.054
718 0 96.0681 14.3024 1374 96.0946 615.964 506.175
719 0 98.132 14.0423 1378 98.3229 616.034 505.525
720 0 97.0564 12.7658 1239 103.853 616.241 507.671
721 0 102.173 12.4495 1272 103.46 615.892 507.259
722 0 106.072 13.2174 1402 102.709 616.151 504.999
723 0 106.111 13.4576 1428 104.681 616.302 503.921
724 0 111.097 13.2497 1472 103.029 616.552 501.658
725 0 113.102 12.776 1445 103.144 616.886 501.264
726 0 116.169 12.2666 1425 105.731 616.171 500.147
727 0 121.183 13.2444 1605 104.286 616.006 496.173
728 0 124.199 11.9244 1481 103.554 616.028 491.122
729 0 127.344 11.3786 1449 104.226 615.92 494.211
730 0 132.139 12.2447 1618 102.984 616.48 490.327
731 0 135.201 12.1227 1639 104.452 615.977 489.641
732 0 138.328 12.0294 1664 105.421 616.778 485.227
733 0 143.257 12.5718 1801 104.828 616.268 486.423
734 0 148.243 12.493 1852 103.776 617.082 482.408
735 0 151.313 12.3783 1873 105.605 616.96 479.282
736 0 154.315 12.1634 1877 107.761 616.78 478.181
737 0 158.294 12.6284 1999 108.561 616.802 474.39
738 0 162.228 13.179 2138 108.394 616.495 476.56
739 0 165.209 13.0925 2163 110.431 616.916 473.591
740 0 171.289 13.0949 2243 111.129 617 472.563
741 0 172.343 12.9393 2230 112.962 617.054 467.213
742 0 180.305 12.3014 2218 115.637 617.019 468.486
743 0 182.242 13.5095 2462 113.276 616.202 465.976
744 0 188.251 12.6214 2376 114.093 615.944 464.577
745 0 196.236 14.1259 2772 117.05 616.664 455.712
746 0 201.564 14.4718 2917 116.381 616.86 451.763
747 0 207.568 14.2604 2960 117.64 616.893 449.82
748 0 214.451 13.7654 2952 113.948 616.563 446.544
749 1 163.533 12.6947 2076 112.583 616.373 473.205
750 0 169.478 13.1935 2236 112.374 616.531 467.843
751 1 58.2794 12.0283 701 106.181 617.763 520.776
752 0 59.3282 11.6976 694 107.912 617.625 519.849
753 0 62.3097 12.2453 763 107.861 617.636 520.24
754 0 63.2657 12.566 795 109.123 617.697 516.538
755 0 66.4127 13.1752 875 109.382 617.903 516.523
756 0 67.2394 12.9388 870 115.598 617.564 514.564
757 0 69.4632 12.7549 886 116.884 617.63 513.483
758 0 70.3304 12.3702 870 119.276 617.884 512.538
759 0 71.4131 12.4767 891 123.169 617.828 512.744
760 0 74.3847 12.7983 952 121.022 617.831 512.881
761 0 78.5114 12.8771 1011 119.632 617.31 509.93
762 0 79.4604 13.8056 1097 115.697 618.272 508.175
763 0 82.3712 12.8322 1057 120.225 618.061 508.096
764 0 84.4799 13.5299 1143 119.065 618.117 505.684
765 0 87.483 12.7453 1115 120.796 617.886 506.336
766 0 87.4889 13.5217 1183 120.17 617.802 505.979
767 0 91.4231 13.5852 1242 118.978 618.22 505.74
768 0 93.3644 13.7311 1282 120.096 617.935 503.012
769 0 96.4428 13.2617 1279 122.883 617.124 501.462
770 0 97.3995 13.4087 1306 122.928 617.613 499.724
771 0 101.248 13.4323 1360 121.934 617.624 497.085
772 1 55.3031 11.012 609 117.456 618.08 518.936
773 0 58.2765 11.8401 690 120.432 618.38 516.974
774 0 59.1978 12.1288 718 121.405 618.364 516.32
775 0 61.2662 12.0621 739 122.51 618.245 515.373
776 0 64.3978 12.0967 779 121.268 617.782 515.211
777 0 63.3341 12.1262 768 123.105 617.961 514.79
778 0 69.405 13.0826 908 116.988 617.567 513.677
779 0 70.3599 12.7061 894 118.462 617.974 513.874
780 0 72.5372 12.2971 892 120.76 617.933 511.342
781 0 74.4216 13.0204 969 117.708 618.283 510.667
782 0 77.3921 12.637 978 119.31 618.294 508.566
783 0 76.3162 13.051 996 121.884 618.45 506.799
784 0 80.2948 12.89 1035 119.876 618.392 506.564
785 0 82.2629 13.2624 1091 119.916 618.027 505.84
786 0 84.291 12.8128 1080 121.171 618.917 503.961
787 0 85.3662 13.2839 1134 121.399 618.875 503.579
788 0 88.3767 13.9743 1235 119.276 619.168 502.698
789 0 93.3819 13.8571 1294 119.036 618.379 501.523
790 0 92.3318 13.6031 1256 122.193 619.284 499.728
791 0 96.3491 13.7625 1326 121.342 619.457 499.555
792 1 50.2191 11.1312 559 122.365 620.021 522.2
793 0 52.2129 11.0126 575 124.417 619.496 520.073
794 0 55.1729 11.5818 639 126.444 620.515 518.648
795 0 55.1993 11.848 654 126.439 619.665 516.428
796 0 56.1537 11.4863 645 127.636 619.763 516.491
797 0 60.2026 11.8766 715 123.888 619.841 515.864
798 0 63.2139 11.817 747 121.497 620.226 516.639
799 0 66.2005 12.0845 800 119.504 619.995 515.849
800 0 66.2005 12.1147 802 164.279 619.99 515.718
801 0 68.1484 11.475 782 120.57 620.077 513.012
802 0 71.2674 11.955 852 116.44 619.944 512.798
803 0 73.2784 11.3267 830 120.265 619.613 512.899
804 0 75.2207 11.6856 879 118.387 619.34 510.609
805 0 77.1545 11.9371 921 118.56 618.877 510.521
806 0 80.2392 12.3256 989 117.245 619.038 510.339
807 0 82.2078 12.4562 1024 115.99 618.883 509.524
808 0 86.2109 12.0634 1040 115.203 619.005 509.243
809 0 84.2186 11.6245 979 167.928 619.934 507.808
810 0 89.2655 11.9867 1070 115.35 618.006 503.621
811 0 92.1987 12.6574 1167 111.469 617.831 503.526
812 0 94.2701 12.3157 1161 112.095 617.485 502.377
813 0 96.2183 11.5778 1114 113.556 618.095 502.066
814 0 101.293 12.6169 1278 110.786 617.882 500.852
815 0 103.149 12.4674 1286 110.104 618.303 499.348
816 0 107.183 12.474 1337 109.856 617.647 496.708
817 0 110.193 12.6323 1392 108.843 618.072 495.589
818 0 113.192 12.068 1366 110.462 617.038 494.341
819 0 114.154 12.3867 1414 109.693 617.241 492.358
820 0 121.212 12.771 1548 106.797 617.256 491.216
821 0 125.155 12.4326 1556 107.632 617.031 488.317
822 0 128.231 12.4307 1594 107.365 616.952 486.694
823 0 131.259 12.6239 1657 106.942 616.394 485.597
824 0 136.249 12.4918 1702 107.813 617.525 483.152
825 0 140.248 12.8487 1802 108.404 617.046 479.623
826 0 144.266 13.2048 1905 108.379 617.366 476.344
827 0 148.317 13.2689 1968 112.277 616.605 476.077
828 0 151.251 13.2826 2009 112.642 616.875 474.599
829 0 158.222 13.3547 2113 110.013 616.929 471.331
830 0 163.297 14.0541 2295 108.821 616.503 468.596
831 0 167.297 14.6446 2450 107.033 615.284 465.339
832 0 169.327 14.2033 2405 109.865 615.852 463.394
833 0 176.342 14.0635 2480 110.533 616.025 460.296
834 0 180.369 13.7274 2476 112.141 616.147 456.754
835 0 185.414 13.8824 2574 113.122 616.562 453.981
836 0 190.391 14.507 2762 112.622 615.799 450.222
837 0 199.431 14.391 2870 110.864 615.772 445.888
838 0 203.393 14.2139 2891 110.575 615.831 441.659
839 0 210.37 14.4032 3030 109.46 616.016 438.841
840 0 216.46 14.5292 3145 109.898 614.831 431.99
841 0 226.39 14.846 3361 109.485 615.382 428.252
842 1 174.348 12.7332 2220 111.737 614.845 456.275
843 0 178.446 12.6593 2259 116.257 614.965 450.651
844 0 184.252 13.3079 2452 112.238 615.489 447.697
845 0 191.386 13.674 2617 112.047 615.398 444.532
846 0 196.397 13.2639 2605 115.023 615.828 441.618
847 0 205.395 13.2477 2721 115.145 614.916 437.201
848 0 212.429 13.5245 2873 112.96 615.802 432.516
849 0 219.415 13.9052 3051 112.894 615.83 429.688
850 0 225.344 13.708 3089 112.882 616.158 428.624
851 0 231.488 13.4866 3122 115.116 615.763 419.388
852 0 242.478 14.4096 3494 112.657 615.694 417.564
853 0 248.507 13.9915 3477 111.939 615.196 412.927
854 0 257.466 14.1378 3640 112.775 615.842 407.792
855 0 266.459 13.6869 3647 114.696 615.439 403.403
856 0 275.525 14.1911 3910 111.225 615.523 401.693
857 0 283.506 13.0721 3706 115.415 615.546 394.74
858 1 66.2124 8.82011 584 84.6267 617.24 510.791
859 0 68.1625 9.18394 626 84.3067 617.367 509.73
860 0 68.2034 9.88221 674 83.7611 617.114 509.613
861 0 71.1735 9.77892 696 82.3879 616.309 509.177
862 0 73.1406 10.3089 754 81.8355 615.881 510.235
863 0 78.096 10.7304 838 86.4177 615.428 507.612
864 0 77.1192 9.79004 755 84.5815 614.695 504.301
865 0 80.2214 9.52365 764 87.4097 614.406 504.075
866 0 82.1556 9.23857 759 88.7563 614.441 501.872
867 0 86.1882 9.45606 815 87.5853 614.455 500.56
868 0 88.1624 9.43712 832 89.3462 613.899 499.99
869 0 90.2187 9.95359 898 89.3363 613.948 498.374
870 0 90.1234 9.86425 889 90.7177 614.672 492.004
871 0 85.4369 9.0242 771 92.6939 614.763 487.866
872 0 93.4186 10.6617 996 88.1185 614.759 491.205
873 0 101.498 11.0052 1117 88.7037 614.964 493.087
874 0 102.452 10.034 1028 88.9747 615.349 492.892
875 0 105.292 10.694 1126 87.8686 615.253 496.943
876 0 106.557 11.4868 1224 87.5547 615.205 495.392
877 0 108.235 11.5212 1247 87.9623 615.755 493.779
878 0 109.325 11.4521 1252 88.0032 615.891 491.285
879 0 115.511 10.4145 1203 89.5619 615.804 491.448
880 0 117.439 10.7035 1257 89.4614 615.769 489.557
881 0 120.378 11.0403 1329 89.6998 615.937 487.488
882 0 122.352 11.1155 1360 89.2993 615.949 486.125
883 0 127.463 11.0385 1407 88.3205 616.31 485.794
884 0 129.456 10.9844 1422 88.6709 615.594 481.587
885 0 133.51 11.5048 1536 87.6491 615.589 481.481
886 0 138.412 11.6392 1611 86.5922 615.551 481.146
887 0 141.61 11.687 1655 85.403 615.56 480.255
888 0 144.47 11.5595 1670 86.1928 615.738 477.328
889 0 147.603 11.5987 1712 87.1636 615.462 472.506
890 0 153.709 11.9316 1834 88.2334 615.49 470.666
891 0 158.407 11.8555 1878 88.779 615.506 470.398
892 0 161.577 11.7776 1903 90.6012 615.6 465.254
893 0 166.367 11.8112 1965 91.0071 615.709 463.712
894 0 172.444 11.8821 2049 90.5544 615.702 460.13
895 0 177.462 11.9124 2114 91.8713 615.528 458.256
896 1 51.0683 9.73206 497 82.4869 615.883 521.932
897 0 52.0625 10.5642 550 81.1709 615.884 521.369
898 0 54.0676 10.5239 569 86.6415 617.938 519.227
899 0 56.054 10.5791 593 87.1973 618.211 520.066
900 0 55.013 9.10693 501 75.1577 617.411 521.244
901 1 209.796 11.7972 2475 94.2348 616.427 441.784
902 0 214.793 10.9873 2360 96.7881 616.308 436.696
903 0 223.682 11.4627 2564 95.9614 616.778 432.819
904 0 232.644 11.2232 2611 96.2742 616.539 430.345
905 1 61.0713 9.07137 554 78.9856 616.605 517.975
906 0 63.0601 10.26 647 77.5394 616.98 516.864
907 0 65.1032 9.92271 646 78.9242 617.511 516.389
908 0 65.045 9.43961 614 79.9006 617.433 516.41
909 0 67.0444 9.3371 626 81.369 617.716 515.717
910 0 70.0294 9.59597 672 81.369 617.664 512.498
911 1 136.213 10.491 1429 85.5143 617.293 479.733
912 0 138.293 10.8971 1507 85.7445 617.44 479.696
913 0 142.344 9.54026 1358 88.2909 617.128 479.546
914 0 146.382 11.0191 1613 87.0527 616.949 475.561
915 0 150.319 11.0831 1666 84.4064 616.589 473.642
916 0 156.378 10.692 1672 86.436 616.474 471.53
917 1 249.866 11.4221 2854 96.431 616.651 419.289
918 0 256.745 11.7626 3020 97.0546 616.935 417.69
919 0 263.792 11.945 3151 97.5392 616.141 413.408
920 0 273.609 11.9916 3281 97.8744 615.425 408.046
921 0 282.778 12.6318 3572 96.2951 615.751 407.448
922 0 288.876 12.2371 3535 98.8122 615.873 399.997
923 1 315.822 9.22672 2914 102.211 615.843 413.425
924 0 317.716 17.714 5628 84.9001 615.97 371.039
925 1 102.125 9.20444 940 88.7489 617.29 502.445
926 0 106.18 10.049 1067 88.5754 616.658 500.189
927 0 103.425 10.0749 1042 85.2428 616.133 501.504
928 0 106.302 9.36008 995 86.7658 616.55 500.827
929 0 112.423 9.45534 1063 85.3575 615.788 498.498
930 0 112.456 8.91907 1003 85.1466 615.738 502.582
931 0 111.285 9.85754 1097 85.4376 615.088 497.647
932 0 121.312 10.0155 1215 84.5391 614.936 493.692
933 1 68.0347 10.2301 696 74.6724 614.641 521.987
934 0 69.0412 10.7617 743 75.0606 614.074 520.082
935 0 71.052 11.4282 812 74.5345 614.475 520.126
936 0 73.0576 9.8963 723 77.7925 614.669 518.23
937 0 73.019 10.0522 734 79.3065 613.925 517.688
938 0 77.0652 10.7571 829 80.3317 613.314 516.077
939 0 80.0663 10.816 866 80.5116 613.035 515.193
940 0 80.048 10.1689 814 79.6646 613.389 514.034
941 0 86.0865 10.594 912 79.5033 613.091 513.237
942 0 85.0578 9.40537 800 83.1362 612.664 514.175
943 0 87.0353 9.88104 860 83.293 613.084 510.064
944 0 94.0849 10.7669 1013 82.0474 613.402 509.659
945 0 97.1288 11.6032 1127 81.929 613.83 510.327
946 0 99.0769 10.83 1073 84.15 613.661 508.307
947 1 54.0272 11.4017 616 87.4919 613.083 525.797
948 0 58.0328 11.976 695 87.5784 614.624 524.742
949 0 57.0232 12.5563 716 87.9204 613.362 523.029
950 0 58.0592 11.9878 696 83.3276 613.57 522.218
951 0 60.041 11.7586 706 91.619 613.125 522.46
952 0 62.0952 12.3037 764 91.2945 613.822 522.338
953 0 62.0952 12.2393 760 121.953 614.807 522.264
954 0 67.087 12.5658 843 91.6512 614.488 520.887
955 0 69.0414 12.5867 869 89.435 614.15 519.328
956 0 71.0815 12.1551 864 81.2523 614.725 517.466
957 0 74.1426 13.3257 988 78.4696 614.201 516.704
958 0 77.0526 13.0171 1003 79.4217 614.895 514.733
959 0 77.0526 12.9652 999 80.6837 614.701 513.443
960 0 79.1419 13.242 1048 78.73 614.857 510.963
961 0 83.1883 13.8481 1152 77.9262 615.286 510.01
962 0 84.0853 12.4041 1043 76.162 614.964 508.795
963 0 86.105 11.3466 977 73.955 615.533 502.067
964 0 89.1115 11.1097 990 74.4798 615.491 503.392
965 0 91.0784 11.1772 1018 75.2259 616.18 500.885
966 1 44.0839 10.6388 469 78.6183 615.778 530.522
967 0 48.0206 11.5367 554 74.7744 615.774 529.514
968 0 47.115 11.0368 520 77.8865 616.525 526.042
969 0 51.0382 10.7958 551 77.0635 615.878 526.359
970 0 52.049 11.8158 615 75.9659 615.685 526.368
971 0 53.0423 11.538 612 75.7353 615.792 525.827
972 0 54.0768 11.6686 631 74.374 615.147 524.382
973 0 55.0534 11.6433 641 72.6225 615.175 524.785
974 0 54.0736 11.059 598 75.6555 615.642 523.911
975 0 58.1046 11.5481 671 74.8018 616.116 521.905
976 0 61.0283 11.7159 715 74.8923 615.632 520.41
977 0 61.0604 12.07 737 75.5414 615.479 519.288
978 0 63.0323 11.9304 752 76.2699 615.463 519.279
979 0 66.0342 11.7363 775 86.2077 616.2 516.079
980 0 68.0915 12.307 838 86.8258 616.148 517.419
981 0 66.0608 10.9142 721 89.6283 616.406 518.964
982 0 69.0695 10.2795 710 90.7901 616.299 518.477
983 0 72.0482 11.0065 793 79.6141 616.05 517.235
984 0 75.0823 11.3742 854 79.219 615.222 516.787
985 0 76.04 11.0731 842 80.5428 615.694 512.681
986 0 79.0907 10.9495 866 84.515 615.19 511.013
987 0 82.0425 11.2381 922 83.0033 615.444 510.756
988 0 86.0408 11.8781 1022 82.4315 615.885 511.249
989 1 48.0299 11.0764 532 82.7538 614.946 528.278
990 0 49.0412 11.9491 586 81.9437 616.509 526.805
991 0 52.0503 12.3534 643 82.7107 616.918 525.74
992 0 49.0401 10.7259 526 78.0437 615.874 530.028
993 0 52.0306 11.8584 617 75.2237 616.451 527.371
994 0 53.0426 10.8026 573 79.7818 616.164 525.803
995 0 54.0156 11.0894 599 80.9649 616.062 525.805
996 0 56.0503 11.0258 618 81.8139 615.93 524.484
997 0 57.0477 11.1661 637 82.6578 615.747 521.705
998 0 59.0777 11.1717 660 82.4712 616.55 520.815
999 0 59.0935 11.2195 663 83.7934 616.327 519.437
1000 0 62.0706 11.6641 724 81.6561 615.485 519.996
1001 0 64.076 11.0182 706 82.7394 615.854 517.435
1002 0 67.0339 11.442 767 81.6193 615.836 518.004
1003 0 68.047 11.0218 750 82.9733 616.377 517.123
1004 0 69.0526 11.0206 761 78.3758 617.217 512.908
1005 0 72.0854 10.0714 726 80.3347 618.092 512.138
1006 0 75.0804 10.4555 785 80.7197 617.958 511.504
1007 0 75.0508 10.8327 813 80.9717 617.736 511.06
1008 0 79.115 10.9461 866 81.8245 618.067 508.721
1009 0 81.0423 10.6611 864 80.9896 617.567 512.589
1010 0 84.0951 11.0827 932 83.1674 617.827 508.332
1011 0 87.1379 11.7056 1020 84.9931 618.308 511.155
1012 0 89.1432 11.7227 1045 83.7856 618.654 504.33
1013 0 91.1039 10.9765 1000 88.963 618.067 508.333
1014 0 93.1701 11.3556 1058 86.621 618.082 503.898
1015 0 101.09 12.929 1307 83.4836 617.916 500.62
1016 0 102.14 12.3067 1257 86.0573 617.244 498.971
1017 0 102.182 11.2153 1146 89.8229 617.43 496.808
1018 0 105.264 11.0959 1168 90.8031 618.442 496.521
1019 0 109.282 11.7219 1281 91.1866 618.187 493.741
1020 0 113.325 12.4068 1406 100.41 617.495 494.595
1021 0 118.286 12.3937 1466 98.2974 618.884 489.437
1022 1 58.1341 9.83932 572 87.4773 619.117 514.392
1023 0 61.2762 12.1744 746 103.001 619.658 521.24
1024 0 64.2376 12.5627 807 99.6964 619.147 520.177
1025 0 62.0881 11.4515 711 99.1139 619.833 520.719
1026 0 64.1005 11.794 756 97.2143 619.763 517.946
1027 0 67.169 12.1038 813 96.4834 620.116 517.026
1028 0 68.1402 12.7238 867 94.9942 619.495 513.937
1029 0 68.1517 11.5624 788 98.651 619.344 513.635
1030 0 74.1386 12.018 891 95.1336 618.685 513.012
1031 0 76.1208 12.5984 959 93.1439 618.609 511.178
1032 0 77.1093 13.0853 1009 91.9098 618.812 510.569
1033 0 81.1635 12.7397 1034 92.9168 618.635 507.162
1034 0 83.0933 12.0948 1005 95.2906 618.141 507.067
1035 0 86.078 12.3376 1062 95.8126 617.707 504.919
1036 0 89.0457 12.9147 1150 94.093 617.534 504.141
1037 0 91.0611 12.2445 1115 94.9121 617.628 501.442
1038 0 94.1887 12.7828 1204 92.8007 617.515 498.262
1039 0 96.1464 11.7321 1128 95.2216 617.351 495.093
1040 0 96.2185 11.3284 1090 96.9532 616.159 492.995
1041 1 51.0915 9.72764 497 97.1147 616.312 518.485
1042 0 52.164 10.4095 543 97.5543 616.825 518.704
1043 0 57.2514 11.4058 653 93.4349 616.882 519.665
1044 0 58.124 11.5959 674 84.2819 616.518 522.355
1045 0 60.0834 10.9348 657 81.312 616.175 520.21
1046 0 61.0481 10.6146 648 80.7469 615.093 518.236
1047 0 64.0482 11.0542 708 80.3432 616.1 516.891
1048 0 66.0321 11.0249 728 81.3544 615.696 517.102
1049 0 66.0294 10.98 725 81.7724 615.756 518.663
1050 0 71.0409 11.3034 803 80.1793 615.912 518.016
1051 0 72.0386 11.4661 826 80.0157 616.287 517.223
1052 0 73.0445 11.1713 816 80.951 616.164 517.43
1053 0 76.0501 11.4398 870 80.0333 615.785 514.013
1054 0 79.1524 11.4968 910 94.5582 617.065 511.746
1055 0 79.2931 11.7917 935 96.4684 618.519 511.791
1056 0 83.2033 12.2832 1022 94.1292 618.395 511.922
1057 0 85.2415 12.2827 1047 92.1328 617.776 511.155
1058 0 86.3208 11.0402 953 92.9769 618.01 509.672
1059 0 87.2568 11.151 973 92.6228 617.904 508.215
1060 0 90.3248 11.4144 1031 91.7818 618.075 507.812
1061 0 92.2657 11.0875 1023 92.4966 618.298 505.407
1062 0 93.2086 10.4497 974 87.9528 617.984 505.935
1063 0 97.2299 11.262 1095 87.263 617.591 502.737
1064 0 98.0932 11.0915 1088 87.6351 615.926 503.346
1065 0 100.162 11.4215 1144 86.5874 616.244 502.234
1066 0 101.149 10.3709 1049 88.7045 615.688 499.262
1067 0 104.136 10.6303 1107 86.673 616.331 499.808
1068 0 107.159 11.2543 1206 87.6774 616.692 497.58
1069 0 112.191 11.8102 1325 86.7011 616.162 496.928
1070 0 113.266 11.0889 1256 90.2126 616.365 493.54
1071 0 116.22 11.3749 1322 91.0817 615.789 493.396
1072 0 119.162 11.9418 1423 91.4027 616.836 493.8
1073 0 122.182 12.064 1474 92.0957 616.119 490.99
1074 0 125.194 11.9334 1494 91.9605 616.981 488.23
1075 0 129.16 11.5671 1494 91.8066 616.435 491.388
1076 0 133.171 11.9771 1595 90.679 616.068 486.958
1077 0 136.162 11.501 1566 91.9004 615.831 483.469
1078 0 141.184 11.1131 1569 91.4716 616.173 480.618
1079 0 146.204 11.5318 1686 89.8292 616.218 478.638
1080 0 151.175 11.3709 1719 89.4567 616.462 477.493
1081 0 155.151 11.5371 1790 88.4983 616.234 475.347
1082 1 83.2155 10.5629 879 85.7372 617.813 506.859
1083 0 85.1126 9.97502 849 86.0789 616.794 508.04
1084 0 87.041 11.2476 979 84.6445 617.079 508.784
1085 0 89.1238 11.3213 1009 86.2567 617.397 504.982
1086 0 88.1853 10.7274 946 85.6829 617.152 505.58
1087 0 90.0439 10.2172 920 80.088 616.45 507.287
1088 0 92.1079 10.8785 1002 80.0918 616.184 505.385
1089 0 95.0982 10.3787 987 89.0689 615.889 504.069
1090 0 97.0673 10.9821 1066 88.9962 617.021 501.967
1091 0 100.069 11.602 1161 88.7967 616.565 502.032
1092 0 102.057 11.1605 1139 90.101 616.528 501.119
1093 0 105.197 11.7779 1239 88.498 615.806 498.323
1094 0 106.071 11.992 1272 86.5503 616.62 495.789
1095 0 110.266 11.971 1320 87.1348 616.599 493.572
1096 0 111.24 12.064 1342 86.3599 616.428 489.624
1097 0 115.183 13.1877 1519 82.4266 616.391 487.485
1098 0 118.288 11.6664 1380 83.5855 616.849 487.462
1099 0 123.311 12.2617 1512 82.0271 618.481 490.261
1100 0 123.316 12.2693 1513 124.522 620.472 490.14
1101 0 126.322 12.0011 1516 81.1339 618.04 483.712
1102 0 130.37 11.6208 1515 79.8145 617.782 480.942
1103 0 133.154 12.0687 1607 78.9708 617.528 478.82
1104 0 135.219 11.5516 1562 79.4078 617.214 474.834
1105 0 136.103 11.6162 1581 78.9096 616.901 471.215
1106 0 141.216 12.0029 1695 78.0873 616.32 472.159
1107 0 143.11 11.7182 1677 78.0733 616.005 468.578
1108 0 147.215 11.9689 1762 77.9086 616.396 466.386
1109 0 148.138 11.469 1699 79.5238 616.286 462.099
1110 0 150.377 11.3249 1703 77.2924 616.548 461.846
1111 0 149.359 11.3819 1700 109.273 616.54 462.012
1112 0 158.188 11.303 1788 77.028 616.444 458.945
1113 0 159.144 10.3805 1652 77.7203 616.708 458.674
1114 0 156.142 10.1574 1586 77.1753 616.775 450.31
1115 0 160.095 10.7686 1724 75.4849 615.576 449.93
1116 0 161.137 9.75569 1572 76.5299 616.293 445.088
1117 0 164.069 9.12419 1497 76.175 616.756 443.779
1118 0 167.078 9.25916 1547 73.7654 616.213 442.748
1119 0 166.115 10.4145 1730 72.3121 616.286 442.805
1120 0 168.075 7.53235 1266 73.4613 615.945 436.385
1121 1 0 0 0 -nan -nan -nan
1122 0 316.409 13.4952 4270 95.9639 615.756 347.71
1123 0 323.475 12.1648 3935 98.6226 615.232 337.537
1124 0 328.298 12.8724 4226 99.6221 614.908 332.15
1125 0 334.529 11.1022 3714 106.403 615.129 309.831
1126 0 253.222 12.6569 3205 115.084 615.199 280.409
1127 0 162.085 16.6888 2705 125.268 614.28 246.254
1128 1 177.08 5.48341 971 124.043 614.452 290.186
1129 0 184.317 17.0033 3134 84.2875 614.542 296.874
1130 0 150.106 13.0241 1955 106.001 614.327 288.806
1131 0 152.099 12.0316 1830 111.245 614.783 280.01
1132 0 95.0796 15.8919 1511 123.762 615.146 251.327
1133 0 97.1274 15.9481 1549 117.729 615.088 243.944
1134 0 99.0752 15.2006 1506 120.438 614.948 234.088
1135 0 104.101 15.1008 1572 119.826 614.56 229.354
1136 0 117.088 10.8978 1276 100.382 615.009 274.125
1137 0 120.151 11.4938 1381 94.189 614.707 268.177
1138 0 59.0913 14.9768 885 112.56 615.115 233.212
1139 0 59.0492 15.2585 901 114.781 615.303 226.137
1140 0 63.0372 14.8008 933 119.696 614.204 221.489
1141 0 63.0731 14.935 942 109.601 614.108 215.652
1142 0 65.053 14.7572 960 115.257 614.391 211.719
1143 1 245.187 15.0619 3693 50.6474 616.305 434.552
1144 0 248.21 14.5562 3613 51.9303 616.481 427.522
1145 0 255.302 14.6415 3738 51.7079 615.752 430.765
1146 0 260.428 15.4745 4030 51.1878 616.117 427.73
1147 0 265.255 15.7735 4184 51.951 615.007 422.139
1148 0 270.274 14.8516 4014 53.4288 614.734 421.825
1149 0 274.231 15.1077 4143 53.8443 614.99 416.889
1150 0 280.323 14.7544 4136 48.9408 615.573 414.023
1151 0 284.312 14.8463 4221 50.1059 615.101 408.457
1152 0 294.225 16.535 4865 48.0808 614.732 405.907
1153 0 300.321 15.2637 4584 50.6859 614.37 401.645
1154 0 307.36 15.6689 4816 51.0357 615.041 400.156
1155 0 314.361 15.8894 4995 51.5906 615.027 393.709
1156 0 319.218 15.2936 4882 53.0834 615.051 389.289
1157 0 327.348 15.9127 5209 53.3623 614.971 389.11
1158 0 335.379 16.1071 5402 54.2284 614.568 380.382
1159 0 342.288 16.0508 5494 55.2565 614.928 373.689
1160 0 347.73 16.7314 5818 54.9909 614.637 370.46
1161 0 355.66 16.4174 5839 56.2762 614.421 362.951
1162 0 365.578 17.4491 6379 55.8649 614.224 358.775
1163 0 373.712 16.7241 6250 58.4576 614.042 353.477
1164 0 383.586 17.1904 6594 58.6952 614.178 349.967
1165 0 389.568 16.0152 6239 58.8634 613.811 344.601
1166 0 399.68 16.5082 6598 58.299 614.141 341.405
1167 1 57.2623 8.45233 484 45.1054 616.12 523.134
1168 0 59.2408 8.79461 521 46.7178 615.988 523.344
1169 0 62.2267 10.1082 629 48.2655 616.126 514.176
1170 0 62.1755 10.969 682 45.5323 614.802 518.556
1171 0 67.088 11.6265 780 45.3038 615.415 523.02
1172 0 65.1431 10.1008 658 47.9422 615.489 523.65
1173 0 68.1111 10.3654 706 48.4915 615.574 522.589
1174 0 70.0763 11.1165 779 49.3954 615.442 520.792
1175 0 76.187 13.69 1043 46.5398 615.024 516.999
1176 0 73.0473 11.1024 811 52.6831 615.292 518.041
1177 0 78.0963 11.6395 909 53.1573 614.906 517.58
1178 0 87.2538 13.9822 1220 49.1459 615.339 510.156
1179 0 86.1879 14.0275 1209 52.311 614.63 509.258
1180 1 115.208 10.5114 1211 53.5706 615.125 508.329
1181 0 90.2105 14.9207 1346 53.266 614.583 507.584
1182 0 112.233 12.5364 1407 55.3298 615.255 506.873
1183 0 115.43 17.8462 2060 48.3325 614.768 495.615
1184 0 114.389 13.5502 1550 57.7794 614.826 502.897
1185 0 111.501 16.1523 1801 55.4353 615.042 498.761
1186 0 110.499 17.3395 1916 54.8017 614.774 498.763
1187 0 109.701 17.6936 1941 55.1381 615.178 494.991
1188 0 111.503 19.1654 2137 53.2761 614.539 494.157
1189 0 103.477 17.3082 1791 61.0251 615.08 496.412
1190 0 103.328 12.5716 1299 71.9384 614.129 500.15
1191 0 106.416 12.9115 1374 70.198 614.252 500.795
1192 0 106.464 12.6428 1346 73.7905 614.929 499.028
1193 0 109.338 12.7494 1394 74.4462 614.552 499.166
1194 0 109.29 13.3132 1455 75.2756 614.68 498.92
1195 0 112.425 13.5646 1525 76.3292 614.201 495.756
1196 0 114.299 12.8348 1467 79.4676 615.425 495.562
1197 0 115.458 12.8098 1479 80.1014 615.548 495.694
1198 0 118.361 12.7913 1514 82.8415 615.754 493.921
1199 0 118.472 13.0495 1546 84.1915 614.924 493.446
1200 0 122.513 13.0843 1603 83.6656 614.626 493.739
1201 0 122.583 13.2645 1626 85.1378 614.825 492.161
1202 0 123.308 13.0243 1606 85.8057 614.616 490.61
1203 0 127.287 14.4162 1835 82.4567 615.098 487.45
1204 0 129.503 13.4437 1741 84.6083 614.683 487.706
1205 0 132.338 12.6646 1676 86.9988 615.015 488.911
1206 0 133.247 13.3061 1773 86.8962 614.572 486.733
1207 0 134.313 13.3792 1797 88.8347 615.244 487.328
1208 0 137.467 13.7124 1885 88.8387 614.771 485.314
1209 0 138.348 13.6034 1882 91.1344 615.109 484.264
1210 0 140.34 13.8948 1950 91.4308 614.93 484.307
1211 0 143.369 13.9988 2007 92.5954 614.059 480.978
1212 0 144.2 14.154 2041 93.5806 613.947 479.112
1213 0 147.375 14.2629 2102 94.9448 614.389 479.624
1214 0 151.23 14.521 2196 96.7391 615.156 478.394
1215 0 153.294 14.606 2239 98.331 614.918 477.23
1216 0 154.331 15.3048 2362 98.7616 614.61 477.779
1217 0 154.291 14.9587 2308 102.25 614.71 475.555
1218 0 160.247 15.6758 2512 101.301 614.6 474.75
1219 0 162.226 14.9051 2418 104.617 614.72 473.697
1220 0 166.156 15.9308 2647 102.508 614.498 472.216
1221 0 165.273 15.4955 2561 105.459 613.949 469.143
1222 0 169.199 14.9114 2523 108.091 614.739 469.606
1223 0 172.29 16.0079 2758 105.141 614.563 469.387
1224 0 172.256 15.6918 2703 106.804 614.566 467.6
1225 0 175.324 15.2689 2677 109.032 614.904 466.376
1226 0 181.234 15.8855 2879 107.975 614.605 467.104
1227 0 183.189 15.7215 2880 108.259 615.507 466.523
1228 0 185.236 16.0282 2969 108.008 615.164 463.279
1229 0 187.175 15.6324 2926 107.928 615.093 462.801
1230 0 191.229 16.5195 3159 106.392 614.733 459.936
1231 0 193.225 16.0538 3102 109.396 615.385 457.295
1232 0 195.198 16.3731 3196 109.994 614.558 456.508
1233 0 199.173 16.4781 3282 110.294 614.606 455.952
1234 0 202.181 16.5446 3345 111.483 614.37 453.261
1235 0 205.228 16.6839 3424 112.5 614.982 452.856
1236 0 207.247 16.5744 3435 114.361 615.557 448.712
1237 0 212.219 16.9117 3589 114.142 615.332 449.633
1238 0 215.106 16.8661 3628 115.712 615.72 446.241
1239 0 220.252 17.2257 3794 117.555 615.243 445.98
1240 0 222.103 16.6589 3700 119.931 615.284 444.201
1241 0 226.204 16.5647 3747 120.938 615.584 443
1242 0 230.254 16.8596 3882 120.932 614.856 440.483
1243 0 235.172 17.5574 4129 118.267 614.935 439.498
1244 0 238.265 17.1993 4098 120.66 615.356 436.14
1245 0 242.131 17.9076 4336 119.052 615.764 433.45
1246 0 245.119 17.5139 4293 122.192 616.11 431.865
1247 0 249.232 17.2691 4304 124.439 615.119 429.486
1248 0 251.193 17.9145 4500 125.483 615.724 427.099
1249 0 256.234 17.6557 4524 127.314 614.306 425.795
1250 0 260.234 17.8455 4644 128.095 615.508 426.275
1251 0 263.241 17.8468 4698 130.128 615.406 423.193
1252 0 266.234 19.0847 5081 127.036 615.974 421.299
1253 0 270.168 18.5107 5001 132.216 616.023 419.992
1254 0 274.233 18.2619 5008 135.713 615.382 416.865
1255 0 276.22 18.4925 5108 138.053 615.885 416.906
1256 0 280.201 18.0834 5067 140.167 616.576 413.332
1257 0 284.213 18.18 5167 141.116 617.309 410.609
1258 0 289.214 18.4673 5341 142.547 616.579 412.443
1259 0 292.193 18.5871 5431 142.862 615.904 408.424
1260 0 296.24 18.4377 5462 145.462 616.11 406.368
1261 0 300.297 19.201 5766 144.082 615.745 404.32
1262 0 304.287 19.761 6013 144.065 615.427 401.907
1263 0 308.23 19.5861 6037 147.225 615.459 399.741
1264 0 312.162 20.2011 6306 146.381 615.918 396.927
1265 0 314.222 19.4385 6108 151.294 615.367 395.166
1266 0 317.215 19.936 6324 152.209 615.466 390.638
1267 0 317.249 19.688 6246 155.527 615.714 392.138
1268 0 321.318 20.8579 6702 152.378 615.343 388.808
1269 0 325.475 19.7988 6444 161.079 615.154 388.39
1270 0 330.355 20.6051 6807 159.214 614.762 388.635
1271 0 332.3 19.8706 6603 162.62 615.199 386.461
1272 0 336.48 20.0131 6734 163.719 614.908 382.033
1273 0 338.265 19.9223 6739 166.673 614.805 381.86
1274 0 342.284 20.1382 6893 166.011 614.633 381.243
1275 0 347.386 21.2386 7378 162.905 614.843 376.916
1276 0 350.352 20.5508 7200 166.122 614.883 375.671
1277 0 354.295 20.8865 7400 165.091 614.868 375.171
1278 0 359.387 21.3224 7663 160.935 615.241 371.942
1279 0 362.396 20.5935 7463 164.644 614.741 373.249
1280 0 364.282 19.8253 7222 169.367 615.685 368.721
1281 0 369.384 20.434 7548 171.806 615.313 367.821
1282 0 373.242 20.0969 7501 173.905 615.309 368.882
1283 0 375.48 20.1262 7557 176.133 615.238 362.448
1284 0 381.389 20.7662 7920 174.938 614.833 360.676
1285 0 385.31 19.9346 7681 178.048 615.308 357.904
1286 0 389.393 20.4318 7956 174.867 615.086 357.124
1287 0 393.448 20.8922 8220 174.347 615.187 353.566
1288 0 397.537 20.7578 8252 175.807 615.224 352.581
1289 0 401.471 20.6615 8295 177.676 615.872 350.05
1290 0 406.67 21.4572 8726 174.122 616.008 345.89
1291 0 410.737 20.7822 8536 177.767 615.538 347.147
1292 0 415.871 21.2422 8834 175.019 615.831 341.668
1293 0 418.753 20.5396 8601 178.735 615.647 339.684
1294 0 420.574 21.7678 9155 173.715 615.722 336.603
1295 0 419.713 21.124 8866 176.548 615.369 334.706
1296 0 420.566 21.414 9006 175.291 615.504 334.216
1297 0 420.369 22.7015 9543 170.576 614.637 333.151
1298 0 419.42 20.9694 8795 177.229 614.537 332.925
1299 0 419.241 22.1805 9299 173.297 614.882 332.554
1300 0 420.382 21.9705 9236 175.135 615.184 332.271
1301 0 421.311 22.7077 9567 171.533 615.091 332.63
1302 0 421.286 22.5785 9512 172.264 615.552 332.548
1303 0 418.305 21.7354 9092 177.694 615.688 331.48
1304 0 418.278 21.3996 8951 178.897 615.051 330.843
1305 0 419.33 22.7911 9557 174.373 615.229 330.586
1306 0 418.575 23.4749 9826 177.548 614.502 329.827
1307 0 420.54 22.6066 9507 180.679 614.805 330.95
1308 0 420.647 22.6366 9522 180.378 614.776 332.297
1309 0 420.408 21.8859 9201 182.575 614.702 331.177
1310 0 420.571 21.5112 9047 184.299 614.554 330.835
1311 0 420.434 21.5349 9054 182.816 614.597 331.711
1312 0 423.533 23.559 9978 175.552 614.531 332.376
1313 0 420.464 22.0994 9292 180.512 614.883 332.066
1314 0 420.481 20.976 8820 185.724 615.065 331.674
1315 0 420.66 21.2999 8960 179.575 615.173 331.803
1316 0 420.5 21.7574 9149 185.524 615.469 331.794
1317 0 420.675 21.746 9148 184.476 615.261 332.045
1318 0 421.647 22.2651 9388 180.419 615.353 332.073
1319 0 423.541 22.0404 9335 180.052 614.83 332.714
1320 0 421.648 21.0555 8878 184.771 614.852 331.95
1321 0 421.593 21.5018 9065 184.666 615.074 332.57
1322 0 421.518 20.9054 8812 186.28 614.748 332.216
1323 0 422.517 22.347 9442 180.281 614.402 331.477
1324 0 420.444 21.884 9201 181.226 614.445 331.35
1325 0 421.549 21.6274 9117 181.995 615.249 332.767
1326 0 422.503 21.2874 8994 182.883 616.31 333.525
1327 0 421.554 21.9071 9235 180.09 614.614 332.014
1328 0 422.474 21.4332 9055 181.904 616.45 332.815
1329 0 421.571 21.1732 8926 184.153 615.16 332.03
1330 0 422.592 21.6426 9146 182.56 614.717 332.33
1331 0 422.619 20.9054 8835 184.613 614.882 332.757
1332 0 422.795 21.0457 8898 182.113 614.409 333.668
1333 0 422.753 22.4031 9471 175.064 614.944 333.095
1334 0 422.831 21.6753 9165 177.746 614.769 332.915
1335 0 423.074 21.254 8992 178.647 615.078 333.605
1336 0 423.135 21.2438 8989 178.846 613.913 332.456
1337 0 422.35 22.1215 9343 174.793 614.531 332.665
1338 0 423.78 20.9378 8873 179.605 614.644 334.422
1339 0 424.152 21.1834 8985 179.838 614.552 334.291
1340 0 425.19 20.9577 8911 180.218 614.268 335.208
1341 0 424.146 20.6415 8755 180.512 614.4 335.041
1342 0 425.26 20.6227 8770 183.02 615 335.187
1343 0 424.059 22.2988 9456 177.498 614.624 334.738
1344 0 424.874 21.1051 8967 183.06 614.606 335.305
1345 0 426.856 21.991 9387 179.213 614.551 335.062
1346 0 425.831 20.2099 8606 185.914 614.584 335.935
1347 0 425.824 21.5582 9180 181.357 613.86 333.944
1348 0 425.888 21.6935 9239 181.816 614.265 334.795
1349 0 425.917 21.3868 9109 183.84 613.688 334.434
1350 0 425.851 23.1325 9851 176.601 614.054 334.969
1351 0 425.29 21.329 9071 180.487 614.127 335.741
1352 0 424.577 22.1515 9405 173.667 613.709 333.398
1353 0 423.607 22.0653 9347 173.132 613.711 333.008
1354 0 424.742 22.762 9668 170.404 613.594 332.337
