time division length width area intensity CMx CMy
1696 0 69.1047 11.3451 784 76.5906 1094.63 452.059
1697 0 70.1003 10.9557 768 78.056 1094.35 450.656
1698 0 72.0828 11.2093 808 78.026 1094.75 449.364
1699 0 74.0381 11.5751 857 78.126 1094.52 449.788
1700 0 77.0933 11.7261 904 77.9712 1095.36 448.279
1701 0 77.0742 11.3397 874 79.0973 1094.5 445.032
1702 0 82.0769 11.8547 973 78.8541 1094.77 445.219
1703 0 83.1316 11.0427 918 82.0501 1094.91 443.871
1704 0 86.08 11.9192 1026 81.9142 1095.01 441.365
1705 0 89.074 10.8561 967 83.6184 1095.1 442.115
1706 0 91.1382 10.8187 986 84.5558 1095 440.375
1707 0 94.1018 12.0295 1132 82.1299 1094.59 434.11
1708 0 94.1018 12.0083 1130 137.556 1093.59 434.133
1709 0 94.114 11.9961 1129 137.124 1092.58 434.109
1710 1 58.0673 11.0045 639 81.7684 1094.91 455.606
1711 0 59.0797 12.17 719 78.6259 1096.02 454.05
1712 0 54.069 10.4496 565 68.7876 1096.01 450.973
1713 0 57.0477 10.9733 626 69.7013 1095.91 449.014
1714 0 60.0268 11.2283 674 68.5905 1095.82 449.392
1715 0 60.0227 10.3794 623 70.6019 1096.33 446.984
1716 0 63.0422 12.4837 787 68.1614 1096.48 446.792
1717 0 64.157 10.6925 686 71.344 1096.28 446.013
1718 0 66.0524 11.612 767 70.88 1096.58 444.54
1719 0 70.0184 12.2396 857 70.9207 1095.67 443.35
1720 0 71.0588 11.4412 813 73.5498 1096.32 442.443
1721 0 76.0666 11.766 895 80.0548 1095.9 448.551
1722 0 78.0737 12.5138 977 77.6192 1096.22 446.326
1723 0 81.0861 12.0613 978 78.9427 1096.09 445.258
1724 0 82.0544 11.9555 981 79.2691 1095.81 444.888
1725 0 85.083 11.953 1017 81.0511 1095.18 444.037
1726 0 87.0696 11.933 1039 81.6689 1095.59 442.399
1727 0 90.0612 11.8697 1069 83.5229 1095.53 440.826
1728 0 91.0648 11.8377 1078 84.0278 1095.47 440.031
1729 0 96.1423 11.6494 1120 84.1179 1094.74 438.643
1730 0 99.0866 11.828 1172 85.9957 1095.01 435.203
1731 0 103.167 11.9127 1229 86.8381 1094.28 434.408
1732 1 55.0848 10.9831 605 89.4529 1094.79 455.481
1733 0 56.057 11.4883 644 84.2283 1095.56 454.618
1734 0 59.0534 12.0908 714 81.2143 1095.3 453.746
1735 0 59.0415 12.1779 719 80.4339 1095.09 453.082
1736 0 63.1325 11.8956 751 80.3396 1095.45 452.068
1737 0 64.0544 12.2396 784 81.4286 1095.73 450.093
1738 0 64.0684 11.9716 767 82.472 1096.34 450.27
1739 0 67.1348 12.7505 856 80.5841 1095.99 448.959
1740 0 68.0705 12.3548 841 82.4816 1096.24 447.858
1741 0 69.1093 12.0389 832 83.3522 1096.03 449.103
1742 0 73.0858 11.6438 851 84.5864 1096.23 446.719
1743 0 74.085 11.5948 859 85.6275 1096.25 445.43
1744 0 79.063 11.7628 930 84.3978 1096.45 445.739
1745 0 82.1331 12.8207 1053 84.169 1096.23 444.554
1746 0 84.0665 12.276 1032 85.1192 1095.64 445.016
1747 0 85.0849 11.9998 1021 88.238 1095.54 442.212
1748 0 88.0907 12.3963 1092 88.1282 1095.25 439.881
1749 0 92.111 12.8649 1185 85.4076 1095.92 440.461
1750 0 95.0732 12.3484 1174 86.7615 1095.67 437.175
1751 1 48.0389 11.6989 562 86.4591 1096.06 461.868
1752 0 48.0364 11.6578 560 84.5464 1095.31 459.373
1753 0 49.0413 11.8268 580 85.4638 1094.81 458.498
1754 0 50.0769 12.1014 606 80.7294 1095.36 459.182
1755 0 53.0981 11.7518 624 82.367 1096.1 458.3
1756 0 55.0249 12.1945 671 83.003 1095.84 456.778
1757 0 56.0353 11.814 662 85.3459 1095.55 455.553
1758 0 56.0548 11.9704 671 84.3189 1095.62 455.601
1759 0 59.1956 11.859 702 82.5342 1096.08 455.103
1760 0 59.0987 12.4199 734 82.2289 1095.73 452.858
1761 0 64.2197 12.1614 781 77.0013 1095.84 451.324
1762 0 66.2704 12.6904 841 77.0678 1095.29 449.275
1763 0 66.2704 12.1321 804 136.066 1095.35 448.77
1764 0 67.2696 12.3979 834 80.1787 1095.16 448.664
1765 0 72.3096 12.8752 931 80.3652 1095.89 450.058
1766 0 75.2707 12.847 967 79.9369 1096.59 449.738
1767 0 76.3476 12.7312 972 81.1091 1096.04 447.547
1768 0 78.2579 12.7399 997 81.6389 1096.15 448.164
1769 0 82.2491 12.6445 1040 82.1577 1095.42 445.157
1770 0 84.2742 12.8865 1086 85.0617 1095.63 445.278
1771 0 86.2254 12.6993 1095 85.9817 1095.59 444.292
1772 0 90.228 12.546 1132 88.167 1095.56 442.883
1773 0 93.1661 13.2881 1238 89.0048 1095.03 439.817
1774 0 94.0981 12.4657 1173 91.0426 1095.19 438.877
1775 0 97.0936 13.0802 1270 90.6591 1095.22 438.46
1776 0 99.2177 12.5986 1250 92.8432 1095.64 435.714
1777 1 51.0733 11.9045 608 86.5576 1095.25 460.109
1778 0 51.2133 12.2429 627 87.0877 1096.93 458.604
1779 0 53.0303 11.3708 603 87.7678 1096.05 458.884
1780 0 55.0325 11.1752 615 86.761 1095.67 459.124
1781 0 55.0454 11.4269 629 85.744 1095.81 456.264
1782 0 60.0629 11.8376 711 84.1477 1095.96 453.862
1783 0 60.0812 11.1349 669 86.7877 1095.06 453.743
1784 0 62.0575 12.0533 748 84.7888 1095.9 451.886
1785 0 64.0612 11.8168 757 85.856 1095.37 450.679
1786 0 66.0894 11.6357 769 86.3459 1095.53 449.909
1787 0 67.0347 11.964 802 86.8167 1095.36 448.203
1788 0 70.087 12.6842 889 86.342 1096.33 447.76
1789 0 73.0746 12.3435 902 87.0698 1095.4 448.507
1790 0 75.1292 12.1391 912 88.5844 1095.92 446.518
1791 0 76.1011 11.8527 902 90.0599 1095.8 444.69
1792 0 78.1106 12.0982 945 90.037 1095.78 442.417
1793 0 81.0749 12.5686 1019 89.7664 1095.38 443.897
1794 0 86.0562 13.2007 1136 86.8812 1095.1 442.019
1795 1 46.0484 11.4662 528 88.6496 1094.72 461.216
1796 0 46.0717 10.8092 498 90.504 1094.19 461.098
1797 0 48.1118 12.4294 598 88.6154 1095.26 459.779
1798 0 50.0419 12.2697 614 88.3713 1095.7 458.842
1799 0 51.1671 12.4885 639 89.2332 1094.97 459.679
1800 0 53.0661 12.8519 682 85.7566 1095.3 459.918
1801 0 56.0582 12.9508 726 86.741 1095.6 459.912
1802 0 58.0553 12.4881 725 86.0262 1095.28 458.703
1803 0 59.0914 13.0814 773 84.9638 1095.14 456.752
1804 0 61.1556 13.2122 808 84.3094 1095.21 455.432
1805 0 62.0358 13.4761 836 84.7536 1094.73 456.014
1806 0 63.0652 12.9073 814 86.629 1094.45 454.654
1807 0 66.0956 12.8904 852 85.7617 1094.39 453.587
1808 0 67.0789 12.94 868 85.5726 1094.41 454.434
1809 0 68.0924 13.3054 906 85.9062 1094.82 452.567
1810 0 71.0907 12.9272 919 86.1469 1094.86 452.099
1811 0 68.113 12.215 832 89.4002 1094.88 451.682
1812 0 73.0842 12.2325 894 87.7562 1094.96 449.375
1813 0 74.0929 12.6193 935 88.4481 1094.55 448.359
1814 0 77.0807 11.5463 890 90.6607 1095.23 446.819
1815 0 80.083 12.4496 997 88.993 1094.49 446.029
1816 0 82.0696 12.5016 1026 90.1423 1094.29 444.073
1817 0 84.0998 11.8431 996 89.2691 1094.89 446.275
1818 0 88.0655 12.3317 1086 86.0939 1094.61 444.286
1819 0 89.1285 11.6685 1040 90.8981 1094.98 443.925
1820 0 93.0605 11.6376 1083 91.6574 1094.34 442.71
1821 0 97.1401 11.8283 1149 88.3438 1095.03 439.63
1822 0 100.164 11.2315 1125 89.448 1095.34 440.268
1823 0 102.156 11.8349 1209 88.153 1095.14 437.639
1824 1 57.1488 11.1813 639 80.2989 1095.76 461.332
1825 0 57.0271 11.8189 674 84.7685 1095.25 459.868
1826 0 60.0653 12.4198 746 77.8271 1095.17 458.558
1827 0 59.0749 11.9848 708 79.6624 1095.46 459.6
1828 0 62.045 11.1371 691 80.6946 1094.91 458.048
1829 0 65.0399 12.1003 787 79.8348 1094.71 456.013
1830 0 65.0762 11.4635 746 81.3351 1095.08 456.362
1831 0 66.0479 11.7491 776 82.6804 1094.97 455.024
1832 0 70.0631 12.3317 864 81.8044 1094.8 453.462
1833 0 73.049 11.3896 832 90.3726 1095.1 452.308
1834 0 74.0553 11.64 862 84.2309 1095.37 451.102
1835 0 79.0776 11.4697 907 82.6064 1096 449.131
1836 0 79.1508 11.3707 900 85.7578 1096.31 446.932
1837 0 82.0979 11.401 936 85.9402 1096.25 445.48
1838 0 82.0979 11.3888 935 128.588 1095.27 445.542
1839 0 87.1224 11.019 960 87.1625 1095.29 440.485
1840 0 90.1893 11.3317 1022 86.8151 1095.39 437.813
1841 0 93.2275 11.7347 1094 85.8693 1095.07 438.233
1842 0 97.1927 10.9267 1062 84.7476 1095.06 434.951
1843 0 98.3618 11.7424 1155 84.2043 1095.38 434.727
1844 0 103.109 11.2502 1160 85.3457 1095.6 431.106
1845 1 56.0849 11.4113 640 75.2953 1096.14 459.706
1846 0 58.128 11.8187 687 75.4236 1096.42 459.448
1847 0 57.0525 11.7436 670 76.5716 1096.17 459.59
1848 0 58.1243 11.3894 662 76.5196 1096.27 458.369
1849 0 61.077 11.6574 712 75.5126 1096.23 457.441
1850 0 63.186 11.3158 715 75.9091 1096.09 455.119
1851 0 65.0446 11.9303 776 74.6765 1095.88 453.508
1852 0 64.1048 11.2004 718 76.3858 1095.69 451.735
1853 0 67.0899 10.9256 733 76.4338 1095.11 450.926
1854 0 69.0213 11.5327 796 75.9209 1095.32 449.004
1855 0 72.0764 11.8347 853 75.0903 1095.34 450.272
1856 0 75.0718 12.921 970 73.4567 1095.81 448.795
1857 0 76.1794 11.8799 905 74.9414 1095.99 446.457
1858 0 78.1467 11.6064 907 75.5943 1096.15 444.862
1859 0 81.1669 11.5688 939 76.5144 1095.46 444.438
1860 0 81.2021 10.9726 891 77.5544 1096.21 442.341
1861 0 85.0422 11.218 954 77.6122 1096.38 440.372
1862 0 89.0934 12.0099 1070 75.7664 1096.13 438.916
1863 0 91.0817 12.1869 1110 76.4478 1096.25 437.319
1864 0 93.1545 10.8637 1012 79.1047 1096.07 434.269
1865 0 96.061 10.8056 1038 79.6994 1095.91 433.86
1866 1 50.0301 10.4937 525 75.6381 1096.03 457.61
1867 0 50.0737 11.3433 568 74.9313 1096.34 456.84
1868 0 52.0552 11.4686 597 75.5075 1096.59 456.782
1869 0 53.0785 12.4344 660 75.2333 1096.12 456.935
1870 0 55.0488 12.28 676 73.0399 1096.07 453.216
1871 0 56.0364 12.5276 702 69.4131 1096.15 453.944
1872 0 59.081 12.1528 718 69.2145 1095.48 452.521
1873 0 59.1002 12.0812 714 69.9342 1096.64 450.538
1874 0 60.0726 12.6181 758 69.0158 1095.84 448.859
1875 0 65.0446 12.7451 829 67.7551 1096.11 448.076
1876 0 65.0492 11.7757 766 70.5326 1096.31 447.086
1877 0 67.036 12.6499 848 69.0106 1095.81 445.373
1878 0 69.0872 12.8678 889 69.4173 1096.11 444.784
1879 0 70.039 12.6358 885 70.6881 1096.5 444.072
1880 0 72.0807 12.4166 895 71.1486 1096.72 442.56
1881 0 75.0883 12.5452 942 70.6932 1095.81 440.567
1882 0 78.0767 12.8976 1007 70.7239 1095.96 439.6
1883 0 81.1014 13.0947 1062 70.7627 1096.39 439.976
1884 0 83.0536 12.8832 1070 70.3981 1095.89 439.232
1885 0 83.105 12.0089 998 72.7505 1094.98 437.016
1886 0 85.0625 11.8501 1008 73.0367 1095.31 435.442
1887 0 89.2118 12.3078 1098 71.49 1096.39 435.046
1888 0 93.0232 11.9863 1115 77.8798 1096.22 431.875
1889 0 96.2146 11.8069 1136 78.3556 1096.36 432.518
1890 0 97.1336 12.0247 1168 78.9623 1096.56 431.876
1891 0 100.137 11.7439 1176 77.5391 1096.17 430.495
1892 0 104.206 11.2853 1176 77.2764 1096.22 430.399
1893 0 109.217 11.3627 1241 77.8791 1095.96 427.334
1894 1 51.0667 10.8681 555 74.4036 1096.07 454.912
1895 0 53.033 10.2766 545 74.8862 1096.56 454.594
1896 0 56.0264 11.9586 670 75.3358 1097 452.322
1897 0 60.0353 12.3094 739 72.4032 1096.19 453.134
1898 0 62.0582 13.1651 817 72.2742 1095.56 451.907
1899 0 65.1206 13.8512 902 70.7273 1096.37 451.131
1900 0 65.1378 12.7576 831 74.6462 1095.39 451.11
1901 0 67.0856 12.2828 824 75.5777 1095.71 449.602
1902 0 70.0734 12.9436 907 75.5568 1095.93 447.176
1903 0 71.1287 12.8078 911 76.9693 1095.83 447.633
1904 0 74.1023 12.6582 938 77.6866 1095.39 447.307
1905 0 76.0786 12.4345 946 79.9725 1095.46 445.585
1906 0 78.1017 11.9972 937 82.9605 1095.07 443.06
1907 0 80.098 12.4473 997 82.8365 1095.28 441.941
1908 0 83.0454 12.7761 1061 83.1838 1094.84 438.944
1909 0 86.205 12.4935 1077 83.3296 1095.15 439.499
1910 0 88.1126 12.4273 1095 82.0877 1094.9 434.251
1911 0 88.0924 12.1009 1066 82.9597 1094.72 432.854
1912 0 93.1115 12.63 1176 82.8537 1094.82 432.659
1913 0 95.1649 12.3365 1174 84.5349 1094.89 431.025
1914 0 98.1434 12.1761 1195 85.2979 1094.86 430.615
1915 0 101.126 12.0542 1219 86.2387 1094.27 428.643
1916 1 53.0513 10.8386 575 85.0504 1094.16 451.483
1917 0 56.0677 11.6823 655 83.3756 1094.18 451.398
1918 0 58.1284 11.6294 676 81.9127 1094.29 449.423
1919 0 60.0847 12.0996 727 81.1472 1093.69 448.089
1920 0 62.0975 12.1905 757 82.6803 1094.67 445.804
1921 0 67.0855 12.4319 834 80.5827 1094.67 447.649
1922 0 67.0997 12.6677 850 79.8259 1094.29 445.684
1923 0 68.0304 11.9652 814 76.4165 1094.33 445.952
1924 0 69.0517 11.6145 802 78.9302 1094.22 446.719
1925 0 69.0731 11.7267 810 80.1852 1095.12 446.004
1926 0 72.0286 11.8564 854 80.7049 1094.49 444.874
1927 0 75.0274 11.7557 882 82.2222 1094.82 443.536
1928 0 77.0319 11.5277 888 83.4538 1094.16 440.928
1929 0 79.0653 11.5348 912 84.3783 1094.15 440.504
1930 0 85.1926 12.7476 1086 87.4226 1094.26 443.902
1931 0 87.2464 12.8601 1122 88.2228 1093.84 442.427
1932 0 90.1012 13.1075 1181 87.6029 1094.37 440.964
1933 0 91.0894 12.6469 1152 88.1033 1094.09 438.785
1934 0 93.1552 12.6241 1176 88.8019 1094.42 437.453
1935 0 97.1377 12.7551 1239 87.2316 1094.03 435.17
1936 0 100.061 13.4318 1344 86.3728 1093.83 428.553
1937 0 106.088 14.2994 1517 85.5623 1093.47 428.291
1938 0 106.097 14.2135 1508 140.913 1092.47 428.182
1939 1 56.0273 10.9589 614 92.3567 1094.63 453.972
1940 0 61.0308 11.6663 712 90.2261 1094.6 452.785
1941 0 60.0607 12.8204 770 88.5312 1094.54 453.358
1942 0 65.1182 12.4543 811 86.1048 1094.32 450.953
1943 0 65.0406 12.1924 793 87.3342 1093.65 449.874
1944 0 69.1592 11.8712 821 87.8721 1094.17 449.2
1945 0 72.1421 11.9486 862 83.5255 1093.82 447.645
1946 0 75.1204 11.9941 901 82.4306 1094.11 447.028
1947 0 78.0557 12.5551 980 80.6031 1094.11 447.326
1948 0 78.0788 11.9367 932 85.1137 1093.63 443.758
1949 0 81.0496 12.042 976 85.0912 1094.14 441.999
1950 0 84.083 11.9763 1007 82.3178 1093.96 441.194
1951 0 86.073 12.2222 1052 83.5856 1093.81 439.853
1952 0 88.0766 12.0463 1061 85.7003 1094.24 437.964
1953 0 91.0514 12.2129 1112 85.3777 1094.44 437.443
1954 0 93.1153 11.8348 1102 87.0517 1094.55 435.96
1955 0 94.1172 12.9519 1219 85.7129 1093.83 434.278
1956 0 96.0882 12.7695 1227 87.7751 1094.23 433.348
1957 0 99.0925 12.5237 1241 89.7188 1093.95 433.154
1958 0 103.086 12.9697 1337 92.5819 1094.6 432.901
1959 0 105.202 13.4599 1416 93.9492 1093.81 435.558
1960 0 109.159 12.7796 1395 94.372 1094.08 434.362
1961 0 111.204 12.8592 1430 94.8846 1093.86 433.593
1962 0 115.062 12.6453 1455 95.701 1094.12 434.102
1963 0 118.124 13.4012 1583 94.1725 1093.5 431.202
1964 0 120.13 13.1524 1580 95.6861 1094.48 429.779
1965 0 124.153 12.8713 1598 96.1239 1094.26 428.521
1966 0 126.099 12.9025 1627 96.7455 1093.82 426.981
1967 0 131.213 12.3844 1625 98.0308 1094.27 423.561
1968 0 134.184 12.8033 1718 97.3912 1094.41 420.633
1969 0 140.298 13.3929 1879 95.0713 1093.63 419.626
1970 0 146.26 13.3324 1950 96.4867 1093.45 416.467
1971 0 151.396 13.4812 2041 98.998 1093.71 412.625
1972 1 62.0775 10.6802 663 91.9382 1093.45 459.739
1973 0 65.1022 11.6586 759 89.4888 1093.74 457.643
1974 0 66.074 12.032 795 91.522 1094.7 456.504
1975 0 67.1684 10.764 723 81.5131 1094.35 459.68
1976 0 68.1663 11.0905 756 80.7897 1094.05 457.724
1977 0 72.2274 10.4531 755 81.5788 1094.06 456.944
1978 0 74.0847 10.9199 809 81.0865 1093.53 454.608
1979 0 76.1244 11.0346 840 81.406 1094.22 453.099
1980 0 78.0922 10.3211 806 83.1067 1093.94 453.741
1981 0 82.1353 10.6775 877 81.5222 1093.36 450.542
1982 0 85.143 11.2399 957 80.8736 1093.64 449.493
1983 1 43.1124 10.7858 465 78.6903 1093.78 468.998
1984 0 45.1216 11.4136 515 77.0175 1093.81 468.767
1985 0 48.0602 11.7977 567 76.2981 1093.72 467.845
1986 0 48.0362 11.8452 569 76.9824 1094.32 465.054
1987 0 48.0695 11.1297 535 78.9084 1093.76 467.847
1988 0 46.0267 9.82038 452 80.6018 1093.96 467.597
1989 0 49.117 11.0552 543 78.2707 1093.65 465.7
1990 0 50.1021 10.9576 549 77.9836 1094.41 466.362
1991 0 50.0996 9.96016 499 80.9699 1094.11 463.956
1992 0 54.0897 11.1851 605 78.1851 1094.83 464.883
1993 0 54.1296 9.53268 516 80.407 1093.82 464.75
1994 0 56.0705 10.4511 586 79.3925 1094.01 463.046
1995 0 58.0906 10.2254 594 79.6784 1093.99 463.066
1996 0 60.0603 10.9557 658 79.8419 1093.07 460.41
1997 0 62.1657 10.2146 635 81.1921 1094.25 459.098
1998 0 65.0924 10.7693 701 80.7147 1093.64 455.902
1999 0 66.0792 11.2138 741 79.4238 1093.98 456.993
2000 0 67.104 10.4614 702 80.2578 1093.25 456.457
2001 0 70.101 10.3993 729 79.893 1093.91 454.802
2002 0 72.1299 10.7861 778 79.8265 1093.85 451.983
2003 0 74.1359 10.9394 811 79.3194 1093.96 452.841
2004 0 79.1392 10.968 868 77.1233 1093.96 450.84
2005 0 80.153 11.0539 886 79.386 1093.6 450.104
2006 0 80.153 10.954 878 123.565 1093.6 450.129
2007 0 86.2825 11.358 980 78.9143 1093.66 447.01
2008 0 90.5043 11.0381 999 79.5916 1093.69 445.007
2009 0 91.232 11.6407 1062 82.2938 1093.13 443.192
2010 1 51.1501 10.6745 546 80.2656 1093.35 460.559
2011 0 53.1567 11.8706 631 77.9192 1093.24 462.932
2012 0 55.0841 12.9983 716 77.669 1093.44 462.128
2013 0 55.0292 12.7932 704 79.3338 1093.44 461.639
2014 0 58.0585 12.6596 735 80.3442 1093.68 460.574
2015 0 60.166 12.7481 767 85.1982 1094.11 459.229
2016 0 60.0695 12.4189 746 85.3271 1092.97 457.824
2017 0 61.108 12.6661 774 85.177 1093.59 457.91
2018 0 62.1963 12.7499 793 85.2156 1093.49 455.652
2019 0 65.0732 13.262 863 83.5377 1093.6 454.16
2020 0 72.1369 13.3496 963 81.9751 1093.31 451.182
2021 0 72.2871 13.5294 978 83.1278 1093.27 449.954
2022 0 74.2109 13.7177 1018 83.4843 1093.3 448.054
2023 0 77.359 13.4438 1040 83.4519 1093.6 447.221
2024 0 78.2339 13.6386 1067 84.5745 1093.83 445.763
2025 0 81.1452 13.5806 1102 84.1143 1092.74 445.557
2026 0 84.1939 14.1222 1189 83.0084 1093.84 443.65
2027 0 85.3253 13.8294 1180 84.6754 1092.93 442.92
2028 0 88.3621 13.8634 1225 83.0686 1093.25 445.236
2029 0 92.1162 13.8412 1275 82.9286 1092.26 441.768
2030 0 95.2975 13.3896 1276 83.7704 1092.69 440.335
2031 0 98.1701 13.6192 1337 83.2625 1093.1 439.76
2032 1 52.2817 12.1457 635 78.2898 1093.04 462.953
2033 0 52.3029 12.3511 646 78.7755 1093.06 463.735
2034 0 57.4615 12.7564 733 78.7326 1093.29 462.011
2035 0 56.089 12.605 707 83.4965 1092.79 459.802
2036 0 59.1534 12.8987 763 82.7326 1092.61 459.026
2037 0 61.1192 12.7456 779 81.276 1093.54 457.979
2038 0 62.1144 13.2819 825 81.0703 1093.33 456.645
2039 0 63.0417 12.7535 804 81.9055 1093.35 453.92
2040 0 65.0844 12.6144 821 81.4689 1093.21 454.313
2041 0 72.0741 14.2215 1025 77.521 1093.59 454.96
2042 0 72.0727 13.8471 998 78.5651 1093.28 455.508
2043 0 76.1398 13.7379 1046 78.5421 1093.19 454.13
2044 0 76.0607 13.6075 1035 80.7034 1092.81 452.222
2045 0 81.2018 13.5342 1099 80.1165 1093.75 450.848
2046 0 82.2592 13.5669 1116 82.2061 1093.48 448.799
2047 0 85.0986 14.1483 1204 82.064 1093.07 446.476
2048 0 87.2005 14.1742 1236 82.6197 1093.5 446.465
2049 0 89.1202 14.1046 1257 83.5497 1092.88 444.451
2050 0 90.1381 13.9564 1258 84.6153 1093.16 444.06
2051 0 93.2324 13.8149 1288 84.6646 1092.86 442.769
2052 0 98.123 14.3188 1405 82.6427 1093.22 442.73
2053 0 102.141 14.7541 1507 82.2807 1093.06 440.231
2054 0 104.135 14.9613 1558 82.4737 1093.98 439.049
2055 0 108.192 13.7719 1490 85.0154 1092.9 437.21
2056 0 112.221 13.9902 1570 84.5631 1093.26 436.272
2057 1 59.161 12.8125 758 80.3061 1093.5 460.387
2058 0 61.139 11.9891 733 81.6371 1093.75 459.274
2059 0 64.0683 12.6896 813 81.738 1093.71 457.619
2060 0 66.0526 13.2167 873 80.8041 1093.07 457.436
2061 0 69.3126 13.0279 903 81.9767 1093.27 456.341
2062 0 72.2255 13.2917 960 87.0833 1093.68 455.727
2063 0 73.1796 13.1048 959 88.755 1093.82 454.998
2064 0 74.1765 13.1308 974 162.518 1093.82 454.588
2065 0 77.2843 13.0169 1006 88.2366 1093.85 451.168
2066 0 80.2621 13.4933 1083 87.6547 1094.03 450.416
2067 0 82.2501 12.2431 1007 86.6683 1093.8 449.798
2068 0 85.3628 12.277 1048 87.7223 1093.96 448.05
2069 0 86.2899 12.3653 1067 89.2324 1093.39 446.741
2070 0 91.2401 12.637 1153 88.3114 1094.11 447.026
2071 0 94.1595 12.4894 1176 88.6675 1094.01 443.779
2072 0 96.5814 12.6732 1224 89.9069 1094.17 442.669
2073 0 99.297 12.9208 1283 90.2346 1094.51 440.306
2074 0 101.336 12.4635 1263 91.597 1093.88 437.718
2075 0 103.396 12.3506 1277 92.3367 1093.09 436.577
2076 1 55.2311 11.6058 641 88.4992 1093.28 460.832
2077 0 58.3108 12.279 716 91.1955 1092.85 457.355
2078 0 59.1287 12.6335 747 95.7095 1093.35 456.909
2079 0 62.1731 12.2561 762 89.1798 1092.61 455.273
2080 0 64.0982 12.3872 794 90.8237 1092.94 454.582
2081 0 67.1044 12.488 838 90.148 1092.45 452.685
2082 0 69.0691 12.1762 841 90.484 1092.96 452.201
2083 0 71.0874 12.562 893 89.9574 1092.97 450.886
2084 0 73.0433 12.5131 914 90.2112 1093.57 449.791
2085 0 76.1134 12.7836 973 88.8931 1093.17 448.274
2086 0 77.0622 11.9903 924 90.8149 1093.42 445.872
2087 0 80.0532 12.6541 1013 88.7897 1093.29 446.046
2088 0 81.161 12.161 987 90.2888 1093.99 444.223
2089 0 85.0637 12.2496 1042 89.9127 1093.77 442.678
2090 0 89.09 12.9644 1155 87.2009 1093.23 441.558
2091 0 91.117 12.9943 1184 88.2221 1092.98 439.238
2092 0 92.0737 11.5994 1068 90.823 1093.64 436.798
2093 0 96.069 12.2932 1181 87.9238 1093.43 435.598
2094 0 100.087 12.3492 1236 87.5534 1093.55 433.389
2095 0 103.081 12.2816 1266 87.9826 1093.18 433.336
2096 1 54.0144 10.9785 593 80.7707 1093.64 461.174
2097 0 54.0615 11.006 595 80.884 1093.15 459.667
2098 0 55.2208 10.8292 598 81.0853 1093.55 459.069
2099 0 56.076 11.7876 661 81.4387 1094 457.413
2100 0 57.0877 10.7379 613 82.2333 1093.64 456.891
2101 0 58.1567 10.7984 628 82.0271 1094.48 457.328
2102 0 60.0779 10.4364 627 83.4785 1094.07 454.638
2103 0 64.056 11.1309 713 81.3843 1094.19 453.576
2104 0 66.1238 11.9322 789 80.1458 1093.25 450.44
2105 0 68.087 11.8084 804 79.9776 1093.67 450.199
2106 0 69.0578 11.3963 787 80.2122 1093.49 449.352
2107 0 73.0727 11.5228 842 79.8753 1093.41 449.363
2108 0 77.1074 11.4645 884 79.9072 1093.64 446.645
2109 0 77.1177 11.5278 889 80.955 1093.76 443.832
2110 0 82.1548 12.306 1011 79.09 1094.09 444.724
2111 0 84.0889 12.7127 1069 80.4471 1094.02 442.004
2112 0 89.1518 12.7087 1133 80.8217 1093.85 439.516
2113 1 45.0492 11.5651 521 83.9136 1093.97 461.175
2114 0 47.1407 11.7945 556 85.054 1094.2 459.935
2115 0 47.1212 13.1151 618 82.5453 1094.31 458.602
2116 0 49.1902 13.2343 651 81.7819 1094.2 457.515
2117 0 51.2218 14.1346 724 79.7818 1094.24 458.999
2118 0 54.2917 14.2011 771 77.6939 1093.69 458.073
2119 0 53.3168 13.7668 734 78.9618 1093.97 458.191
2120 0 55.2875 13.1494 727 82.4773 1093.69 455.638
2121 0 57.1234 14.2323 813 79.8524 1093.26 453.544
2122 0 58.1878 13.9204 810 79.3333 1093.68 454.08
2123 0 61.2165 14.3752 880 78.4125 1094.18 452.6
2124 0 63.1661 13.9949 884 79.7161 1093.56 450.948
2125 0 64.2366 14.2287 914 79.3392 1095.05 451.267
2126 0 64.2366 14.3221 920 133.818 1097.09 451.21
2127 0 71.1454 13.9854 995 80.6362 1094.21 449.356
2128 0 72.1602 14.3431 1035 80.4 1094.52 447.957
2129 0 72.1539 14.2612 1029 81.9728 1094.42 447.018
2130 0 75.0951 14.435 1084 81.2389 1094.73 445.985
2131 0 77.1775 14.214 1097 82.5087 1094.89 444.346
2132 0 77.1086 13.2022 1018 85.1935 1095.02 446.088
2133 0 80.1568 13.748 1102 84.3956 1094.95 443.991
2134 0 82.1888 13.2743 1091 86.6398 1095.33 443.063
2135 0 85.2236 13.4118 1143 85.6938 1095.6 442.395
2136 0 88.1506 14.3391 1264 83.5997 1094.72 439.377
2137 0 89.1731 13.1766 1175 86.554 1095 437.883
2138 0 92.083 13.5747 1250 86.0752 1095.1 437.168
2139 0 96.1939 13.1505 1265 85.9059 1094.95 437.178
2140 0 98.1646 13.1819 1294 86.9436 1095.54 432.867
2141 0 101.182 13.2039 1336 87.262 1095.11 431.126
2142 1 51.0768 12.4518 636 90.5047 1094.8 455.752
2143 0 54.082 14.2746 772 86.2914 1094.69 450.933
2144 0 54.0402 13.712 741 88.9055 1094.64 449.112
2145 0 57.0495 14.3209 817 87.5251 1094.25 448.301
2146 0 59.0672 14.0179 828 88.5242 1094.71 448.024
2147 0 58.0879 14.0477 816 90.6667 1094.51 448.173
2148 0 62.0762 13.7412 853 89.6741 1094.99 448.631
2149 0 63.0411 14.7523 930 88.2086 1094.87 447.91
2150 0 64.089 14.1522 907 90.3275 1094.85 446.154
2151 0 68.0972 13.9066 947 90.3728 1094.19 446.397
2152 0 66.1892 14.0355 929 92.1755 1094.57 445.125
2153 0 70.0999 14.4936 1016 90.0571 1095.37 445.826
2154 0 73.1774 13.6381 998 91.4339 1095.38 446.244
2155 0 74.1309 14.0158 1039 92.0125 1095.29 442.826
2156 0 74.1217 13.6262 1010 94.3931 1095.25 441.71
2157 0 78.1487 14.4468 1129 94.9132 1095.02 440.596
2158 0 79.1399 13.8363 1095 93.4858 1094.26 441.303
2159 0 83.1686 14.3203 1191 91.3736 1095.09 438.768
2160 0 85.0675 15.0351 1279 90.9937 1095.26 437.941
2161 0 86.0955 14.5072 1249 93.6037 1094.83 436.182
2162 0 90.0314 14.2839 1286 93.5179 1095.04 433.965
2163 0 93.1265 14.6145 1361 92.194 1095.09 433.506
2164 0 96.0729 14.4057 1384 92.3309 1095.29 432.581
2165 0 98.144 14.3259 1406 93.0398 1095.42 430.644
2166 0 101.129 14.2491 1441 91.8348 1094.82 429.217
2167 0 108.132 13.9274 1506 90.7417 1095.69 427.726
2168 0 112.122 14.0293 1573 90.0057 1095.01 425.683
2169 0 117.077 13.8627 1623 88.374 1095.46 424.187
2170 0 121.14 14.2893 1731 86.4304 1095.36 422.258
2171 0 126.084 14.5379 1833 86.269 1095.29 419.029
2172 1 70.0404 12.3357 864 86.5463 1094.88 449.985
2173 0 73.0317 12.9259 944 86.4852 1095.44 447.713
2174 0 76.0874 13.5896 1034 84.9874 1094.93 446.029
2175 0 76.0874 13.6159 1036 155.842 1093.92 446.071
2176 0 82.0848 14.1439 1161 88.2291 1095.59 442.918
2177 0 83.0434 13.7278 1140 88.8579 1095.09 442.632
2178 0 86.0437 13.8767 1194 89.0729 1095.47 442.04
2179 0 88.0652 14.0805 1240 89.0645 1096.29 439.358
2180 0 90.0405 14.338 1291 90.0023 1095.88 438.683
2181 0 93.0515 14.046 1307 90.4032 1095.55 437.657
2182 0 94.093 14.1987 1336 91.8645 1095.51 436.396
2183 0 98.1411 14.7339 1446 92.9924 1095.65 435.807
2184 0 100.068 14.4401 1445 94.3093 1095.66 436.554
2185 0 105.088 14.6449 1539 93.306 1095.2 434.209
2186 0 107.089 14.0911 1509 95.0411 1095.13 431.934
2187 0 109.068 14.4222 1573 93.5976 1095.58 430.31
2188 0 113.081 14.0077 1584 93.5006 1095.28 428.033
2189 0 119.112 14.3982 1715 92.3749 1095 426.474
2190 0 124.184 14.6718 1822 90.6959 1095.59 425.483
2191 0 126.042 13.8367 1744 94.4725 1095.39 421.494
2192 0 132.057 14.5543 1922 93.5536 1095.59 419.563
2193 1 73.0979 11.9566 874 90.1396 1095.9 451.621
2194 0 76.1019 12.9826 988 89.9109 1095.85 450.547
2195 0 74.1329 12.6664 939 92.3706 1096.01 448.678
2196 0 78.0583 13.2465 1034 89.9913 1095.65 447.291
2197 0 81.0808 12.8514 1042 89.1804 1095.8 447.722
2198 0 80.2094 12.3676 992 91.5343 1095.65 446.267
2199 0 85.1332 12.7682 1087 89.1702 1096.33 444.212
2200 0 86.0567 12.1315 1044 89.9521 1096.51 443.782
2201 0 88.0872 12.0562 1062 89.6375 1096.19 441.199
2202 0 93.1803 13.4578 1254 85.4904 1095.71 439.743
2203 0 96.2174 12.6796 1220 85.9418 1095 437.912
2204 0 97.0861 11.9585 1161 87.6339 1096.18 435.209
2205 0 100.191 12.8654 1289 84.8875 1095.91 436.713
2206 0 102.206 12.1911 1246 86.3692 1095.84 432.659
2207 0 104.166 12.5473 1307 85.8493 1094.87 432.998
2208 0 108.127 12.4206 1343 85.4192 1095.19 428.39
2209 0 113.09 12.0965 1368 85.3567 1094.94 427.77
2210 0 116.107 12.144 1410 84.8766 1095.09 427.699
2211 0 119.112 10.7042 1275 86.8745 1094.52 426.431
2212 0 123.158 11.2539 1386 86.4069 1094.87 424.405
2213 0 131.067 11.4598 1502 84.518 1094.97 423.179
2214 0 135.124 11.9372 1613 84.098 1094.93 419.989
2215 0 140.157 11.5656 1621 84.5614 1095.13 417.253
2216 1 78.0788 11.4115 891 83.7262 1095.39 446.725
2217 0 81.1296 11.1303 903 84.5183 1095.19 444.427
2218 0 81.2037 11.8837 965 82.9627 1094.03 439.362
2219 0 85.1048 12.9957 1106 82.7821 1094.42 441.944
2220 0 85.0912 12.6335 1075 82.733 1094.67 443.411
2221 0 90.1352 12.0819 1089 83.0487 1095.19 441.709
2222 0 93.1783 12.2346 1140 83.5772 1095.02 440.454
2223 0 94.2627 11.6907 1102 85.3094 1095.53 440.904
2224 0 96.1141 11.8193 1136 83.5748 1094.98 436.093
2225 0 98.137 13.1551 1291 81.3253 1094.07 434.028
2226 0 103.163 12.8437 1325 81.1736 1094.46 433.799
2227 0 105.106 12.1973 1282 81.2972 1094.91 428.172
2228 0 109.16 13.4023 1463 82.1531 1095.15 426.016
2229 0 111.108 13.1854 1465 83.4724 1094.69 427.107
2230 0 114.147 12.9395 1477 83.4232 1095.03 423.072
2231 0 118.136 13.4506 1589 82.4386 1094.24 421.368
2232 0 124.186 13.0128 1616 82.2902 1094.35 420.702
2233 0 124.195 12.6414 1570 83.7599 1094.02 419.592
2234 0 128.247 12.1095 1553 84.4469 1094.78 418.903
2235 0 131.189 12.5926 1652 84.6792 1094.3 418.473
2236 0 136.321 12.9401 1764 83.5941 1093.5 417.127
2237 0 141.318 12.256 1732 84.892 1094.08 414.844
2238 0 148.19 12.6797 1879 85.1581 1093.58 410.803
2239 1 81.2742 11.1474 906 78.5188 1093.3 445.099
2240 0 82.391 11.4211 941 78.5473 1093.58 443.318
2241 0 83.1011 11.829 983 80.9725 1093.77 443.255
2242 0 90.0922 12.7758 1151 80.252 1094.38 445.488
2243 0 91.1711 12.5807 1147 81.1229 1094.09 444.759
2244 0 91.1405 12.179 1110 83.4748 1093.74 442.82
2245 0 95.1052 12.5861 1197 82.4277 1094.8 443.616
2246 0 100.154 13.599 1362 81.1792 1094.41 442.024
2247 0 102.283 13.7951 1411 81.7888 1094.52 440.398
2248 0 105.235 13.8737 1460 82.5425 1094.46 437.279
2249 0 108.336 14.0028 1517 82.8919 1094.63 437.492
2250 0 112.219 14.6678 1646 86.2934 1094.15 433.072
2251 0 113.374 14.0773 1596 87.8797 1094.36 432.139
2252 0 116.264 13.8564 1611 89.7983 1094.04 430.584
2253 0 121.196 14.588 1768 87.7393 1093.69 430.113
2254 0 124.108 14.294 1774 89.6342 1094.48 424.935
2255 0 128.107 14.5113 1859 89.1538 1094.9 424.347
2256 0 132.155 14.0215 1853 90.0464 1094.5 422.785
2257 0 135.081 14.4506 1952 88.9252 1095.08 420.552
2258 0 137.175 14.3903 1974 89.5785 1094.51 416.42
2259 0 143.107 14.1712 2028 89.9349 1094.31 416.623
2260 0 146.173 14.0382 2052 89.9123 1095.14 416.505
2261 0 150.181 13.537 2033 90.5814 1094.7 414.146
2262 0 153.21 13.7981 2114 92.0236 1093.64 409.557
2263 0 160.264 13.6899 2194 90.882 1094.55 409.175
2264 0 169.356 14.4489 2447 91.9959 1094.54 408.076
2265 0 175.382 14.3173 2511 92.738 1094.75 404.502
2266 0 180.233 14.3203 2581 92.8818 1094.53 400.315
2267 1 101.102 13.3826 1353 87.1072 1094.94 442.902
2268 0 106.107 13.3262 1414 88.6662 1095.03 441.025
2269 0 107.161 12.9152 1384 94.3562 1095.17 438.587
2270 0 113.15 13.9196 1575 90.9219 1094.53 436.721
2271 0 116.18 13.8492 1609 92.7955 1095.25 436.466
2272 0 121.205 14.1496 1715 93.4052 1095.12 432.867
2273 0 125.239 14.4443 1809 93.3875 1094.74 429.604
2274 0 130.191 13.726 1787 92.5898 1094.55 426.883
2275 0 134.239 13.9602 1874 92.389 1094.5 424.475
2276 0 138.217 14.2964 1976 92.0486 1094.11 422.797
2277 1 73.1726 11.917 872 89.0791 1093.82 455.603
2278 0 75.0985 12.5835 945 85.3608 1094.76 453.71
2279 0 75.0985 12.5968 946 158.034 1095.75 453.732
2280 0 78.1389 12.081 944 80.0487 1093.88 455.74
2281 0 81.2329 12.3103 1000 79.9 1094.58 452.481
2282 0 83.2413 12.3376 1027 81.4119 1094.95 452.013
2283 0 86.2055 12.8994 1112 80.8732 1094.43 451.103
2284 0 88.3652 12.3918 1095 80.6082 1093.94 449.535
2285 0 91.1524 12.7479 1162 79.8528 1093.97 447.738
2286 0 94.3067 11.6429 1098 81.1612 1093.34 447.728
2287 0 97.2206 11.6025 1128 80.6888 1094.51 448.168
2288 0 100.181 12.1481 1217 80.8357 1094.53 444.559
2289 0 103.4 11.3927 1178 83.1664 1094.5 442.16
2290 0 106.262 11.6975 1243 82.9895 1094.58 440.682
2291 0 110.406 11.6932 1291 84.2982 1094.16 441.822
2292 1 59.1024 11.3532 671 85.7154 1094.21 459.568
2293 0 61.0263 12.552 766 86.1828 1094.84 461.27
2294 0 62.0957 11.8688 737 84.0801 1094.38 457.761
2295 0 62.0591 12.1497 754 84.5318 1094.9 459.354
2296 0 66.1039 12.3593 817 82.9498 1094.04 457.731
2297 0 68.0581 13.1212 893 82.2979 1093.83 456.952
2298 0 69.054 12.4395 859 85.6426 1093.94 454.683
2299 0 73.1155 12.6102 922 85.2256 1093.94 453.385
2300 0 75.0759 12.9602 973 83.9188 1094.24 450.85
2301 0 75.0861 12.6921 953 85.021 1094.14 450.489
2302 0 75.0861 12.5856 945 129.023 1094.14 450.519
2303 0 82.1225 13.5286 1111 82.9748 1092.87 447.257
2304 0 82.1238 13.5162 1110 127.888 1091.88 447.175
2305 0 87.1082 12.7198 1108 84.9838 1093.35 443.135
2306 0 90.0826 12.9992 1171 83.8745 1094.27 443.89
2307 0 92.0748 13.2718 1222 83.7905 1093.8 442.218
2308 0 95.1062 13.4902 1283 83.8441 1094.25 440.346
2309 0 97.1133 13.2938 1291 84.9171 1094.53 439.723
2310 0 103.05 13.8865 1431 83.0475 1094.42 439.622
2311 0 109.056 14.433 1574 80.9136 1094.43 436.964
2312 0 112.152 14.0613 1577 81.4192 1094.74 437.689
2313 0 116.147 14.1889 1648 81.8082 1094.27 435.422
2314 0 120.075 14.8324 1781 80.4346 1094.69 431.594
2315 0 126.253 14.7165 1858 79.3488 1094.7 429.626
2316 1 72.0656 12.0307 867 78.7128 1094.47 456.745
2317 0 74.0647 12.7996 948 77.5643 1093.25 455.664
2318 0 77.0914 12.323 950 79.9053 1094.14 454.053
2319 0 80.1259 12.9546 1038 79.3497 1094.11 451.309
2320 0 82.0598 12.5518 1030 80.1437 1094.33 448.719
2321 0 86.1258 12.6095 1086 80.3131 1093.97 448.976
2322 0 87.104 13.1222 1143 78.9309 1093.84 445.783
2323 0 89.0987 12.8734 1147 79.497 1093.95 444.249
2324 0 93.0689 13.0978 1219 78.9565 1094.39 441.777
2325 0 97.1396 12.971 1260 78.931 1094.81 440.059
2326 0 97.1644 12.5252 1217 80.438 1094.59 438.378
2327 0 102.108 12.7317 1300 79.9862 1094.78 436.192
2328 0 106.194 13.0986 1391 79.1891 1094.98 430.15
2329 0 109.201 13.1225 1433 79.9616 1094.92 429.199
2330 0 112.092 12.8376 1439 80.7623 1095.7 428.912
2331 0 115.135 12.6981 1462 81.0937 1094.85 426.237
2332 0 115.135 12.7589 1469 143.815 1094.84 426.202
2333 1 62.1098 11.7051 727 79.447 1094.65 448.282
2334 0 63.1704 11.5244 728 73.5536 1095.04 447.367
2335 0 71.159 11.6078 826 69.9588 1095.08 452.183
2336 0 72.0485 11.6866 842 70.791 1095.76 449.868
2337 0 75.1201 11.5814 870 70.7368 1095.44 449.518
2338 0 75.1795 11.3994 857 72.762 1095.41 447.018
2339 0 81.3453 12.2687 998 73.2405 1095.78 449.488
2340 0 83.1296 12.7752 1062 74.1507 1095.72 449.59
2341 0 85.0591 12.0152 1022 76.0842 1095.63 447.712
2342 0 89.0787 12.4721 1111 75.4041 1095.51 447.654
2343 0 89.1941 12.1308 1082 76.7477 1096.14 447.341
2344 0 89.1941 11.9963 1070 155.258 1097.13 447.179
2345 0 96.1157 12.3289 1185 76.0962 1095.24 445.74
2346 0 100.164 12.1501 1217 76.5842 1095.09 446.362
2347 0 102.179 13.1632 1345 75.9353 1094.76 441.616
2348 0 105.137 13.3921 1408 75.1207 1095.23 440.915
2349 0 107.117 12.7244 1363 76.5004 1095.12 442.216
2350 0 110.161 12.509 1378 78.8476 1094.84 439.764
2351 0 114.136 12.082 1379 80.0616 1094.6 438.545
2352 0 117.259 12.579 1475 79.7675 1093.86 436.493
2353 0 121.174 12.8328 1555 80.8096 1093.7 436.504
2354 0 126.177 13.5603 1711 85.4489 1094.68 429.622
2355 1 67.1275 11.4707 770 81.174 1094.53 458.858
2356 0 71.1558 12.4797 888 77.4054 1093.64 460.757
2357 0 71.123 12.8088 911 81.3502 1094.33 454.422
2358 0 73.3583 11.9278 875 83.0469 1094.3 453.72
2359 0 74.2537 12.3496 917 83.7928 1093.55 452.589
2360 0 74.1907 12.4544 924 84.4383 1093.44 452.634
2361 0 80.3769 12.9017 1037 81.8968 1092.96 451.911
2362 0 82.2916 12.6866 1044 82.9023 1093.2 450.016
2363 0 85.0816 13.3284 1134 84.5635 1092.33 452.271
2364 0 90.3338 13.749 1242 83.657 1092.26 450.761
2365 0 91.1933 13.2356 1207 85.8782 1091.98 448.84
2366 0 95.265 14.1815 1351 83.8949 1091.58 448.079
2367 0 95.2582 13.6261 1298 86.7851 1091.92 445.032
2368 0 98.1641 13.5895 1334 82.5405 1091.72 448.762
2369 0 99.1887 13.2878 1318 83.9029 1093.03 447.213
2370 0 104.17 13.718 1429 84.471 1091.66 444.903
2371 0 104.232 13.0766 1363 87.3353 1092.25 445.266
2372 0 109.145 13.1751 1438 86.8936 1092.65 443.809
2373 0 110.205 12.9849 1431 89.2166 1092.59 443.249
2374 0 114.197 13.179 1505 89.3422 1092.29 439.99
2375 0 117.419 13.4476 1579 89.8081 1092.59 436.92
2376 0 121.113 13.541 1640 90.3518 1092.45 434.263
2377 0 125.071 13.8401 1731 89.859 1093.08 434.928
2378 0 130.161 13.8597 1804 89.7178 1092.55 433.11
2379 0 134.224 14.3268 1923 91.3869 1092.89 429.267
2380 0 137.177 14.0548 1928 92.2308 1093.12 426.669
2381 0 141.147 14.6089 2062 92.2813 1092.84 424.013
2382 0 145.29 14.6604 2130 91.8225 1092.41 420.052
2383 0 148.182 15.1233 2241 92.9572 1092.42 417.352
2384 0 153.261 14.8635 2278 91.2937 1092.24 418.232
2385 0 157.188 14.5494 2287 93.2855 1093.05 414.689
2386 0 162.281 14.444 2344 94.1199 1092.61 411.313
2387 0 169.587 15.5495 2637 92.6534 1091.95 408.694
2388 0 171.191 14.9658 2562 93.1261 1092.45 408.534
2389 0 177.347 15.3259 2718 95.4154 1092.37 402.483
2390 0 182.358 15.2667 2784 95.5417 1092.47 400.258
2391 0 187.309 15.2048 2848 94.0952 1092.44 398.834
2392 0 193.298 15.1424 2927 92.644 1092.29 397.209
2393 0 199.264 14.8547 2960 92.4659 1092.32 393.675
2394 0 206.27 15.7949 3258 90.0844 1092.65 390.672
2395 0 211.217 15.8131 3340 91.6949 1092.61 388.016
2396 0 214.357 15.1849 3255 95.8842 1092.94 385.759
2397 0 224.323 15.1255 3393 95.2753 1092.69 381.496
2398 1 173.109 13.3211 2306 97.2285 1093.28 410.798
2399 0 179.13 13.5823 2433 97.0452 1093.22 405.902
2400 0 183.151 13.3824 2451 98.9123 1093.03 401.989
2401 0 190.177 14.6495 2786 99.5072 1093.5 395.784
2402 0 196.167 14.9006 2923 99.6008 1093.58 392.375
2403 0 203.163 14.2102 2887 101.467 1093.9 389.493
2404 0 209.214 14.76 3088 99.511 1094.3 388.482
2405 0 215.322 14.8894 3206 92.6572 1094.01 385.352
2406 0 222.237 15.1685 3371 98.7837 1093.96 381.684
2407 0 228.234 14.7174 3359 100.084 1094.79 379.235
2408 0 228.234 14.7174 3359 173.382 1094.79 379.392
2409 1 301.263 11.1165 3349 104.89 1094.13 367.316
2410 0 300.283 11.9088 3576 104.758 1093.82 360.424
2411 0 301.445 13.3888 4036 103.584 1094.22 349.741
2412 1 274.315 20.4801 5618 85.3396 1094.28 339.112
2413 0 277.555 19.4448 5397 89.3428 1095.22 344.583
2414 1 59.198 11.622 688 86.6948 1095.35 460.895
2415 0 63.1906 12.5177 791 87.2465 1095.8 461.11
2416 0 61.3343 12.815 786 92.8435 1095.57 459.683
2417 0 64.1745 13.027 836 92.4151 1095.69 458.532
2418 0 66.1728 13.0265 862 94.3724 1095.62 458.68
2419 0 68.2186 13.1929 900 94.1444 1095.43 457.654
2420 0 70.1834 13.194 926 94.9741 1095.24 457.083
2421 0 70.2107 14.2001 997 95.0351 1095.42 454.642
2422 0 70.2208 14.1269 992 95.745 1095.07 455.635
2423 0 75.1451 15.6896 1179 89.4656 1095 452.327
2424 0 77.3295 13.6559 1056 93.4394 1095.14 454.434
2425 0 78.1638 14.0474 1098 92.7122 1095.09 451.835
2426 0 80.1167 13.5802 1088 93.6958 1094.52 448.574
2427 0 82.1439 13.5981 1117 92.2659 1094.88 447.791
2428 0 85.1248 13.1924 1123 90.4069 1095.89 445.379
2429 0 87.1474 13.9763 1218 88.4598 1095.15 444.003
2430 0 89.1098 13.5787 1210 89.7719 1095.33 443.479
2431 0 92.1078 13.3756 1232 90.4213 1095.13 441.961
2432 0 96.1277 13.9814 1344 95.2902 1094.6 440.385
2433 0 97.19 13.417 1304 96.6189 1094.07 440.097
2434 0 102.115 13.6121 1390 97.0885 1094.56 436.661
2435 0 109.199 16.4012 1791 87.3473 1094.78 430.232
2436 1 51.0143 12.1338 619 98.9952 1094.82 459.672
2437 0 57.0583 12.6712 723 93.3873 1094.5 458.975
2438 0 57.0765 12.8249 732 95.9768 1094.73 457.344
2439 0 59.0728 12.7808 755 97.9219 1094.25 456.677
2440 0 62.0291 13.1712 817 96.0282 1095.06 457.154
2441 0 61.1029 13.24 809 97.0766 1094.56 456.061
2442 0 63.0886 12.95 817 97.1763 1094.73 455.804
2443 0 65.0564 12.6967 826 97.3644 1094.6 455.138
2444 0 68.059 12.4745 849 97.5654 1093.95 453.384
2445 0 71.1175 12.3598 879 98.2787 1093.96 452.299
2446 0 72.1202 13.1863 951 97.9043 1093.89 451.81
2447 0 78.1026 14.02 1095 93.9196 1094.52 451.414
2448 0 79.0939 14.173 1121 94.6753 1094.36 450.635
2449 0 83.1316 13.5809 1129 95.8069 1094.67 449.657
2450 0 85.1416 14.2586 1214 95.0033 1094.7 448.33
2451 0 87.1182 13.9925 1219 96.8228 1094.52 448.438
2452 0 90.1281 14.3241 1291 96.9504 1093.93 446.765
2453 0 94.0592 14.1932 1335 97.3895 1093.57 443.467
2454 0 96.0676 13.6883 1315 98.9019 1093.18 443.662
2455 0 102.123 14.8252 1514 95.4947 1093.24 441.396
2456 0 103.18 14.0531 1450 96.9262 1093.85 439.511
2457 0 105.228 14.0266 1476 96.5203 1093.32 437.535
2458 0 109.226 13.7879 1506 96.5963 1093.92 435.78
2459 0 114.206 13.8521 1582 94.5013 1094.99 433.046
2460 0 118.234 14.1669 1675 93.9015 1094.12 430.693
2461 0 121.436 13.958 1695 97.1481 1093.14 428.124
2462 0 124.221 13.5082 1678 98.3564 1093.99 427.16
2463 1 58.2524 13.699 798 96.6955 1093.91 457.696
2464 0 59.3388 14.1391 839 95.2014 1093.83 458.167
2465 0 62.2259 14.9295 929 92.155 1094.03 458.656
2466 0 65.2546 14.1446 923 92.8397 1094.38 457.477
2467 0 64.1912 13.9583 896 96.1998 1094.15 457.463
2468 0 65.2209 13.6306 889 97.4578 1094.57 456.971
2469 0 69.3104 14.0671 975 95.5364 1094.53 454.802
2470 0 71.2362 13.8132 984 96.8974 1093.74 454.98
2471 0 72.3226 14.1311 1022 95.772 1094.22 452.477
2472 0 76.2365 13.6811 1043 96.0978 1094.1 452.847
2473 0 79.37 13.3552 1060 96.8245 1094.45 451.487
2474 0 81.2019 14.0021 1137 95.4433 1093.58 450.452
2475 0 82.2123 13.8422 1138 96.1318 1094.55 449.03
2476 0 82.3429 13.0673 1076 98.1673 1094.05 449.389
2477 0 89.1437 13.8316 1233 95.4688 1094.03 446.429
2478 0 90.2573 13.8271 1248 95.7356 1094.48 444.45
2479 0 94.27 14.0448 1324 95.0317 1094.49 443.356
2480 0 98.2268 13.8048 1356 94.6504 1094.02 442.606
2481 0 100.134 13.9313 1395 94.9047 1093.87 438.935
2482 0 105.231 14.2734 1502 93.1871 1094.55 437.069
2483 0 109.241 14.4817 1582 91.4987 1094.54 436.255
2484 0 113.21 13.9564 1580 90.024 1094.25 435.203
2485 0 116.196 13.899 1615 91.1319 1093.58 433.027
2486 0 120.315 14.62 1759 88.7442 1093.7 430.345
2487 0 125.328 15.3119 1919 87.1928 1094.56 426.74
2488 0 126.292 14.5853 1842 90.4647 1094.67 427.99
2489 0 132.276 14.2959 1891 89.8916 1094.03 425.134
2490 0 137.191 14.6584 2011 88.7742 1094.09 422.045
2491 0 142.359 14.8989 2121 88.6341 1094.15 420.57
2492 0 146.363 14.4777 2119 90.295 1093.92 417.857
2493 0 149.308 14.018 2093 92.0903 1094.32 417.339
2494 0 153.25 13.6183 2087 93.1979 1094.59 417.078
2495 0 158.305 13.695 2168 91.3828 1094.74 414.657
2496 0 163.226 13.3496 2179 92.9385 1094.49 411.756
2497 0 169.248 13.56 2295 88.0876 1094.7 408.264
2498 0 175.342 14.3662 2519 86.5462 1094.34 404.836
2499 0 183.286 14.2892 2619 87.7354 1093.99 401.654
2500 0 188.254 14.5707 2743 87.3937 1094.43 397.425
2501 0 197.221 14.7804 2915 86.9636 1093.77 396.679
2502 0 202.195 14.5355 2939 87.6897 1094.27 393.138
2503 0 210.334 14.3439 3017 88.126 1093.78 388.975
2504 1 159.21 13.8245 2201 93.5211 1093.95 412.228
2505 0 166.265 14.9219 2481 92.5482 1093.69 408.724
2506 0 171.185 14.5048 2483 93.677 1094.04 406.705
2507 0 176.224 14.0446 2475 97.2594 1094.18 403.522
2508 0 183.284 13.46 2467 99.8545 1094.49 400.265
2509 0 192.278 14.6559 2818 96.3907 1093.34 398.59
2510 0 199.262 14.4583 2881 97.2319 1093.65 395.327
2511 0 203.294 14.6684 2982 97.9997 1093.52 393.557
2512 0 210.331 14.5295 3056 98.877 1093.66 388.062
2513 0 219.35 14.5567 3193 98.7886 1092.92 386.854
2514 0 225.196 14.4407 3252 100.63 1093.27 381.575
2515 1 186.255 13.7822 2567 101.942 1093.2 404.566
2516 0 192.185 14.9647 2876 101.773 1093.2 398.715
2517 0 198.177 14.2095 2816 104.555 1093.52 393.539
2518 0 206.13 15.0342 3099 102.273 1093.48 392.42
2519 0 213.295 14.7354 3143 102.822 1093.4 387.893
2520 0 219.266 14.772 3239 103.196 1093.33 383.069
2521 0 226.23 14.7593 3339 102.964 1093.58 379.872
2522 0 231.267 14.9784 3464 102.787 1093.09 374.053
2523 0 239.2 14.8328 3548 103.211 1092.79 369.568
2524 0 246.263 14.5129 3574 103.202 1092.44 366.126
2525 0 254.318 15.284 3887 101.41 1092.94 364.542
2526 0 262.292 17.7169 4647 95.3049 1092.74 353.782
2527 0 272.327 17.1889 4681 96.6445 1092.96 350.599
2528 0 280.398 16.8368 4721 98.2129 1092.85 345.173
2529 1 77.1832 11.5181 889 90.4871 1093.45 453.339
2530 0 79.0813 12.3923 980 91.4867 1094.05 452.03
2531 0 83.1561 13.1199 1091 89.3153 1093.87 451.16
2532 0 85.1235 12.6992 1081 90.9982 1093.75 447.455
2533 0 87.125 12.3501 1076 93.4981 1093.7 446.076
2534 0 91.0987 13.436 1224 91.3938 1093.39 443.641
2535 0 96.1928 13.0571 1256 103.959 1092.82 443.059
2536 0 98.1349 13.3592 1311 101.619 1093.22 440.862
2537 0 101.11 12.8375 1298 102.255 1092.8 439.431
2538 0 105.105 13.3961 1408 100.874 1092.68 437.043
2539 0 114.132 17.7864 2030 84.3379 1093.55 425.972
2540 0 115.146 17.5689 2023 85.9264 1093.41 425.469
2541 0 114.275 15.7515 1800 88.4472 1094.02 426.771
2542 0 113.118 13.1544 1488 95.8259 1093.11 426.862
2543 0 115.142 10.2569 1181 100.567 1094.04 431.904
2544 1 62.2161 11.2833 702 89.651 1093.68 457.242
2545 0 65.1163 11.5793 754 90.2135 1094.06 457.47
2546 0 68.118 12.86 876 96.0308 1093.95 453.857
2547 0 71.1088 12.9239 919 96.8063 1093.3 453.299
2548 0 71.0657 13.0302 926 97.9449 1092.92 450.819
2549 0 75.0946 13.1035 984 97.503 1094.07 450.376
2550 0 78.1983 13.0182 1018 97.6228 1093.44 450.186
2551 0 82.1318 13.2713 1090 96.5606 1093.65 448.45
2552 0 85.1732 13.2319 1127 96.4703 1093.65 448.253
2553 0 88.1954 13.3567 1178 96.3311 1095.08 447.882
2554 0 90.1259 13.581 1224 96.7492 1095.7 445.699
2555 0 94.0957 13.6776 1287 96.4095 1095.31 445.024
2556 0 93.088 13.5678 1263 99.5717 1095.86 443.2
2557 0 96.2296 13.8211 1330 100.829 1096.14 430.102
2558 0 100.15 12.8108 1283 104.118 1094.66 429.431
2559 1 51.1523 11.5733 592 99.6571 1094.07 453.409
2560 0 53.1537 12.0405 640 101.444 1093.21 451.836
2561 0 52.1166 12.4337 648 103.511 1094.13 451.043
2562 0 56.0761 12.7327 714 102.725 1094.15 450.472
2563 0 59.1039 12.8079 757 103.474 1094.45 447.86
2564 0 60.1021 12.9779 780 102.772 1094.3 448.963
2565 0 61.0707 13.247 809 102.246 1094.16 447.049
2566 0 63.0727 13.4924 851 101.073 1093.83 446.128
2567 0 66.1252 13.3837 885 100.55 1094.48 446.351
2568 0 67.1299 13.4515 903 100.573 1093.87 445.694
2569 0 69.0539 13.4677 930 101.035 1093.92 445.09
2570 0 71.0963 13.3622 950 101.442 1094.29 444.667
2571 0 72.1066 13.2165 953 102.199 1094.46 445.19
2572 0 75.2195 14.0123 1054 100.722 1094.32 442.023
2573 0 78.0705 13.9233 1087 99.8528 1094.09 443.749
2574 0 80.1403 13.8008 1106 100.303 1093.68 441.643
2575 0 83.1179 13.4628 1119 101.55 1093.9 441.707
2576 0 86.0896 13.9274 1199 100.796 1094.17 441.234
2577 0 90.0944 14.2406 1283 99.8792 1093.83 440.859
2578 0 91.089 14.7548 1344 100.061 1094.44 439.387
2579 0 94.0785 14.3285 1348 100.018 1094.51 439.911
2580 0 95.1508 14.6925 1398 101.456 1094.01 436.784
2581 0 101.157 14.2056 1437 101.244 1093.81 436.241
2582 0 100.09 14.1972 1421 104.783 1094.62 433.589
2583 0 107.151 14.1389 1515 100.395 1094.74 433.174
2584 1 51.0904 12.8008 654 102.258 1094.79 458.664
2585 0 51.0895 12.7228 650 166.755 1093.81 458.657
2586 0 55.0765 12.873 709 99.7334 1094.49 458.209
2587 0 55.0295 13.4655 741 100.498 1093.95 455.823
2588 0 60.1404 14.0837 847 99.8312 1094.7 455.479
2589 0 60.1404 14.1003 848 169.884 1095.71 455.301
2590 0 64.0616 13.5651 869 100.995 1094.93 454.311
2591 0 65.0347 13.685 890 103.563 1094.96 453.049
2592 0 67.1095 13.3811 898 104.127 1095.2 452.552
2593 0 69.0399 13.7022 946 103.841 1095.37 450.862
2594 0 72.0701 13.9448 1005 102.101 1094.9 451.676
2595 0 75.0609 14.375 1079 102.06 1095.38 449.431
2596 0 77.0774 14.3752 1108 102.756 1095.3 448.65
2597 0 77.0702 13.9743 1077 106.976 1095.54 447.136
2598 0 80.109 13.9934 1121 106.704 1094.44 445.646
2599 0 84.0408 14.4692 1216 103.903 1094.65 445.918
2600 0 85.053 14.0383 1194 106.235 1094.64 443.812
2601 0 86.044 14.1672 1219 107.185 1095.58 442.616
2602 0 91.0466 14.3114 1303 104.791 1095.17 442.664
2603 0 90.0991 14.0734 1268 106.958 1094.84 441.21
2604 0 92.0464 14.3406 1320 106.784 1094.8 441.683
2605 0 95.0654 14.2007 1350 107.493 1095.49 440.501
2606 0 98.0902 14.4765 1420 106.544 1095.02 439.889
2607 0 99.0981 15.2475 1511 106.531 1095.64 438.484
2608 0 99.0694 14.7573 1462 109.265 1095.22 438.365
2609 0 102.226 14.6538 1498 110.047 1095.56 436.788
2610 0 104.11 14.5135 1511 110.004 1095.3 435.931
2611 0 104.111 14.1483 1473 112.395 1094.72 434.735
2612 0 106.238 14.8629 1579 108.94 1094.74 435.593
2613 0 107.115 14.6478 1569 110.874 1095.06 435.081
2614 0 108.21 14.2871 1546 112.752 1094.84 433.193
2615 0 108.136 14.491 1567 112.421 1094.54 433.641
2616 0 109.105 14.4632 1578 113.155 1094.47 431.957
2617 0 108.08 14.258 1541 113.175 1095.11 431.566
2618 0 109.073 14.5865 1591 113.378 1095.17 431.595
2619 0 109.144 14.2106 1551 113.346 1096.07 431.615
2620 0 111.151 14.3139 1591 112.021 1094.94 431.982
2621 0 113.129 14.594 1651 109.98 1095 430.735
2622 0 115.118 14.2984 1646 109.115 1095.02 430.248
2623 0 113.152 14.4054 1630 108.402 1096.07 429.136
2624 0 116.054 14.2262 1651 107.339 1094.72 427.961
2625 0 113.314 13.6346 1545 109.546 1095.21 426.034
2626 0 116.232 13.8602 1611 107.408 1094.74 425.759
2627 0 118.109 14.4612 1708 106.408 1094.94 426.493
2628 0 117.108 13.9017 1628 106.475 1094.7 425.476
2629 0 119.331 13.7768 1644 103.9 1094.61 424.499
2630 0 117.156 14.1264 1655 103.206 1094.66 425.01
2631 0 121.134 14.4715 1753 102.034 1095.09 425.746
2632 0 117.104 13.3556 1564 104.478 1095.32 424.342
2633 0 119.181 13.7941 1644 101.619 1095.39 424.558
2634 0 122.216 14.098 1723 99.5142 1095.23 424.817
2635 0 121.12 14.176 1717 98.1759 1095.25 424.681
2636 0 122.222 14.1546 1730 98.1069 1095.07 424.527
2637 0 121.212 13.3568 1619 98.5151 1095.13 423.584
2638 0 122.126 13.6416 1666 97.5588 1095.31 423.784
2639 0 120.174 14.0046 1683 95.4456 1095.52 422.892
2640 0 119.196 13.5575 1616 96.4189 1094.39 421.592
2641 0 122.232 13.8261 1690 94.9604 1094.57 422.149
2642 0 121.122 13.7878 1670 93.6377 1094.67 421.687
2643 0 120.152 13.5661 1630 94.0264 1094.55 421.81
2644 0 120.206 13.5517 1629 94.1596 1094.57 422.06
2645 0 122.11 13.84 1690 92.2095 1094.53 421.221
2646 0 122.097 12.9405 1580 92.9804 1094.88 421.901
2647 0 123.132 13.4652 1658 91.2334 1095.18 421.731
2648 0 125.216 14.0717 1762 87.8848 1094.61 421.225
2649 0 124.115 13.7776 1710 87.6819 1094.42 421.308
2650 0 123.119 12.8656 1584 88.1926 1095.14 422.873
2651 0 125.124 13.9781 1749 85.5706 1094.75 420.385
2652 0 122.261 13.0867 1600 87.4462 1094.6 420.362
2653 0 123.158 12.829 1580 86.1911 1095.09 421.246
2654 0 128.251 13.6373 1749 83.6587 1094.67 420.937
2655 0 126.18 13.552 1710 83.3404 1094.49 420.983
2656 0 126.276 13.708 1731 82.0763 1094.79 419.575
2657 0 128.275 14.2194 1824 80.2812 1094.71 419.889
2658 0 126.207 13.05 1647 82.629 1094.28 419.268
2659 0 128.137 14.1411 1812 78.989 1095.36 419.974
2660 0 126.238 12.8645 1624 81.5123 1095.32 419.315
2661 0 127.192 12.4694 1586 82.8197 1095.81 420.982
2662 0 128.183 12.5913 1614 80.6028 1094.84 417.305
2663 0 128.224 12.9539 1661 79.469 1094.82 417.585
2664 0 128.155 12.6488 1621 80.3745 1094.13 418.494
2665 0 129.172 12.8976 1666 78.2935 1094.79 416.494
2666 0 127.304 11.5079 1465 80.5242 1093.83 414.181
2667 0 129.261 12.9273 1671 77.1909 1093.32 413.685
2668 0 131.264 12.6082 1655 76.1885 1093.81 413.764
2669 0 131.109 12.6307 1656 75.3025 1095.06 414.394
2670 0 129.195 12.3069 1590 76.4623 1094.84 415.126
2671 0 132.192 12.6482 1672 74.7781 1095.17 415.585
2672 0 130.169 11.7693 1532 75.2781 1095.2 413.98
2673 0 133.185 12.8618 1713 72.8155 1095.88 413.384
2674 0 132.148 12.3952 1638 74.1679 1095.61 412.023
2675 0 133.163 13.2094 1759 72.3326 1095.35 413.543
2676 0 133.13 12.176 1621 72.3763 1095.6 416.777
2677 0 130.202 12.0505 1569 73.1472 1095.52 409.778
2678 0 132.101 12.3542 1632 71.4344 1095.59 410.413
2679 0 129.151 11.4982 1485 72.905 1095.34 412.232
2680 0 132.218 12.0105 1588 71.3652 1093.99 410.561
2681 0 128.191 10.9524 1404 73.5712 1094.97 410.989
2682 0 130.122 11.7736 1532 71.6749 1094.66 413.015
2683 0 131.238 12.5421 1646 68.7728 1094.68 409.028
2684 0 134.241 13.8184 1855 67.2135 1093.95 409.11
2685 0 136.165 15.1948 2069 62.8879 1093.81 404.701
2686 0 131.172 10.7492 1410 69.9993 1093.69 415.773
2687 0 133.199 12.395 1651 67.4676 1093.99 414.878
2688 0 132.218 11.1861 1479 68.1636 1094.37 417.296
2689 0 133.14 11.8522 1578 66.9728 1094.44 414.317
2690 0 132.2 11.0892 1466 67.249 1094.09 417.521
2691 0 132.153 11.2748 1490 66.9154 1094.34 414.05
2692 0 133.249 11.2721 1502 66.6651 1094.34 414.216
2693 0 130.168 11.0088 1433 67.0705 1094.1 413.049
2694 0 130.241 10.1658 1324 67.1518 1093.72 415.148
2695 0 130.196 10.5149 1369 65.7553 1093.88 412.048
2696 0 133.266 10.8205 1442 65.3481 1094.31 413.955
2697 0 132.198 10.0607 1330 65.9774 1094.61 418.202
2698 0 129.209 10.2006 1318 66.2064 1094.66 409.398
2699 0 133.17 11.5116 1533 63.7241 1094.06 414.97
2700 0 131.168 9.59073 1258 65.5397 1093.68 416.009
2701 0 130.178 10.3166 1343 64.5719 1093.68 410.839
2702 0 132.221 11.564 1529 62.8777 1093.67 413.382
2703 0 130.113 8.52335 1109 65.7268 1093.96 410.472
2704 0 128.19 8.87748 1138 65.174 1093.96 409.181
2705 0 129.272 9.60768 1242 64.8374 1094.04 407.593
2706 0 131.163 10.3841 1362 62.8612 1094.46 410.747
2707 0 130.167 10.041 1307 63.0023 1094.56 411.888
2708 0 130.1 9.62337 1252 62.6933 1093.9 410.183
2709 0 130.291 9.01057 1174 62.2777 1094.64 412.171
2710 0 129.101 9.65133 1246 62.9141 1094.75 405.365
2711 0 131.135 9.82192 1288 61.9884 1094.4 405.751
2712 0 132.16 9.322 1232 61.6339 1094.4 409.834
2713 0 132.239 9.52066 1259 61.3606 1093.35 404.127
2714 0 132.201 8.81232 1165 60.6069 1094 409.683
2715 0 132.212 9.20489 1217 60.5497 1093.51 407.927
2716 0 133.147 11.0405 1470 58.3878 1093.83 404.12
2717 0 131.25 9.17334 1204 59.3331 1093.81 407.914
2718 0 129.164 9.12792 1179 60.4334 1093.81 401.915
2719 0 127.154 8.47005 1077 60.9489 1093.67 401.412
2720 0 132.161 9.15547 1210 59.7066 1093.31 403.831
2721 0 126.076 8.3204 1049 60.1316 1093.15 400.021
2722 0 129.198 8.41344 1087 59.4039 1093.42 403.762
2723 0 130.089 10.562 1374 57.4672 1093.29 399.631
2724 0 127.117 11.281 1434 56.9393 1093.43 401.674
2725 0 122.14 8.59667 1050 58.7705 1093.17 397.857
2726 0 122.237 9.62884 1177 57.6194 1093.67 398.358
2727 1 52.0126 12.9968 676 102.253 1092.57 310.862
2728 0 53.09 13.0533 693 100.146 1093.58 310.263
2729 0 56.0965 13.5124 758 98.9908 1094.01 308.495
2730 0 57.1394 13.4408 768 99.8464 1094.4 306.914
2731 0 58.125 13.5914 790 98.6532 1093.85 306.552
2732 0 59.0887 13.8436 818 99.8961 1094.14 305.098
2733 0 63.1245 14.2734 901 97.2542 1093.63 303.251
2734 0 65.1302 13.9567 909 96.967 1093.41 303.028
2735 0 67.1325 13.7936 926 99.365 1093.7 300.759
2736 0 69.0903 14.4304 997 97.6881 1093.77 299.786
2737 0 70.1146 14.134 991 98.6014 1093.69 297.951
2738 0 71.1324 14.5082 1032 98.6017 1093.91 296.273
2739 0 75.1797 14.206 1068 100.692 1094.23 293.538
2740 0 77.1839 14.5108 1120 100.964 1094.07 291.746
2741 0 79.0712 15.0624 1191 98.8741 1093.97 290.833
2742 0 82.1438 15.0468 1236 99.1133 1093.99 289.014
2743 0 85.1218 15.2487 1298 98.1587 1093.56 287.334
2744 0 88.1558 15.1777 1338 98.3543 1094.7 286.59
2745 0 92.1514 14.9862 1381 98.273 1094.28 284.384
2746 0 93.1877 15.399 1435 99.5909 1094.37 283.135
2747 0 95.3104 15.1715 1446 100.568 1093.62 281.075
2748 0 99.2064 15.6442 1552 97.9497 1094.45 277.89
2749 0 105.132 18.3197 1926 90.0296 1094.73 275.481
2750 0 105.229 15.414 1622 98.061 1094.93 275.07
2751 0 108.279 15.2384 1650 99.3212 1093.99 275.452
2752 1 50.0699 12.4027 621 105.982 1094.8 301.884
2753 0 53.1609 13.224 703 102.014 1093.83 300.885
2754 0 57.1805 13.8859 794 99.1738 1094.3 299.375
2755 0 58.2595 13.6973 798 100.652 1094.05 299.169
2756 0 59.1784 14.2113 841 99.9798 1094.17 297.029
2757 0 60.2104 13.5359 815 101.405 1094.52 295.817
2758 0 61.2648 13.8252 847 100.792 1094.46 293.972
2759 0 64.3044 13.7938 887 100.272 1094.33 293.069
2760 0 65.2591 13.4694 879 101.895 1094.85 292.631
2761 0 68.1558 13.924 949 100.074 1094.54 290.75
2762 0 73.2238 13.5339 991 98.9354 1094.83 290.036
2763 0 73.244 13.7895 1010 98.6525 1094.8 289.443
2764 0 76.1858 14.0184 1068 97.6882 1094.26 285.094
2765 0 80.1645 14.6075 1171 95.0111 1094.57 285.921
2766 0 80.1848 14.0426 1126 97.0435 1094.6 284.278
2767 0 85.1706 14.0659 1198 97.9833 1094.81 281.189
2768 0 89.2439 14.5556 1299 94.4234 1094.2 280.181
