time division length width area intensity CMx CMy
989 0 51.0216 11.6029 592 89.3378 762.319 434.669
990 0 51.0317 11.9142 608 86.9918 762.37 432.85
991 0 52.0863 11.7689 613 87.6232 762.018 434.525
992 0 52.0863 11.7497 612 131.392 761.016 434.487
993 0 56.1184 12.0281 675 87.757 763.036 431.705
994 0 55.1127 11.7214 646 90.7864 762.892 431.892
995 0 58.0799 12.4311 722 89.4598 762.515 431.41
996 0 60.1592 12.1179 729 91.5981 762.649 430.671
997 0 61.0432 12.3847 756 91.295 763.448 430.209
998 0 64.0589 12.3636 792 92.2563 762.891 428.639
999 0 66.0918 12.0287 795 93.7774 762.084 428.464
1000 0 66.0645 11.731 775 96.0348 762.761 427.391
1001 0 67.0832 11.9702 803 96.6326 762.752 425.872
1002 0 69.0569 12.1928 842 97.2162 763.133 425.223
1003 0 73.1218 12.1168 886 95.7573 763.284 424.41
1004 0 73.122 12.1851 891 95.7329 763.498 423.734
1005 0 77.0734 12.1313 935 95.3369 764.345 423.81
1006 0 79.1237 12.1076 958 96.3539 764.804 421.736
1007 0 85.0888 12.5751 1070 100.254 765.213 420.895
1008 0 85.1353 12.4273 1058 96.1909 765.092 418.269
1009 0 88.0571 12.7531 1123 94.5468 764.564 417.07
1010 1 47.0555 11.6883 550 98.7945 763.802 435.562
1011 0 47.0288 12.184 573 98.6702 764.197 434.092
1012 0 50.0341 12.7313 637 95.8446 764.275 434.37
1013 0 52.0645 12.3501 643 95.4261 763.397 432.498
1014 0 50.1105 12.0933 606 91.8894 763.22 435.531
1015 0 51.069 11.2593 575 91.4261 762.739 433.73
1016 0 52.0442 12.1051 630 90.9508 763.414 432.625
1017 0 53.0509 12.3089 653 89.8606 763.067 434.011
1018 0 56.0724 12.3412 692 88.3844 766.081 433.215
1019 0 57.1101 12.4847 713 87.9257 765.348 432.206
1020 0 57.0674 12.4239 709 89.3568 765.169 430.525
1021 0 60.1328 12.4225 747 88.5716 765.894 430.655
1022 0 61.086 11.8358 723 89.6999 765.62 430.043
1023 0 62.0589 12.617 783 89.5836 765.584 428.61
1024 0 65.0999 12.2734 799 87.5982 765.383 427.429
1025 0 67.107 12.3087 826 88.0194 764.993 425.295
1026 0 70.1216 13.0488 915 86.1825 764.658 424.579
1027 0 71.0592 12.37 879 88.3402 764.619 424.836
1028 0 75.0499 12.4983 938 88.0469 763.874 422.248
1029 0 75.0785 12.1739 914 87.4245 765.093 421.811
1030 0 78.0786 12.5387 979 87.475 764.044 419.675
1031 0 81.0667 12.4095 1006 86.6759 764.876 418.086
1032 0 84.0775 12.9048 1085 85.0194 764.577 416.994
1033 0 86.1146 12.3556 1064 88.2021 764.649 415.867
1034 1 44.03 10.4474 460 88.4044 765.137 433.28
1035 0 46.0525 11.4869 529 86.4178 763.956 432.285
1036 0 48.0609 11.7351 564 85.3014 763.308 430.915
1037 0 51.1012 12.5633 642 82.2103 763.939 430.277
1038 0 50.0816 12.26 614 81.7443 763.337 433.233
1039 0 52.1258 12.2396 638 81.8605 762.737 431.409
1040 0 55.0278 12.1575 669 79.1405 764.429 430.812
1041 0 55.0889 12.5252 690 79.7971 763.852 430.297
1042 0 58.1425 12.3834 720 82.1333 763.761 429.544
1043 0 60.18 12.3962 746 81.7024 763.39 428.956
1044 0 62.1505 13.403 833 79.8896 763.848 427.878
1045 0 64.1262 13.1304 842 84.8242 763.818 425.318
1046 0 64.08 12.7029 814 85.8329 763.597 425.048
1047 0 67.203 12.8714 865 85.5202 763.583 424.075
1048 0 70.0811 13.1562 922 84.6236 763.049 422.712
1049 0 70.2511 12.797 899 85.0044 763.555 421.023
1050 0 74.1988 13.1943 979 83.3657 763.675 420.364
1051 0 74.1643 13.2543 983 83.527 764.072 420.403
1052 0 77.2153 13.0156 1005 84.6557 763.857 421.715
1053 0 80.1904 13.4804 1081 85.4302 763.702 417.596
1054 0 83.1654 13.4551 1119 91.7534 764.36 417.52
1055 0 84.1774 13.2934 1119 92.6738 765.315 419.326
1056 0 86.0781 12.7791 1100 95.2955 764.321 416.506
1057 0 91.2394 13.9194 1270 93.0063 764.415 413.839
1058 0 95.2589 13.5316 1289 94.322 764.348 412.379
1059 0 96.1844 13.1102 1261 94.5424 764.049 412.693
1060 1 47.0812 11.066 521 96.2783 763.785 433.088
1061 0 51.2378 12.5493 643 93.7729 763.914 432.126
1062 0 52.0853 12.0763 629 96.1685 764.25 432.655
1063 0 51.2252 12.65 648 94.4923 764.194 433.505
1064 0 53.1164 12.6138 670 95.3925 765.124 430.694
1065 0 54.2477 11.9636 649 95.9153 764.371 431.65
1066 0 58.2573 12.7023 740 94.3054 764.015 430.312
1067 0 60.1867 12.9431 779 94.5276 764.137 428.395
1068 0 63.2129 13.4941 853 93.1219 763.659 427.783
1069 0 66.1729 13.2985 880 91.7625 764.032 427.368
1070 0 68.1227 13.5638 924 94.5455 763.504 426.008
1071 0 70.1569 13.4556 944 95.3189 763.528 425.412
1072 0 73.2012 13.3878 980 95.0276 764.024 423.795
1073 0 74.1694 13.604 1009 98.3647 763.95 422.264
1074 0 77.176 13.8514 1069 98.2844 763.781 421.641
1075 0 80.1479 13.8619 1111 101.334 763.931 420.515
1076 0 82.2446 14.3474 1180 99.322 764.047 419.547
1077 0 86.1901 13.9459 1202 98.8378 764.023 418.651
1078 0 87.1259 14.3585 1251 99.701 763.452 415.679
1079 0 89.2401 13.4245 1198 102.899 762.916 415.714
1080 0 90.1126 13.2057 1190 105.124 763.107 414.587
1081 0 95.1375 13.2755 1263 103.964 763.493 413.876
1082 0 98.1035 13.0882 1284 105.822 763.313 410.556
1083 0 101.19 13.4895 1365 105.668 763.817 408.559
1084 0 105.148 14.18 1491 101.283 763.448 406.074
1085 1 57.0756 12.4221 709 98.11 763.577 431.03
1086 0 58.105 12.529 728 106.218 764.14 428.558
1087 0 61.1013 13.584 830 101.724 763.583 427.76
1088 0 62.096 13.8656 861 100.555 763.303 426.058
1089 0 65.0258 13.2409 861 116.114 763.438 426.117
1090 0 67.2132 13.6431 917 115.988 763.841 424.587
1091 0 67.2133 13.5836 913 173.549 762.847 424.537
1092 0 70.0822 14.0549 985 118.972 763.517 422.525
1093 0 74.1914 13.8965 1031 119.447 763.829 421.257
1094 0 75.1625 13.8101 1038 119.855 765.051 420.445
1095 0 76.1326 14.3434 1092 119.616 764.458 419.309
1096 0 77.1977 14.5082 1120 119.57 764.68 417.955
1097 0 80.1624 14.4457 1158 119.81 764.34 415.122
1098 0 82.1331 13.8434 1137 122.32 764.487 415.114
1099 0 86.1668 14.8085 1276 116.385 765.506 416.274
1100 0 89.2827 14.5269 1297 115.235 765.219 413.156
1101 0 92.233 14.149 1305 115.385 764.945 408.621
1102 0 92.2722 14.5764 1345 113.957 764.336 408.616
1103 0 97.251 14.2723 1388 117.841 764.904 406.967
1104 0 100.4 14.4921 1455 116.228 764.081 406.775
1105 0 105.256 14.9066 1569 115.51 764.689 405.182
1106 0 108.328 14.2807 1547 118.083 764.331 402.817
1107 1 59.2911 12.2953 729 119.381 764.686 427.144
1108 0 59.1416 12.3602 731 121.32 764.543 426.449
1109 0 62.2782 13.1186 817 120.647 763.96 425.535
1110 0 62.2997 13.419 836 120.977 764.138 422.902
1111 0 65.2448 13.2884 867 120.367 764.111 418.967
1112 0 65.0626 12.9568 843 124.763 763.877 415.397
1113 0 68.0385 13.2719 903 123.464 764.326 415.215
1114 0 68.0516 13.5632 923 122.3 764.416 415.337
1115 0 72.0481 13.6437 983 121.194 764.674 415.149
1116 0 72.0746 13.6248 982 122.957 765.071 414.5
1117 0 77.0272 14.008 1079 119.33 763.945 413.283
1118 0 78.0853 13.4212 1048 121.43 763.695 412.578
1119 0 80.058 13.8275 1107 119.729 763.626 411.434
1120 0 82.0455 13.9557 1145 119.859 763.427 410.131
1121 0 85.0782 13.4935 1148 121.052 763.742 410.078
1122 0 86.1216 13.7132 1181 121.799 764.502 407.721
1123 0 89.0795 13.7293 1223 122.052 764.185 407.572
1124 0 91.096 13.8864 1265 122.724 764.314 406.632
1125 0 92.1354 13.5127 1245 124.745 763.918 405.88
1126 0 95.1193 13.6355 1297 124.53 764.568 404.961
1127 0 99.1082 13.6114 1349 124.448 763.634 403.223
1128 0 100.086 13.5882 1360 126.223 762.877 401.007
1129 0 105.122 13.9932 1471 124.586 763.223 399.615
1130 0 107.125 13.601 1457 125.314 762.605 398.282
1131 0 112.149 13.3127 1493 125.942 762.685 396.402
1132 0 116.246 13.4026 1558 124.797 763.705 392.956
1133 1 63.0984 9.42971 595 116.116 763.264 419.005
1134 0 60.1348 10.5596 635 115.277 763.406 417.529
1135 0 63.2032 10.6798 675 116.656 764.59 415.274
1136 0 65.0922 11.1688 727 115.034 764.933 417.344
1137 0 68.0697 10.7537 732 116.714 764.531 415.163
1138 0 70.2086 10.9388 768 115.763 765.208 415.56
1139 0 69.0283 10.8216 747 113.242 763.629 414.337
1140 0 72.0653 10.7819 777 113.646 763.05 415.057
1141 0 74.094 10.959 812 115.55 762.42 413.023
1142 0 77.0483 11.1099 856 115.771 762.318 410.877
1143 0 78.042 11.1607 871 117.362 762.228 411.068
1144 0 82.0641 11.2473 923 121.418 762.505 409.914
1145 0 82.0536 11.1878 918 124.703 762.375 408.875
1146 0 86.0541 11.0163 948 124.024 762.36 408.826
1147 0 87.0708 10.9566 954 125.645 762.124 406.584
1148 0 89.0869 11.3372 1010 125.14 762.491 405.94
1149 0 92.0485 11.0485 1017 125.566 762.365 403.749
1150 0 95.0493 11.6571 1108 110.66 762.479 401.435
1151 0 97.1131 10.9048 1059 113.254 761.924 401.25
1152 0 100.086 11.2803 1129 112.336 761.332 400.337
1153 0 104.074 11.415 1188 111.781 761.096 398.453
1154 0 104.12 11.0065 1146 112.818 762.081 395.182
1155 0 107.103 10.784 1155 113.78 761.894 395.778
1156 0 111.081 10.7669 1196 113.945 761.548 391.39
1157 0 114.143 11.0563 1262 111.632 762.215 390.178
1158 0 120.129 11.5376 1386 111.23 762.266 387.41
1159 0 124.162 11.1065 1379 113.403 762.73 385.594
1160 0 125.165 11.2891 1413 111.386 762.045 383.268
1161 0 131.181 11.5032 1509 112.706 761.316 383.174
1162 0 134.106 10.8646 1457 114.497 761.125 379.535
1163 0 140.147 11.4166 1600 114.039 761.389 377.806
1164 0 143.099 10.9924 1573 116.901 761.054 375.921
1165 0 148.069 11.0287 1633 118.404 761.123 372.396
1166 0 153.138 11.5125 1763 117.85 760.976 373.583
1167 0 159.178 11.5845 1844 118.869 761.761 367.562
1168 0 163.113 11.4399 1866 119.436 762.061 366.735
1169 0 165.07 10.7954 1782 123.8 762.469 364.945
1170 0 171.084 11.7837 2016 122.972 762.963 361.682
1171 0 174.1 10.8558 1890 127.348 762.906 357.247
1172 0 178.108 11.4032 2031 127.317 762.621 355.939
1173 1 192.238 11.8551 2279 121.786 762.245 354.215
1174 0 189.151 11.6098 2196 137.236 761.917 348.189
1175 0 195.15 11.0991 2166 130.034 761.884 345.874
1176 0 202.169 11.7921 2384 127.623 761.727 342.533
1177 0 210.181 11.7851 2477 128.805 762.432 336.652
1178 0 219.16 12.3654 2710 127.849 762.211 333.192
1179 1 44.0202 7.58742 334 96.4072 761.979 428.931
1180 0 45.0549 8.01244 361 97.0665 762.958 422.438
1181 0 47.204 8.47386 400 98.685 764.188 422.938
1182 0 53.0618 8.74453 464 98.2177 764.983 418.487
1183 0 54.0942 8.8734 480 97.6646 763.925 419.004
1184 0 52.035 7.36042 383 91.2976 762.833 414.611
1185 0 58.0771 9.09136 528 86.9129 762.839 417.345
1186 0 58.0789 9.09109 528 100.434 763.244 414.987
1187 0 58.0854 8.74574 508 101.994 763.49 412.146
1188 0 61.0792 8.10423 495 103.646 763.164 412.238
1189 0 59.1128 7.73098 457 92.3217 762.385 410.335
1190 0 62.1167 7.34103 456 93.9825 762.101 408.105
1191 0 60.0662 7.77475 467 95.6681 763.475 405.861
1192 0 65.0474 8.63986 562 101.525 762.881 406.151
1193 0 66.0741 8.88397 587 101.095 763.348 405.836
1194 0 72.0758 10.0866 727 105.924 762.707 404.546
1195 0 82.0367 12.921 1060 90.0708 760.945 396.075
1196 0 83.1007 12.5029 1039 89.795 761.618 404.766
1197 0 86.105 12.8099 1103 89.1351 761.919 403.733
1198 0 88.1113 12.348 1088 90.5616 761.986 402.62
1199 0 91.0728 13.0884 1192 88.0436 762.342 399.593
1200 0 96.1996 14.605 1405 94.8569 761.093 401.848
1201 0 98.1738 14.3215 1406 94.5313 762.06 400.684
1202 0 102.235 15.1514 1549 97.4351 761.44 398.394
1203 0 103.358 15.2287 1574 99.2935 762.321 397.9
1204 0 105.332 14.9812 1578 101.082 762.491 394.667
1205 0 107.346 15.3709 1650 100.571 762.113 395.582
1206 1 57.2197 11.4995 658 104.032 762.065 422.549
1207 0 59.2772 12.0451 714 101.859 762.924 422.003
1208 0 60.2302 12.4854 752 100.715 763.001 421.505
1209 0 61.2714 12.0937 741 102.588 763.196 420.266
1210 0 62.1672 11.9677 744 102.957 763.188 419.794
1211 0 63.2133 12.1968 771 101.964 762.529 417.955
1212 0 65.2427 12.3845 808 99.7191 763.082 418.355
1213 0 66.1185 12.6288 835 99.8024 763.993 417.011
1214 0 66.1119 12.6452 836 163.754 764.984 417.011
1215 0 69.1291 13.1638 910 97.5242 763.326 416.419
1216 0 71.1353 13.1721 937 96.7353 763.617 414.994
1217 0 72.1358 12.3933 894 99.1018 763.388 415.628
1218 0 72.108 12.8835 929 98.4898 763.242 413.69
1219 0 74.1402 12.854 953 98.2183 763.123 412.488
1220 0 77.1636 13.0891 1010 96.6396 763.018 412.726
1221 0 80.1668 13.7089 1099 94.3722 762.792 410.826
1222 0 83.1634 13.1909 1097 95.8596 763.298 409.554
1223 0 86.201 13.6309 1175 94.0885 762.958 408.968
1224 0 87.1495 12.8859 1123 95.8575 762.435 407.622
1225 0 89.1583 13.0106 1160 96.2172 762.419 405.527
1226 0 91.2286 13.7128 1251 93.9313 761.651 405.448
1227 0 93.1477 13.4947 1257 94.9841 761.802 404.464
1228 0 96.1038 13.2981 1278 94.7566 761.309 401.795
1229 0 100.206 13.2827 1331 93.598 761.575 401.251
1230 0 101.187 12.5412 1269 95.3664 761.837 399.966
1231 1 55.1049 10.8157 596 90.25 761.591 424.451
1232 0 56.0638 10.827 607 89.0791 761.791 421.952
1233 0 58.1225 11.8199 687 88.8792 762.009 421.319
1234 0 59.1091 11.5887 685 86.9241 764.533 421.187
1235 0 59.1169 11.4688 678 82.3982 763.743 421.419
1236 0 59.2269 11.5995 687 82.0597 763.56 421.36
1237 0 62.1449 11.0709 688 83.2442 763.929 420.821
1238 0 62.1378 11.6515 724 82.8066 763.845 418.702
1239 0 65.1223 11.1022 723 83.6086 763.795 418.216
1240 0 68.191 11.3945 777 83.6538 763.669 416.098
1241 0 69.1894 12.314 852 82.8192 764.461 415.001
1242 0 72.2034 12.0908 873 82.9462 764.561 415.109
1243 0 74.1782 12.3891 919 83.2405 764.362 413.794
1244 0 76.2156 11.8348 902 84.8215 764.708 413.133
1245 0 80.136 12.7034 1018 83.6768 765.371 411.724
1246 0 81.2478 12.5542 1020 85.8882 764.469 411.147
1247 0 82.1916 12.0937 994 88.9628 763.141 409.313
1248 0 85.2502 13.2434 1129 90.2648 763.25 408.953
1249 0 86.1892 12.809 1104 93.3315 762.901 407.523
1250 0 88.3083 13.1358 1160 93.8233 763.335 406.308
1251 0 93.2985 13.2907 1240 93.9202 763.552 405.722
1252 0 94.227 13.4463 1267 94.6456 764.17 404.881
1253 0 99.2763 14.1323 1403 94.0292 764.601 402.436
1254 0 100.229 13.6987 1373 98.1675 764.604 401.122
1255 0 102.218 13.031 1332 91.1389 764.16 401.436
1256 0 104.135 12.8392 1337 90.531 764.292 401.489
1257 0 109.115 13.7378 1499 86.8306 763.899 401.388
1258 0 112.112 13.8344 1551 97.4836 763.566 394.5
1259 0 116.15 13.7839 1601 100.644 761.83 393.254
1260 0 120.134 13.435 1614 102.898 762.419 391.253
1261 0 126.211 13.8736 1751 102.878 762.634 389.177
1262 1 62.0832 10.4054 646 103.975 762.194 419.251
1263 0 66.1343 11.4615 758 101.699 762.927 418.876
1264 0 68.0743 12.0457 820 100.88 762.463 418.206
1265 0 63.1308 10.3594 654 95.2706 764.41 414.237
1266 0 66.0759 10.2458 677 97.1019 763.421 413.69
1267 0 69.1232 10.5319 728 96.0165 763.195 414.728
1268 0 72.064 10.5878 763 95.4758 763.367 413.111
1269 0 74.1012 10.7556 797 95.9473 762.752 410.809
1270 0 77.0731 10.263 791 98.4501 762.248 410.41
1271 0 77.0952 10.3508 798 99.8847 763.44 408.066
1272 0 82.0899 10.6956 878 99.5512 762.846 408.536
1273 0 81.1097 10.0605 816 103.493 763.125 406.478
1274 0 86.1831 10.234 882 102.268 763.634 407.132
1275 0 87.0461 11.5226 1003 106.357 763.84 402.42
1276 0 89.0861 12.0445 1073 105.495 764.234 402.032
1277 0 92.1015 11.1073 1023 108.109 764.005 401.045
1278 0 93.092 11.3544 1057 108.65 762.817 399.831
1279 0 97.1072 12.2133 1186 106.031 762.899 399.379
1280 0 98.0819 11.5924 1137 109.464 762.973 395.347
1281 0 97.108 11.513 1118 110.692 762.436 392.104
1282 0 101.085 12.0196 1215 108.998 763.207 392.312
1283 0 102.133 12.1019 1236 109.774 763.447 388.917
1284 0 107.095 11.6252 1245 110.343 763.299 388.169
1285 0 111.111 11.52 1280 111.095 763.698 388.272
1286 0 113.065 11.2767 1275 112.295 763.852 386.077
1287 0 119.132 12.4232 1480 107.957 764.068 385.521
1288 0 123.062 12.6115 1552 107.233 763.625 383.433
1289 0 129.153 14.6648 1894 100.994 763.439 381.904
1290 0 133.225 14.4717 1928 101.018 763.884 381.046
1291 0 138.196 14.8485 2052 98.5487 763.497 379.756
1292 1 80.053 10.4556 837 101.111 764.407 411.182
1293 0 82.0916 10.7319 881 100.756 764.418 411.536
1294 0 84.0833 11.0367 928 101.81 764.268 408.256
1295 0 86.1229 10.7056 922 104.065 764.504 406.464
1296 0 90.102 11.4426 1031 103.227 764.571 406.507
1297 0 92.1268 11.3539 1046 104.941 763.778 405.026
1298 0 93.1239 11.4364 1065 105.762 764.883 404.227
1299 0 98.0642 11.2579 1104 106.43 764.798 402.128
1300 0 97.0459 11.7882 1144 108.221 764.309 399.309
1301 0 102.076 11.6188 1186 107.863 763.069 398.817
1302 0 105.135 11.6041 1220 108.683 763.699 397.791
1303 0 109.117 11.9046 1299 107.177 763.522 397.329
1304 0 111.074 11.6679 1296 109.368 763.321 394.733
1305 0 115.088 11.8431 1363 108.254 764.125 395.101
1306 1 63.0387 9.96213 628 93.672 764.102 421.21
1307 0 64.0826 9.53456 611 98.9313 764.648 421.206
1308 0 65.0684 9.82044 639 98.698 764.1 419.283
1309 0 68.092 10.9117 743 100.07 763.709 418.775
1310 0 71.0493 11.3442 806 98.2978 763.094 418.634
1311 0 70.0767 11.3019 792 99.8447 763.644 417.751
1312 0 74.0749 11.3534 841 98.5279 763.202 417.49
1313 0 75.0609 11.2708 846 98.9846 763.397 415.793
1314 0 76.0634 11.8322 900 98.9222 763.322 414.27
1315 0 79.042 11.5002 909 99.2915 762.919 412.554
1316 0 82.0722 12.1478 997 97.9268 761.77 411.425
1317 0 85.0986 11.8568 1009 98.772 761.834 408.783
1318 0 87.0386 11.8683 1033 99.6225 762.311 406.56
1319 0 90.041 12.1389 1093 99.3788 762.392 405.057
1320 0 93.0442 12.4564 1159 99.4021 762.823 403.251
1321 0 96.1072 12.3612 1188 100.229 762.864 402.992
1322 0 97.1961 11.7083 1138 103.216 763.018 402.512
1323 1 52.0518 9.66346 503 95.6978 763.628 425.203
1324 0 55.0653 10.4966 578 93.0761 764.644 425.744
1325 0 57.0779 10.6346 607 93.0956 764.036 426.349
1326 0 56.2118 11.3855 640 92.6797 764.148 425.87
1327 0 58.092 10.8621 631 94.2044 765.176 425.067
1328 0 59.073 10.6986 632 95.1171 764.397 423.875
1329 0 63.0664 10.7506 678 94.0206 763.055 421.327
1330 0 62.0497 11.0234 684 95.1316 763.62 420.266
1331 0 67.0665 11.2575 755 91.8358 764.095 419.256
1332 0 66.0743 10.5185 695 94.5281 763.14 418.643
1333 0 69.0644 11.2793 779 93.1284 763.706 417.87
1334 0 72.1191 10.8016 779 93.8421 763.632 417.931
1335 0 75.0613 11.5106 864 91.4097 763.339 417.352
1336 0 72.076 10.6832 770 95.7286 762.935 415.481
1337 0 75.0258 11.5827 869 94.0541 762.71 413.178
1338 0 76.08 11.1856 851 96.0153 762.086 411.334
1339 0 76.0757 11.2651 857 142.694 761.066 411.319
1340 0 83.0993 11.6487 968 95.845 762.035 411.916
1341 0 84.1708 11.3222 953 98.7198 762.46 409.348
1342 0 85.0738 10.438 888 99.1126 762.94 408.506
1343 1 42.0124 9.35438 393 87.57 762.257 428.562
1344 0 44.0436 9.62682 424 83.1698 761.653 429.71
1345 0 46.0593 10.4648 482 76.4046 762.61 428.432
1346 0 50.0362 10.1926 510 91.1706 761.91 427.678
1347 0 51.0431 10.4618 534 91.2622 761.755 427.672
1348 0 52.0328 11.0507 575 89.0835 761.664 426.718
1349 0 53.0233 11.0517 586 88.6024 761.529 426.727
1350 0 53.0345 9.76722 518 90.6139 762.272 425.948
1351 0 54.0876 10.6679 577 89.1577 761.763 424.785
1352 0 54.0697 9.6357 521 91.4837 762.115 422.219
1353 0 58.0269 10.6502 618 88.3479 761.529 421.086
1354 0 59.0225 10.8603 641 87.493 761.159 421.842
1355 0 61.0758 10.315 630 88.2111 761.029 422.141
1356 0 59.0292 10.6388 628 87.5255 762 420.374
1357 0 63.0388 10.6918 674 87.5875 762.254 417.714
1358 0 66.03 10.995 726 86.1212 762.033 418.778
1359 0 67.0266 10.2049 684 88.076 762.088 415.69
1360 0 69.0639 10.5554 729 87.3717 763.078 413.226
1361 0 74.0402 11.7504 870 85.3747 762.709 412.632
1362 0 74.0443 10.5342 780 87.1833 762.194 412.755
1363 0 82.0629 11.6009 952 84.9349 762.543 411.821
1364 0 82.0557 11.2485 923 86.6696 762.682 410.413
1365 0 83.0357 10.8267 899 87.6151 762.572 409.801
1366 0 87.0281 11.8353 1030 86.167 761.484 408.293
1367 0 91.0841 11.407 1039 87.4129 761.109 407.085
1368 0 94.1212 11.1983 1054 88.0275 760.909 405.826
1369 0 94.0771 10.8103 1017 89.1278 760.798 403.227
1370 1 51.0531 10.0875 515 76.9631 761.551 430.676
1371 0 55.084 12.0362 663 83.2187 760.063 430.38
1372 0 56.1545 12.3588 694 82.3732 761.161 430.336
1373 0 58.1196 11.6484 677 81.1137 761.736 430.987
1374 0 60.1165 12.8916 775 78.44 761.126 432.444
1375 0 62.181 12.0937 752 81.4442 761.036 431.957
1376 0 64.1116 11.8855 762 81.3202 760.965 429.041
1377 0 64.1408 12.0516 773 79.3325 761.014 427.798
1378 0 68.0859 12.0142 818 80.5477 760.59 428.312
1379 0 66.1096 12.2221 808 80.9455 760.959 427.214
1380 0 65.1179 11.8093 769 86.4629 761.129 427.701
1381 0 66.1051 11.9053 787 89.3786 760.958 427.854
1382 0 68.1062 11.7757 802 89.197 760.985 427.618
1383 0 68.1582 11.2826 769 90.0065 761.187 428.636
1384 0 71.2391 11.2859 804 89.0945 760.963 426.705
1385 0 74.1584 11.6912 867 87.3991 761.247 425.564
1386 0 75.1497 12.0559 906 86.5287 761.46 424.131
1387 0 80.1128 12.033 964 84.082 761.243 424.135
1388 0 80.2371 12.4257 997 83.5727 761.474 423.155
1389 0 80.2371 12.4631 1000 130.375 761.483 423.15
1390 0 84.1085 11.83 995 85.3749 760.013 421.181
1391 0 88.1578 12.0806 1065 85.2282 760.439 417.933
1392 0 90.1459 12.5796 1134 85.6023 760.321 417.39
1393 0 95.1793 12.7864 1217 85.4979 760.793 414.594
1394 0 99.0882 13.0389 1292 85.3793 760.464 414.488
1395 0 103.097 12.7259 1312 91.1784 761.255 411.87
1396 1 58.0755 10.6069 616 91.0357 760.297 434.25
1397 0 58.1348 11.1293 647 91.8686 760.065 432.074
1398 0 61.1014 11.8328 723 89.9668 760.64 431.216
1399 0 61.0947 11.7359 717 85.7629 760.579 431.456
1400 0 64.1119 12.5562 805 84.6646 760.684 429.834
1401 0 67.1076 12.4576 836 86.4163 760.14 428.541
1402 0 69.0894 12.6358 873 96.2108 760.418 426.243
1403 0 70.1392 12.3041 863 98.9907 760.545 425.687
1404 0 74.142 12.4491 923 97.3218 760.92 425.02
1405 0 75.0718 12.5213 940 100.844 760.179 423.06
1406 0 78.162 12.4741 975 102.174 761.311 422.225
1407 0 81.1316 12.6092 1023 104.334 761.843 422.206
1408 0 82.095 12.8144 1052 105.414 761.55 420.414
1409 0 85.1206 12.3472 1051 106.494 762.064 419.068
1410 0 89.1872 12.5915 1123 107.865 760.999 416.589
1411 0 91.1484 12.8143 1168 107.73 760.717 414.419
1412 0 95.1757 12.2195 1163 109.353 760.896 414.424
1413 0 97.1456 12.7746 1241 110.425 761.424 412.533
1414 1 51.1161 10.1142 517 105.752 760.758 435.818
1415 0 50.1122 10.5763 530 105.113 760.677 434.911
1416 0 52.0373 11.7224 610 101.733 760.207 433.375
1417 0 56.1314 11.9363 670 104.97 761.727 432.149
1418 0 57.1927 11.7497 672 105.256 761.775 432.101
1419 0 59.1621 11.7305 694 103.086 761.726 433.28
1420 0 61.1588 11.3802 696 103.359 761.941 431.661
1421 0 62.1642 11.4214 710 102.346 761.528 432.452
1422 0 63.1165 12.7225 803 99.6276 762.07 428.633
1423 0 65.1971 12.93 843 99.3713 761.884 428.705
1424 0 65.1383 12.2662 799 102.668 761.572 428.148
1425 0 68.141 11.755 801 103.554 761.308 427.265
1426 0 68.1732 12.1455 828 102.883 761.634 425.569
1427 0 71.1379 12.2298 870 102.464 761.347 426.892
1428 0 72.1332 11.8669 856 102.291 762.056 425.853
1429 0 74.1244 12.2362 907 100.2 761.899 423.73
1430 0 74.0903 11.8909 881 102.457 762.142 423.141
1431 0 78.0911 11.922 931 100.96 762.333 421.772
1432 0 80.0784 12.2005 977 100.368 761.796 419.437
1433 0 84.1055 12.3654 1040 98.7913 761.334 418.835
1434 0 85.1001 11.5864 986 100.758 761.716 416.962
1435 0 88.0602 12.2076 1075 99.04 761.597 415.849
1436 0 91.0892 12.0212 1095 100.155 761.259 415.146
1437 0 93.1343 12.7128 1184 97.576 761.117 411.982
1438 0 93.1017 11.3317 1055 93.6161 761.868 414.115
1439 0 96.0852 11.5731 1112 93.3678 761.8 412.162
1440 1 55.0378 10.4474 575 90.9722 761.638 433.017
1441 0 57.106 10.5243 601 90.2246 761.522 432.544
1442 0 59.1565 11.4949 680 89.5309 761.496 431.862
1443 0 61.1394 12.8559 786 85.5331 762.238 431.908
1444 0 63.0651 12.717 802 91.1771 760.951 428.628
1445 0 63.1621 12.1117 765 89.8013 760.966 429.903
1446 0 64.1527 12.0961 776 90.7255 760.965 429.755
1447 0 65.0736 12.1401 790 91.3823 761.311 427.29
1448 0 68.1067 12.2895 837 90.012 761.738 426.456
1449 0 69.1209 11.4437 791 94.0051 761.105 425.12
1450 0 70.0968 12.4114 870 93.0241 761.706 424.033
1451 0 76.1618 12.8805 981 91.2294 761.316 424.054
1452 0 75.1399 12.5765 945 94.7831 760.891 423.229
1453 0 79.049 13.3588 1056 93.6544 761.456 418.649
1454 0 83.096 13.0813 1087 95.4186 762.212 418.948
1455 0 85.0777 13.2937 1131 96.0301 761.456 417.401
1456 0 87.1008 13.1687 1147 95.252 761.375 416.008
1457 0 89.0823 12.539 1117 97.9391 762.479 416.813
1458 0 93.1523 12.9788 1209 96.9371 762.983 415.253
1459 0 98.1086 13.6481 1339 95.0344 762.829 413.013
1460 0 100.162 13.0089 1303 95.3983 762.32 410.252
1461 0 103.092 12.6877 1308 97.3693 762.536 409.744
1462 0 108.069 12.8714 1391 96.422 762.468 407.382
1463 1 60.1042 12.1622 731 94.8276 763.249 430.183
1464 0 61.0548 12.5789 768 94.7474 763.374 430.477
1465 0 61.1326 12.9554 792 102.011 763.184 429.367
1466 0 61.0654 11.7251 716 96.6983 763.478 431.163
1467 0 63.0687 12.0028 757 97.1281 762.624 428.411
1468 0 67.0845 12.6259 847 93.843 762.496 427.142
1469 0 67.0944 12.0725 810 95.2852 762.804 426.694
1470 0 68.0681 12.0174 818 96.2494 763.081 425.433
1471 0 72.069 12.4464 897 94.6778 762.775 424.589
1472 0 73.0985 12.2848 898 95.9955 762.843 423.056
1473 0 74.0755 11.8933 881 96.8831 763.266 424.43
1474 0 78.0749 12.3855 967 96.0993 763.484 422.396
1475 0 80.0589 12.241 980 96.151 763.438 420.011
1476 0 84.0381 12.5776 1057 93.6689 763.493 416.983
1477 0 84.0741 11.5493 971 98.4068 763.204 417.567
1478 0 87.0853 11.8275 1030 96.801 763.14 414.356
1479 0 91.0706 11.9029 1084 96.2897 762.74 414.894
1480 0 92.1435 12.2309 1127 94.9627 762.17 414.891
1481 0 97.1079 12.1102 1176 94.3342 762.673 410.26
1482 0 99.1223 11.7128 1161 95.4186 761.893 409.825
1483 0 100.067 11.9419 1195 95.3105 762.297 408.964
1484 0 103.107 11.842 1221 95.5348 762.111 406.652
1485 0 107.054 11.5736 1239 96.2332 762.03 404.219
1486 0 108.109 11.3496 1227 96.3382 762.182 404.196
1487 0 112.11 11.3192 1269 95.8905 762.749 402.924
1488 0 116.138 11.5983 1347 96.6199 762.129 401.855
1489 0 117.157 12.1461 1423 99.4076 762.254 400.021
1490 0 122.223 11.9863 1465 99.7106 761.545 395.071
1491 0 125.194 12.0213 1505 98.9714 762.023 392.12
1492 1 73.1363 10.9522 801 97.0699 761.679 415.63
1493 0 74.173 11.1092 824 97.2973 761.218 413.282
1494 0 78.2219 12.0299 941 99.9575 761.644 417.371
1495 0 76.1057 10.63 809 91.9691 761.834 419.007
1496 0 77.1656 10.3025 795 93.273 762.101 417.882
1497 0 82.048 10.6645 875 93.0423 762.992 419.099
1498 0 87.0742 11.0251 960 93.0896 763.1 414.641
1499 0 89.1022 10.8078 963 94.2399 762.831 414.791
1500 0 92.0895 11.6734 1075 93.3516 762.584 410.679
1501 0 95.093 11.494 1093 94.764 763.018 407.783
1502 0 97.0898 11.4327 1110 95.3541 763.485 406.73
1503 0 102.08 11.7163 1196 96.7542 762.92 403.44
1504 0 106.16 12.7166 1350 98.4511 763.038 400.83
1505 0 109.088 12.3845 1351 98.0178 763.325 397.532
1506 0 111.083 12.6842 1409 96.6146 763.15 396.749
1507 0 114.109 11.8396 1351 98.0318 762.611 396.184
1508 1 61.0188 10.4394 637 96.0816 762.251 422.978
1509 0 64.0747 10.4097 667 94.1589 762.486 424.477
1510 0 68.09 12.2044 831 88.9759 760.406 423.249
1511 0 69.031 12.2843 848 93.921 760.889 422.441
1512 0 71.0553 11.9203 847 93.7544 760.777 420.852
1513 0 75.1103 12.4883 938 98.2623 760.992 420.199
1514 0 76.0785 13.1575 1001 96.4825 761.205 419.972
1515 0 75.0727 11.0027 826 91.4649 761.628 419.728
1516 0 78.0675 11.631 908 93.7258 762.344 419.058
1517 0 82.0711 12.477 1024 92.709 762.131 417.529
1518 0 82.0716 12.2698 1007 95.142 762.409 415.778
1519 0 87.0984 12.3768 1078 95.0659 761.366 414.724
1520 0 89.135 12.1613 1084 97.5221 760.984 413.859
1521 0 92.0702 12.4687 1148 97.088 761.305 413.083
1522 0 95.0473 13.0567 1241 96.3312 761.188 411.127
1523 0 95.1033 12.0711 1148 100.177 761.263 410.586
1524 0 100.09 12.9883 1300 98.2608 762.53 408.375
1525 0 101.115 12.4116 1255 98.4693 762.355 407.691
1526 0 106.155 13.5745 1441 92.5434 762.068 406.504
1527 0 107.108 12.7908 1370 96.3036 762.336 405.062
1528 0 108.116 12.4589 1347 97.3704 762.225 405.453
1529 0 112.083 13.0082 1458 96.9513 762.113 403.085
1530 0 117.153 12.7525 1494 95.5455 763.193 403.817
1531 0 119.139 12.5484 1495 97.5425 763.458 401.009
1532 0 123.093 13.4776 1659 95.1688 763.141 395.698
1533 0 123.093 13.5101 1663 142.365 763.132 395.702
1534 0 130.178 13.036 1697 97.4431 762.502 394.073
1535 0 133.035 12.6433 1682 100.209 761.806 393.133
1536 0 139.081 13.7115 1907 97.2344 761.723 388.427
1537 0 142.135 13.3886 1903 97.7236 761.976 388.259
1538 0 145.096 13.0052 1887 99.5904 761.25 386.399
1539 0 149.094 12.8711 1919 99.0719 762.188 383.989
1540 0 157.369 14.7933 2328 103.063 762.214 377.532
1541 0 161.249 14.121 2277 105.12 762.324 374.621
1542 0 165.348 13.4262 2220 105.991 761.884 374.194
1543 0 165.348 13.4081 2217 167.277 761.898 374.354
1544 1 90.1835 12.0532 1087 97.874 762.405 411.452
1545 0 91.0576 12.8051 1166 95.7667 762.79 409.227
1546 0 94.2416 13.1895 1243 95.0829 761.954 407.615
1547 0 93.1791 12.1165 1129 98.8122 761.764 409.484
1548 0 95.1936 11.5764 1102 100.798 762.172 406.092
1549 0 99.1472 12.1133 1201 98.1815 761.593 402.584
1550 0 98.0503 11.5655 1134 101.004 760.891 398.586
1551 0 100.046 11.1649 1117 101.004 760.576 399.928
1552 0 105.123 11.0633 1163 100.488 760.758 396.971
1553 0 106.099 11.1971 1188 100.802 761.095 393.957
1554 0 111.127 11.5363 1282 99.5998 761.361 393.461
1555 0 122.191 14.8947 1820 87.6456 761.897 388.814
1556 0 122.086 12.4175 1516 94.6933 761.77 389.246
1557 0 124.139 11.8335 1469 95.5473 761.903 390.399
1558 0 128.137 11.5111 1475 96.4942 761.971 386.277
1559 1 70.1351 10.1804 714 94.6036 762.552 413.426
1560 0 72.1732 11.0152 795 91.4164 762.741 413.762
1561 0 79.1421 12.0037 950 93.1537 762.442 414.891
1562 0 77.1712 11.5069 888 91.0991 762.323 417.307
1563 0 81.1999 11.798 958 90.7307 762.57 417.033
1564 0 83.1265 12.5111 1040 88.4212 762.273 417.344
1565 0 86.0776 12.0821 1040 90.2538 762.138 414.089
1566 0 88.1279 12.2322 1078 90.2412 762.617 414.781
1567 0 91.1244 11.9727 1091 91.5133 762.485 412.936
1568 0 93.1657 12.6978 1183 90.3584 762.949 411.74
1569 0 97.1338 12.5291 1217 91.6105 762.551 408.69
1570 0 99.1671 12.8369 1273 91.0738 761.593 405.216
1571 0 100.197 12.2658 1229 90.2661 761.563 402.788
1572 0 104.185 12.4874 1301 88.588 761.83 400.427
1573 0 105.141 12.1931 1282 89.2098 762.332 398.971
1574 0 109.162 12.1013 1321 89.6518 762.013 397.743
1575 0 114.139 12.441 1420 88.55 761.942 394.093
1576 0 120.146 13.5086 1623 84.5354 762.03 394.646
1577 1 67.1163 10.6084 712 82.5197 761.286 419.888
1578 0 70.0617 12.0608 845 86.4024 761.863 421.527
1579 0 73.1191 13.3754 978 86.2352 762.798 422.961
1580 0 72.1474 11.3933 822 84.8589 762.167 421.072
1581 0 72.1361 10.7574 776 91.7474 762.621 418.916
1582 0 73.0792 10.167 743 92.4092 762.156 418.168
1583 0 79.1677 12.2525 970 86.7526 762.48 420.516
1584 0 81.2299 12.1261 985 89.9888 762.159 419.161
1585 0 85.1352 13.2378 1127 89.2972 762.248 419.753
1586 0 88.1823 12.7803 1127 90.5927 762.106 417.364
1587 0 89.1801 12.7943 1141 90.8659 762.548 416.558
1588 0 91.1843 12.9737 1183 93.0913 763.53 414.734
1589 0 95.2019 13.0355 1241 93.1241 762.807 413.304
1590 0 96.1908 12.1945 1173 97.243 763.068 412.329
1591 0 101.115 12.9754 1312 88.7904 763.332 410.032
1592 0 102.105 12.0464 1230 89.5756 762.516 408.364
1593 0 107.23 12.4406 1334 89.2856 762.086 406.174
1594 0 113.139 12.8957 1459 85.8814 762.558 404.84
1595 0 114.175 11.9553 1365 90.1443 762.213 404.018
1596 1 65.1265 11.3011 736 91.1046 762.341 427.133
1597 0 66.1244 11.6599 771 89.7977 761.634 423.996
1598 0 70.1738 13.1958 926 94.4687 761.528 424.429
1599 0 72.2506 12.8719 930 96.5495 762.344 423.604
1600 0 76.2276 12.2265 932 97.6803 762.564 421.354
1601 0 78.2087 12.5306 980 97.0194 762.086 420.284
1602 0 81.2074 12.7821 1038 95.3642 762.42 418.78
1603 0 82.1957 12.5189 1029 97.2857 762.322 417.468
1604 0 85.1884 12.8069 1091 97.758 761.562 416.745
1605 0 88.1343 12.2427 1079 96.4541 761.798 415.007
1606 0 91.1311 12.8386 1170 96.1914 761.811 413.762
1607 0 91.1155 12.3579 1126 97.4831 761.702 413.631
1608 0 96.1733 12.6334 1215 96.4362 762.118 411.929
1609 0 98.1506 12.5521 1232 95.108 762.374 410.62
1610 0 101.21 12.0541 1220 96.0631 762.125 408.811
1611 0 105.169 12.4467 1309 95.0848 762.41 408.41
1612 0 109.176 12.8325 1401 95.1499 762.187 405.369
1613 0 109.187 11.5948 1266 99.0948 761.827 402.888
1614 0 116.122 12.4351 1444 95.4785 762.026 401.528
1615 0 120.218 13.0097 1564 92.984 761.351 400.932
1616 0 122.177 12.8666 1572 94.5712 762.057 398.335
1617 1 67.1997 11.384 765 86.8693 761.958 426.516
1618 0 69.2171 11.5145 797 86.9423 762.016 426.001
1619 0 72.1228 12.0628 870 90.5667 762.628 423.805
1620 0 73.1319 12.1288 887 87.947 762.231 420.464
1621 0 75.1529 11.7627 884 87.5916 761.743 419.828
1622 0 77.1292 12.0966 933 86.0064 761.848 419.821
1623 0 78.1767 11.5763 905 86.1315 761.574 418.515
1624 0 81.2098 12.2768 997 86.3912 761.021 416.072
1625 0 84.3666 12.3153 1039 84.2733 761.438 415.574
1626 0 87.173 12.3777 1079 84.5468 761.754 413.399
1627 0 93.2689 12.866 1200 89.3133 761.978 410.657
1628 0 94.2144 12.8537 1211 90.2502 761.887 407.59
1629 0 99.2661 12.8846 1279 89.8726 761.903 406.74
1630 0 101.196 12.4906 1264 91.1297 761.877 405.843
1631 0 104.134 12.8008 1333 89.4231 761.847 404.342
1632 0 108.09 12.8781 1392 89.2385 760.958 402.361
1633 1 57.0573 10.5683 603 80.403 761.091 428.75
1634 0 61.1619 11.3633 695 78.0892 761.199 427.053
1635 0 62.102 11.0463 686 79.0583 761.55 425.399
1636 0 64.1931 11.2006 719 85.9249 760.758 423.791
1637 0 66.1769 11.3181 749 85.2977 761.578 422.581
1638 0 67.2061 11.0853 745 85.4591 762.318 421.012
1639 0 71.1354 11.3305 806 82.9429 761.28 421.681
1640 0 73.1506 11.2098 820 83.2134 762.448 419.534
1641 0 76.1286 11.717 892 83.0953 762.33 417.695
1642 0 78.092 11.5249 900 82.75 761.711 418.479
1643 0 79.1342 11.2214 888 84.4009 761.836 417.798
1644 0 82.1055 11.3147 929 83.3929 762.468 419.283
1645 0 84.1935 11.3904 959 84.7216 762.474 416.615
1646 0 86.1302 10.8324 933 86.0386 762.887 415.303
1647 0 91.1738 11.2752 1028 84.9708 762.77 415.407
1648 0 91.1676 11.2759 1028 149.857 763.769 415.323
1649 0 97.257 11.4131 1110 85.5027 763.424 412.839
1650 0 100.257 11.0616 1109 87.0739 762.902 410.283
1651 1 56.1264 10.6902 600 78.2 762.128 431.852
1652 0 57.1443 10.7447 614 83.1694 762.303 426.936
1653 0 57.2262 10.7293 614 86.1726 761.834 427.614
1654 0 61.1638 11.1994 685 84.5547 762.196 425.46
1655 0 61.2228 11.4173 699 83.6252 761.963 425.3
1656 0 64.1254 10.8849 698 84.3711 761.776 425.317
1657 0 67.1638 11.4049 766 82.6971 762.487 423.884
1658 0 69.2396 11.3374 785 82.9363 762.246 421.847
1659 0 71.159 10.9614 780 83.05 762.69 422.955
1660 0 72.1552 11.1981 808 83.4332 762.806 419.479
1661 0 76.2014 10.5904 807 83.1512 762.229 419.057
1662 0 76.3172 10.7184 818 84.1687 762.194 415.631
1663 0 79.1143 10.9841 869 81.9056 761.963 415.212
1664 0 79.1158 9.64409 763 82.92 762.165 413.579
1665 0 84.2137 10.2715 865 79.8405 761.657 413.11
1666 1 44.1868 9.14301 404 72.6807 761.126 433.322
1667 0 45.1595 10.2304 462 71.7035 761.058 431.946
1668 0 47.1965 10.4245 492 73.5528 761.659 426.801
1669 0 47.1351 10.7563 507 73.1085 761.748 428.753
1670 0 49.184 10.7759 530 74.5057 762.124 428.074
1671 0 47.0673 9.26333 436 75.7339 761.851 430.927
1672 0 49.1533 9.92813 488 74.8914 761.336 431.156
1673 0 50.1348 9.99306 501 74.6447 761.76 431.172
1674 0 52.0874 10.2904 536 73.8004 760.976 430.631
1675 0 53.1409 10.2934 547 74.9104 761.102 429.269
1676 0 54.163 10.7638 583 74.9005 761.137 426.854
1677 0 55.1149 10.596 584 75.9897 761.438 426.991
1678 0 57.1827 10.4577 598 75.9181 762.176 425.149
1679 0 58.1445 11.781 685 73.7723 761.47 424.845
1680 0 60.0814 10.9684 659 74.874 761.035 423.92
1681 0 60.0863 10.8178 650 75.7338 760.868 423.552
1682 0 63.0829 11.5404 728 74.7157 760.474 420.549
1683 0 63.1343 11.2934 713 75.4488 761.272 419.463
1684 0 67.1044 11.8919 798 74.4135 761.714 418.286
1685 0 67.1273 11.5005 772 76.0531 761.131 418.214
1686 0 69.115 11.517 796 76.549 761.126 416.834
1687 0 70.1648 11.4872 806 76.8052 762.15 415.701
1688 0 73.195 12.0363 881 75.5778 762.348 415.103
1689 0 75.2665 11.2135 844 77.0818 762.146 414.45
1690 0 75.2449 10.8845 819 78.7692 761.889 412.361
1691 0 79.2058 12.0067 951 76.4953 761.675 411.218
1692 0 80.1167 12.02 963 76.8536 762.288 410.684
1693 0 83.2814 11.7073 975 77.7087 762.776 408.471
1694 0 84.2639 11.6657 983 77.5198 762.117 407.426
1695 0 88.3349 11.5017 1016 77.2854 761.82 406.583
1696 0 90.2592 11.2897 1019 78.633 762.297 404.465
1697 0 95.2436 11.6018 1105 77.1466 762.843 402.528
1698 0 103.239 14.4132 1488 69.9711 762.624 394.418
1699 0 104.488 13.1212 1371 74.3552 762.772 396.134
1700 1 56.0941 10.5715 593 74.1771 762.541 420.68
1701 0 56.0442 10.9735 615 72.2846 762.141 420.353
1702 0 59.0478 11.4145 674 71.8635 762.571 419.105
1703 0 61.0814 11.1491 681 73.4244 762.976 423.675
1704 0 62.1512 11.7295 729 72.775 762.152 423.055
1705 0 64.1249 11.6179 745 74.2376 762.15 422.152
1706 0 64.1249 11.7271 752 131.015 762.158 422.029
1707 0 67.0526 10.9615 735 76.6939 761.995 417.678
1708 0 68.0839 10.5458 718 77.6365 761.765 419.043
1709 0 72.046 11.1734 805 77.0099 761.28 417.053
1710 0 73.0673 11.2088 819 76.7766 761.768 412.91
1711 0 77.087 11.9475 921 74.8176 761.963 411.86
1712 0 79.0499 11.2461 889 75.3105 762.158 407.699
1713 0 79.104 10.9729 868 77.2604 762.292 404.735
1714 0 84.1238 11.388 958 77.4447 762.973 403.617
1715 0 87.0979 11.2632 981 77.7064 762.565 402.586
1716 0 86.1015 11.1729 962 139.024 761.566 401.873
1717 1 48.0445 6.827 328 69.6067 762.71 425.223
1718 0 51.0422 9.52154 486 66.5206 762.617 426.278
1719 0 50.0423 9.65184 483 71.766 763.219 424.298
1720 0 54.0664 11.0605 598 73.6689 763.027 429.258
1721 0 56.1378 11.1511 626 68.7093 763.185 430.24
1722 0 56.0824 10.8947 611 70.2144 762.462 429.979
1723 0 57.0696 10.7763 615 70.3675 762.946 429.881
1724 0 58.0867 11.6894 679 70.2784 763.216 427.923
1725 0 61.0692 10.3817 634 71.7697 763.06 425.842
1726 0 62.0426 11.7339 728 71.0618 762.37 427.055
1727 0 62.1041 11.5773 719 71.8943 761.441 425.026
1728 0 66.0736 11.8958 786 71.2163 762.56 425.486
1729 0 67.1065 11.4296 767 73.1838 762.752 423.797
1730 0 70.127 12.3205 864 72.0556 762.851 423.367
1731 0 71.1 12.0253 855 73.345 762.342 421.43
1732 0 74.1002 12.3886 918 74.2963 762.47 420.502
1733 0 75.0811 11.8538 890 76.2214 762.379 421.762
1734 0 77.0764 12.3254 950 76.4337 762.886 420.887
1735 0 79.059 12.3579 977 77.1054 762.737 418.39
1736 0 83.1321 12.2576 1019 77.5672 762.236 417.511
1737 0 84.0893 12.2846 1033 78.4143 763.365 416.548
1738 0 85.104 12.0088 1022 79.7035 763.171 417.067
1739 0 88.0903 11.3633 1001 80.9281 763.624 414.906
1740 0 91.1018 12.1403 1106 80.0515 762.628 413.394
1741 0 95.204 11.9743 1140 80.779 762.141 413.148
1742 0 99.1057 12.2495 1214 80.6903 761.53 409.821
1743 0 101.153 12.3674 1251 80.4484 762.635 406
1744 0 103.13 12.0819 1246 81.0682 762.405 400.84
1745 0 105.117 11.7488 1235 81.9409 762.67 401.526
1746 1 58.1261 10.2192 594 78.3973 762.65 422.108
1747 0 58.0898 11.224 652 77.6932 762.681 421.12
1748 0 62.1551 11.1817 695 77.3295 761.587 428.233
1749 0 63.0533 11.863 748 77.4278 762.049 424.864
1750 0 66.1063 12.1168 801 77.608 761.357 423.814
1751 0 68.0586 11.5195 784 79.037 760.417 424.088
1752 0 69.1696 11.5947 802 81.0598 760.461 422.677
1753 0 70.2631 10.7311 754 80.4987 761.568 422.821
1754 0 74.1423 11.6533 864 80.3148 761.153 421.012
1755 0 75.1606 11.6684 877 81.4299 761.514 420.99
1756 0 78.1783 11.6273 909 82.5126 761.652 420.763
1757 0 78.1182 11.5594 903 84.866 762.885 417.37
1758 0 83.1868 11.8649 987 84.4853 762.363 417.904
1759 0 87.216 11.89 1037 85.4397 762.284 415.38
1760 0 90.2225 11.7376 1059 87.2323 762.486 414.336
1761 0 91.2841 11.7764 1075 88.0093 763.05 412.782
1762 1 53.2432 10.931 582 86.354 762.699 430.844
1763 0 54.2938 11.6772 634 86.7429 762.842 429.888
1764 0 54.2875 11.2917 613 88.2268 762.63 430.325
1765 0 54.2063 10.7368 582 79.5017 762.569 429.885
1766 0 55.1044 10.7614 593 80.1282 761.678 428.639
1767 0 58.1534 10.7646 626 79.4792 761.871 428.337
1768 0 61.0955 11.2283 686 78.6997 761.649 427.369
1769 0 61.0952 11.4248 698 78.9341 761.748 426.388
1770 0 63.1168 11.1381 703 79.2617 761.545 427.563
1771 0 66.1438 11.2936 747 79.1191 761.572 423.776
1772 0 67.2132 11.2924 759 78.8498 761.433 424.618
1773 0 68.1518 12.0466 821 82.5469 761.777 423.253
1774 0 72.2891 12.5607 908 81.076 761.734 421.447
1775 0 74.2414 13.1463 976 80.2807 761.466 422.012
1776 0 77.3282 13.1517 1017 80.0148 761.604 420.681
1777 0 78.1898 12.5592 982 80.9572 761.336 419.302
1778 0 81.1302 12.7203 1032 81.1357 761.527 417.694
1779 0 85.0799 13.1406 1118 80.6887 761.242 414.603
1780 0 87.0702 12.7943 1114 79.7738 761.239 413.86
1781 0 88.0763 12.2167 1076 81.7835 761.348 411.069
1782 0 92.0776 12.9239 1190 78.0899 761.73 410.103
1783 0 95.109 12.2491 1165 79.9227 761.954 408.649
1784 0 98.083 12.5404 1230 78.2423 762.115 405.651
1785 0 103.054 13.6821 1410 78.5043 762.231 405.301
1786 0 106.11 13.6368 1447 83.0511 761.944 402.965
1787 0 110.045 12.3586 1360 84.2294 762.01 401.924
1788 1 59.0522 12.0063 709 75.9788 762.44 426.024
1789 0 62.0453 11.7656 730 79.6151 761.937 424.808
1790 0 65.042 12.5919 819 76.3565 762.264 424.377
1791 0 68.0638 13.1788 897 71.5563 761.401 421.254
1792 0 68.1056 13.4203 914 74.337 762.348 421.259
1793 0 70.0989 13.1386 921 75.6916 761.814 420.836
1794 0 71.0728 12.5083 889 74.5602 762.002 421.304
1795 0 74.0578 12.3012 911 75.4687 762.08 419.363
1796 0 76.1438 13.5927 1035 74.9072 762.273 417.437
1797 0 78.0887 12.7931 999 76.0681 762.379 416.202
1798 0 82.1404 13.5013 1109 74.954 762.252 413.852
1799 0 85.1011 13.3136 1133 76.3769 761.464 413.907
1800 0 88.0828 13.1127 1155 74.3784 761.348 414.161
1801 0 92.0969 13.0623 1203 74.3034 759.81 411.708
1802 0 96.1196 13.6601 1313 78.3305 760.456 409.497
1803 0 98.1401 13.654 1340 77.9604 760.513 407.535
1804 1 50.1087 11.3753 570 78.0158 761.104 431.074
1805 0 53.0222 11.7687 624 76.367 761.045 430.279
1806 0 55.0317 12.2293 673 76.26 761.765 427.805
1807 0 56.0369 12.4382 697 76.6542 762.395 427.478
1808 0 57.0874 12.5947 719 77.1878 762.734 429.081
1809 0 58.0886 11.844 688 78.7951 762.374 427.75
1810 0 62.0486 13.0382 809 74.7417 761.833 428.462
1811 0 63.0382 12.421 783 76.3436 761.737 427.822
1812 0 68.0445 13.4324 914 73.2604 761.704 426.219
1813 0 69.0724 13.0298 900 75.9889 761.978 426.017
1814 0 71.051 13.5114 960 75.9646 762.182 424.367
1815 0 73.0804 13.4373 982 76.8381 761.932 422.41
1816 0 76.0845 12.9724 987 77.844 762.317 421.664
1817 0 77.0843 13.5047 1041 78.1681 762.413 420.736
1818 0 79.0957 13.3636 1057 79.7067 762.618 418.632
1819 0 83.097 13.5264 1124 79.04 761.947 416.561
1820 0 87.0942 13.9504 1215 78.5556 762.091 416.044
1821 0 89.1343 13.7209 1223 80.1635 762.614 414.169
1822 0 93.0792 13.6121 1267 80.3252 762.174 411.762
1823 0 94.0925 13.1254 1235 83.0696 762.277 410.775
1824 0 98.0778 13.8258 1356 81.4071 761.822 409.149
1825 0 102.085 13.8414 1413 83.2109 762.193 405.328
1826 0 107.083 13.9051 1489 82.0107 762.267 406.019
1827 0 109.077 14.0085 1528 84.7107 762.219 402.089
1828 0 111.169 13.52 1503 87.9727 761.801 399.908
1829 1 64.1295 11.2897 724 85.0912 762 423.383
1830 0 64.0981 11.966 767 85.0613 761.847 421.052
1831 0 68.1103 13.2579 903 85.7896 762.088 423.07
1832 0 70.1962 12.7927 898 87.9822 762.346 421.739
1833 0 72.1689 12.637 912 89.1469 761.955 422.477
1834 0 74.139 12.4901 926 91.3963 761.898 419.853
1835 0 78.1323 13.17 1029 89.5219 761.484 418.454
1836 0 79.1334 13.3066 1053 93.3124 761.777 416.995
1837 0 79.1578 13.1888 1044 94.1648 761.795 416.823
1838 0 84.1309 13.5503 1140 93.029 761.942 415.051
1839 0 87.1855 13.9358 1215 94.3531 762.089 413.091
1840 0 90.1207 14.1921 1279 94.4089 761.811 412.983
1841 0 90.2137 13.8116 1246 97.0803 761.699 410.357
1842 0 93.1124 14.4556 1346 93.0847 762.278 408.257
1843 0 96.1633 14.4546 1390 93.0827 762.286 406.996
1844 0 99.185 14.3772 1426 89.223 761.958 406.119
1845 0 102.149 13.8425 1414 89.5778 761.336 406.488
1846 0 102.159 13.8021 1410 89.8986 762.035 404.457
1847 0 105.13 13.2883 1397 92.2011 761.921 402.781
1848 0 109.116 13.7101 1496 90.9298 761.64 400.26
1849 0 114.188 15.0366 1717 88.2388 761.925 396.957
1850 0 117.192 13.3371 1563 93.3308 762.177 396.972
1851 0 118.054 13.6124 1607 90.8675 761.853 393.248
1852 0 124.145 13.3231 1654 92.3077 761.836 392.675
1853 0 127.262 13.5075 1719 93.1158 761.51 387.752
1854 1 68.1686 10.9435 746 87.2775 762.442 421.355
1855 0 70.1182 11.666 818 86.0134 762.205 420.933
1856 0 72.0967 11.1656 805 86.4025 762.366 420.097
1857 0 74.0876 12.0668 894 88.7562 762.284 417.734
1858 0 75.0799 11.5344 866 80.9677 762.492 413.169
1859 0 79.1845 12.8813 1020 88.7088 761.989 416.46
1860 0 82.0804 13.3528 1096 86.7089 761.055 414.812
1861 0 85.1019 13.1842 1122 87.5446 762.207 412.097
1862 0 87.102 13.4555 1172 87.1604 761.813 411.833
1863 0 91.1325 13.3652 1218 87.0107 762.534 410.296
1864 0 92.0425 13.8632 1276 86.8135 762.598 408.729
1865 0 95.1229 14.066 1338 87.917 762.85 408.475
1866 0 97.0948 13.5641 1317 90.2437 762.799 406.639
1867 0 100.104 12.6069 1262 93.3677 762.934 404.88
1868 0 104.117 13.4752 1403 90.623 763.261 403.362
1869 0 107.055 12.9185 1383 91.9877 763.065 401.714
1870 0 110.083 13.8714 1527 89.721 762.951 399.424
1871 0 115.132 13.0198 1499 89.7338 762.659 399.89
1872 0 117.174 13.3392 1563 88.2719 762.993 394.885
1873 1 61.1317 10.142 620 85.5097 762.345 425.435
1874 0 63.1158 11.772 743 83.572 762.816 423.09
1875 0 64.0985 10.4683 671 79.8226 763.213 417.727
1876 0 66.1405 11.0371 730 78.2712 762.858 420.634
1877 0 69.0638 11.4532 791 75.2642 762.426 422.162
1878 0 72.0996 12.1082 873 74.9611 762.726 421.931
1879 0 73.1249 11.9932 877 75.8016 761.661 422.336
1880 0 77.126 11.2543 868 76.1555 762.338 417.144
1881 0 80.2334 12.1396 974 73.9138 762.771 416.423
1882 0 81.0949 10.5432 855 76.0129 762.777 416.361
1883 0 85.1769 11.8694 1011 75.0119 762.4 413.756
1884 0 86.2559 11.5702 998 77.4138 763.116 414.646
1885 0 86.2559 11.5818 999 146.361 764.143 414.549
1886 0 92.0397 11.6472 1072 75.9897 763.579 409.937
1887 0 95.1134 12.5745 1196 76.2642 763.12 408.534
1888 0 98.0969 11.825 1160 77.6931 762.621 406.864
1889 0 101.081 11.4364 1156 79.5804 762.371 407.063
1890 0 105.103 12.0263 1264 78.265 761.88 404.565
1891 0 109.147 12.6893 1385 85.8664 762.524 400.148
1892 1 62.1538 10.9245 679 76.0869 761.42 426.688
1893 0 65.0713 11.3875 741 75.525 762.619 425.02
1894 0 66.0768 11.3202 748 77.0027 762.624 423.841
1895 0 68.0831 11.6622 794 86.4509 761.39 422.689
1896 0 71.2171 13.185 939 86.5996 761.578 421.241
1897 0 72.0908 13.4969 973 86.7996 762.231 421.705
1898 0 76.137 12.5957 959 86.0136 761.739 420.123
1899 0 76.1307 12.5705 957 87.9195 761.925 419.717
1900 0 79.1181 12.9174 1022 87.7065 761.42 419.106
1901 0 82.1315 12.8209 1053 87.7768 761.266 417.744
1902 0 83.2156 12.6419 1052 89.9068 761.316 416.893
1903 0 87.2138 13.2433 1155 88.529 761.789 415.96
1904 0 90.1613 13.0655 1178 88.4694 761.424 414.851
1905 0 94.1372 12.6093 1187 89.6411 761.23 414.058
1906 0 95.2132 12.7083 1210 90.3835 762.012 412.597
1907 0 97.1618 13.1327 1276 90.308 761.235 411.241
1908 0 100.236 13.3785 1341 90.4377 761.876 409.328
1909 0 103.217 12.7983 1321 92.6616 761.693 408.426
1910 1 55.1874 11.5968 640 89.6812 761.336 433.069
1911 0 57.0855 10.8083 617 88.7423 761.036 432.272
1912 0 59.08 12.7285 752 90.9588 761.294 430.114
1913 0 61.104 13.2561 810 88.0877 761.251 428.743
1914 0 62.2158 12.5049 778 91.3033 762.236 427.965
1915 0 64.0752 13.3905 858 90.2844 762.014 426.459
1916 0 67.2874 13.9105 936 87.3301 762.417 426.578
1917 0 70.1064 13.665 958 86.975 761.668 426.252
1918 0 72.185 13.036 941 87.7715 761.618 425.536
1919 0 73.0789 13.3965 979 86.3616 761.786 423.988
1920 0 77.0942 13.1398 1013 86.0109 760.589 423.87
1921 0 78.1084 13.1484 1027 87.2639 761.631 422.906
1922 0 81.0738 13.4322 1089 87.2222 761.3 420.129
1923 0 83.1028 13.9586 1160 85.9569 761.859 420.633
1924 0 86.1008 13.9952 1205 86.5444 760.994 419.179
1925 0 89.1719 14.3879 1283 84.6968 761.615 418.578
1926 0 90.1787 13.6174 1228 86.2573 761.138 415.603
1927 0 95.1047 13.4799 1282 84.9563 761.936 415.945
1928 0 98.1626 13.7018 1345 84.1881 760.964 414.622
1929 0 102.156 13.1563 1344 84.1793 760.926 413.538
1930 0 104.113 13.6006 1416 84.1391 761.376 410.259
1931 1 59.1362 12.3613 731 82.4514 760.999 434.607
1932 0 61.0846 12.8019 782 83.6253 760.294 433.391
1933 0 63.0758 12.3661 780 90.6103 760.287 432.013
1934 0 64.0728 13.2193 847 88.3058 760.418 429.071
1935 0 65.1268 13.0822 852 88.9976 761.074 428.617
1936 0 68.1729 12.395 845 89.9124 761.421 427.541
1937 0 70.1267 13.4614 944 87.8104 761.414 425.579
1938 0 73.0581 13.7151 1002 86.9361 761.413 426.566
1939 0 74.0648 13.5422 1003 88.34 761.472 425.428
1940 0 76.0753 13.8678 1055 87.7754 761.688 424.502
1941 0 79.1294 13.7244 1086 88.2173 761.55 423.906
1942 0 81.1216 13.8434 1123 88.5307 761.15 421.053
1943 0 85.0948 13.7611 1171 87.9778 761.518 421.196
1944 0 86.1127 14.1094 1215 87.8642 762.184 421.094
1945 0 89.0428 13.6339 1214 88.8196 761.199 417.83
1946 0 94.0882 14.4439 1359 86.7866 761.001 418.12
1947 0 96.0504 14.6382 1406 86.3229 761.639 416.711
1948 0 100.081 14.848 1486 85.2907 762.142 414.902
1949 0 102.224 14.7324 1506 85.591 761.895 413.826
1950 0 106.098 14.9484 1586 85.2346 761.448 410.366
1951 0 108.137 15.2954 1654 84.8386 761.187 411.087
1952 0 110.118 14.6207 1610 86.8186 760.935 408.192
1953 0 113.165 14.5098 1642 85.9202 760.786 409.127
1954 0 118.201 14.1877 1677 86.3566 760.504 405.346
1955 1 64.1431 12.5345 804 88.2002 761.149 431.731
1956 0 66.0633 13.3357 881 88.2508 761.494 429.521
1957 0 70.087 13.8257 969 86.6347 761.102 428.387
1958 0 70.0757 13.9706 979 88.3647 760.69 426.23
1959 0 74.1287 13.625 1010 87.8327 760.182 426.218
1960 0 76.1232 13.4519 1024 89.3779 760.418 423.628
1961 0 79.1341 14.2417 1127 87.4241 760.96 422.714
1962 0 83.0728 14.5174 1206 86.5887 760.881 422.389
1963 0 85.1229 14.8374 1263 86.7775 761.117 420.787
1964 0 89.0342 14.8482 1322 86.9743 760.589 420.542
1965 0 90.0724 15.1656 1366 87.3719 760.787 419.512
1966 0 92.1131 14.3954 1326 91.4314 760.769 416.873
1967 0 94.0662 13.9795 1315 92.9787 760.449 414.791
1968 0 96.0838 13.6027 1307 94.8439 760.8 413.927
1969 0 99.0705 13.6771 1355 94.9963 760.393 412.08
1970 0 99.0799 13.4336 1331 96.7205 760.663 409.573
1971 0 104.083 13.5853 1414 96.7044 760.871 408.531
1972 0 111.116 14.5523 1617 93.4793 760.863 409.176
1973 0 114.137 14.062 1605 94.9875 760.611 404.941
1974 0 117.158 13.8873 1627 95.6214 760.88 403.978
1975 0 121.132 14.1416 1713 95.4372 759.598 401.463
1976 0 128.131 13.9935 1793 95.2075 760.204 400.655
1977 1 61.0561 11.3175 691 98.5601 760.606 426.382
1978 0 68.0514 13.3576 909 91.1661 759.402 428.99
1979 0 70.1778 13.5228 949 91.039 758.669 428.521
1980 0 70.0874 14.168 993 92.4995 759.493 426.56
1981 0 73.1013 13.5155 988 94.6933 759.11 425.985
1982 0 76.0919 14.7322 1121 91.661 759.787 424.871
1983 0 77.1127 13.6553 1053 95.3799 759.939 422.532
1984 0 79.1245 14.0032 1108 95.8727 760.088 421.665
1985 0 81.0624 13.8412 1122 96.7487 759.872 418.982
1986 0 81.0754 13.0866 1061 100.237 760.259 416.254
1987 0 84.1832 13.3162 1121 99.7725 760.082 415.205
1988 0 88.1271 13.5826 1197 99.6099 759.947 413.959
1989 0 90.0805 13.0994 1180 101.429 759.464 412.93
1990 0 91.0804 13.7461 1252 100.764 759.57 412.85
1991 0 94.1035 13.1664 1239 102.958 759.258 410.354
1992 0 97.0948 13.5538 1316 103.1 759.071 408.517
1993 0 102.096 14.0848 1438 101.285 759.683 407.082
1994 0 104.173 12.5465 1307 105.15 759.349 401.282
1995 0 107.088 13.3722 1432 103.83 759.705 399.115
1996 0 109.192 12.8673 1405 106.135 759.47 395.169
1997 0 114.118 13.2757 1515 105.159 759.672 395.429
1998 0 122.071 14.2376 1738 102.192 759.963 395.334
1999 0 126.112 14.4555 1823 101.856 760.158 394.774
2000 0 126.112 14.3524 1810 139.57 760.145 394.668
2001 0 135.132 14.5784 1970 101.547 759.684 389.898
2002 0 137.264 13.9002 1908 104.574 758.916 385.133
2003 0 145.184 14.7606 2143 101.872 759.581 384.522
2004 0 149.132 14.752 2200 102.114 759.349 379.522
2005 0 155.075 14.7799 2292 101.986 759.32 378.11
2006 0 156.192 14.002 2187 105.869 759.343 374.257
2007 0 163.22 14.8572 2425 103.982 758.963 371.869
2008 0 167.166 14.6381 2447 105.843 759.545 370.606
2009 0 171.174 13.7404 2352 108.38 759.963 364.76
2010 0 173.085 15.1891 2629 105.611 759.428 355.109
2011 0 177.244 13.3714 2370 111.741 759.765 354.496
2012 0 183.246 13.3155 2440 112.163 759.487 350.702
2013 1 193.17 14.8004 2859 106.944 759.056 346.77
2014 0 201.225 13.6365 2744 110.447 758.543 347.907
2015 1 34.0744 6.66188 227 86.9868 757.934 439.96
2016 0 30.1391 7.73083 233 79.6824 758.918 442.064
2017 0 34.0924 7.09836 242 79.7645 758.616 442.062
2018 0 30.0904 5.41701 163 84.6319 758.73 443.92
2019 0 32.0864 5.85917 188 84.9415 758.378 443.894
2020 0 32.1007 6.16809 198 85.1212 757.778 445
2021 0 35.0832 5.64373 198 85.9242 757.848 445.47
2022 0 40.1146 6.60607 265 85.2528 757.932 443.63
2023 0 43.1099 8.21158 354 82.6186 757.319 445.096
2024 0 46.1343 8.49693 392 82.6964 758.212 443.337
2025 0 48.1331 8.16486 393 83.369 758.158 442.293
2026 0 48.0466 8.99127 432 82.8634 758.581 442.625
2027 0 54.1162 8.22304 445 83.6337 758.407 440.366
2028 0 51.1331 8.11607 415 86.0988 758.263 437.843
2029 0 52.0766 7.46977 389 87.2339 758.843 436.352
2030 0 55.1359 8.50626 469 85.1599 759.068 434.241
2031 0 57.1115 7.70422 440 87.2932 759.136 436.768
2032 0 57.13 7.71924 441 88.8866 759.594 432.349
2033 0 59.137 7.62637 451 90.0998 759.82 429.916
2034 0 63.1075 7.71699 487 89.5216 759.532 426.203
2035 0 65.1575 8.28761 540 88.4667 759.463 426.217
2036 0 67.258 7.96931 536 88.9123 759.187 427.946
2037 1 28.0888 6.15903 173 92.1734 757.578 444.376
2038 0 27.0401 6.76774 183 92.9016 758.754 444.35
2039 0 32.0372 6.21152 199 89.201 758.161 443.598
2040 0 32.0086 7.09184 227 87.3656 757.485 438.551
2041 0 32.0117 7.34106 235 87.1574 758.328 437.553
2042 0 33.014 7.45139 246 89.8252 757.829 437.537
2043 0 34.0184 7.55473 257 84.8872 758.066 437.187
2044 0 32.047 7.76985 249 86.5663 758.863 437.124
2045 0 44.0484 10.6701 470 78.2915 758.74 440.168
2046 0 45.0347 10.3698 467 80.0321 758.251 440.122
2047 0 46.0972 10.5212 485 80.8515 758.012 439.064
2048 0 46.0492 10.5974 488 81.5738 758.166 438.221
2049 0 49.0522 10.4582 513 82.4425 758.632 436.979
2050 0 48.0376 10.4293 501 83.507 758.968 436.525
2051 0 49.039 10.5222 516 84.0911 758.758 434.543
2052 0 47.0724 10.1758 479 87.1086 759.073 434.81
2053 0 48.0422 10.3659 498 87.5221 758.01 433.472
2054 0 51.0396 10.4625 534 86.1704 758.809 433.296
2055 0 50.0608 10.2276 512 87.7539 758.361 432.439
2056 0 54.0305 9.90181 535 87.1533 759.293 430.469
2057 0 55.0879 10.4379 575 86.3756 759.424 430.871
2058 0 56.0579 10.7032 600 85.3117 759.653 430.477
2059 0 57.0381 10.5894 604 85.1109 759.036 430.29
2060 1 0 0 0 -nan -nan -nan
2061 1 56.0667 9.98811 560 85.6982 760.089 429.546
2062 0 53.0675 9.55386 507 85.6923 760.619 428.75
2063 0 58.0568 9.78351 568 83.7007 760.352 428.342
2064 0 60.0847 9.93597 597 82.4724 760.68 428.735
2065 0 59.093 8.88431 525 83.4667 760.248 427.735
2066 1 0 0 0 -nan -nan -nan
2067 1 62.115 9.43412 586 79.8822 759.623 427.261
2068 0 62.0834 9.68053 601 78.2812 759.802 426.473
2069 0 63.0723 8.89455 561 78.4991 759.973 427.34
2070 0 61.0385 7.569 462 78.9978 760.13 424.682
2071 0 65.2043 9.29387 606 74.5462 759.942 424.596
2072 0 65.0743 9.94248 647 72.7295 759.768 422.858
2073 0 69.1379 9.95113 688 71.0814 759.305 421.773
2074 0 69.1169 10.0699 696 70.1207 759.46 422.178
2075 0 72.2617 10.0607 727 68.2572 759.308 422.216
2076 0 73.2285 10.5697 774 67.0814 759.78 421.372
2077 0 73.1875 10.2203 748 67.115 759.789 418.083
2078 0 75.2647 10.5627 795 65.1447 759.254 420.496
2079 0 74.1812 9.26111 687 66.1587 759.293 417.968
2080 0 73.1888 8.96312 656 65.9085 759.328 415.976
2082 0 73.1551 9.35 684 64.1681 759.991 415.795
2083 0 72.2156 8.57155 619 64.399 759.336 414.124
2084 0 72.1995 8.32416 601 63.7404 759.631 412.706
2085 0 73.1611 7.85937 575 63.4156 760.59 412.273
2086 0 72.0754 7.83901 565 62.4354 760.639 413.26
2087 0 72.1061 7.2948 526 61.7414 760.291 407.394
2088 1 86.2142 12.1094 1044 52.9176 759.425 416.705
2089 0 87.147 12.1519 1059 52.3428 759.833 415.993
2090 0 90.2205 13.334 1203 49.9327 760.091 415.722
2091 0 88.1766 11.8966 1049 51.5272 760.757 415.456
2092 0 91.1796 12.6234 1151 50.04 760.209 415.123
2093 0 92.1377 12.0906 1114 49.6104 760.603 416.14
2094 0 92.1682 12.9763 1196 48.1664 760.752 414.431
2095 0 95.252 11.6848 1113 48.7026 760.821 414.194
2096 0 96.2217 12.7206 1224 47.4992 760.331 412.209
2097 0 95.2049 12.3838 1179 47.24 759.368 410.601
2098 0 97.2042 11.8411 1151 45.8375 759.587 414.133
2099 0 98.1396 11.2391 1103 45.6346 759.701 411.663
2100 0 99.2551 12.0195 1193 45.1148 759.5 408.552
