time division length width area intensity CMx CMy
0 1 48.0646 13.461 647 101.423 547.529 517.218
1 0 49.0769 13.4075 658 100.903 547.017 517.333
2 0 51.0507 14.0057 715 98.1804 546.273 517.104
3 0 53.0322 13.8972 737 98.0678 546.429 516.426
4 0 53.0716 14.716 781 97.7798 546.496 515.366
5 0 56.0265 13.922 780 98.6641 546.518 514.669
6 0 57.027 14.5545 830 97.2084 546.969 513.525
7 0 59.0255 14.3497 847 96.5632 546.656 514.485
8 0 60.0567 13.8369 831 97.9555 547.246 513.875
9 0 62.0636 14.6624 910 95.5429 546.765 512.937
10 0 63.0715 14.1902 895 97.2715 546.725 512.781
11 0 65.0301 14.0858 916 96.3079 545.917 510.286
12 0 65.0301 14.1319 919 152.455 544.898 510.271
13 0 70.0748 14.1706 993 94.7966 546.209 508.279
14 0 73.1029 14.6643 1072 93.3078 546.32 507.816
15 0 72.0648 14.2094 1024 95.6289 545.636 506.424
16 0 77.0749 14.4665 1115 92.9013 545.704 504.782
17 0 79.0652 14.507 1147 93.1543 545.474 503.719
18 0 80.1207 14.578 1168 93.2149 545.418 503.869
19 0 85.0469 14.2862 1215 93.2049 546.023 502.644
20 0 87.0715 14.4479 1258 92.6868 545.917 502.467
21 1 43.0609 11.3328 488 96.9693 545.498 523.074
22 0 47.0223 11.5477 543 96.291 545.344 521.762
23 0 49.0749 12.2262 600 93.4 545.693 520.432
24 0 49.0507 12.8439 630 91.8492 545.378 520.036
25 0 52.1031 13.3197 694 89.7392 546.118 519.023
26 0 51.0607 11.9466 610 94.9295 545.049 519.748
27 0 56.0259 12.6013 706 91.3456 545.171 517.958
28 0 55.0185 12.3958 682 91.9677 544.969 517.397
29 0 58.0413 12.9735 753 90.3094 545.582 515.706
30 0 61.0306 12.633 771 89.6291 545.292 515.664
31 0 63.0414 12.7059 801 89.0786 545.296 514.529
32 0 65.0411 13.4069 872 87.2649 545.698 513.499
33 0 66.0624 13.2148 873 87.7056 545.1 512.387
34 0 69.1128 12.8196 886 88.8747 544.928 511.86
35 0 71.2348 13.6169 970 88.0412 544.808 509.928
36 0 73.1063 13.1726 963 90.54 544.755 507.591
37 0 74.1285 13.0584 968 91.032 544.623 508.043
38 0 77.0949 13.1007 1010 91.3911 544.3 506.12
39 0 78.1001 13.2906 1038 92.6291 545.141 504.216
40 0 82.1843 13.5792 1116 92.1039 544.771 503.765
41 0 83.148 13.8909 1155 92.5749 544.885 503.313
42 0 86.0769 13.5693 1168 94.3142 544.728 501.461
43 0 88.1696 12.6688 1117 97.6938 544.871 499.345
44 0 92.0851 14.1282 1301 94.4105 544.655 498.922
45 0 95.1548 14.3976 1370 94.6511 544.25 497.037
46 0 97.1632 14.6455 1423 95.1391 544.507 497.54
47 0 102.225 14.292 1461 96.7933 544.18 494.669
48 0 104.267 13.9833 1458 99.2654 544.007 492.559
49 0 109.151 15.1534 1654 97.419 543.985 490.277
50 1 57.0706 12.3882 707 99.041 543.922 516.909
51 0 60.1205 12.9074 776 98.058 544.612 515.534
52 0 60.0366 12.509 751 94.0093 544.321 516.107
53 0 61.0991 11.8169 722 97.4515 544.992 515.244
54 0 63.0792 12.7459 804 96.6915 544.735 515.313
55 0 65.0628 13.218 860 97.4535 545.257 513.89
56 0 67.0328 12.9638 869 98.5443 545.614 513.113
57 0 71.0362 12.8385 912 99.1612 544.897 510.266
58 0 73.0181 13.1748 962 99.158 545.502 510.893
59 0 74.0336 12.9671 960 100.945 544.926 509.807
60 0 77.0264 12.8268 988 101.799 544.645 508.314
61 0 78.0185 13.1123 1023 102.492 544.907 507.335
62 0 82.0498 13.1871 1082 102.479 544.497 505.962
63 0 84.0497 12.9447 1088 103.688 545.43 504.523
64 0 88.0302 13.5976 1197 101.463 545.201 502.33
65 0 90.0756 12.8337 1156 103.606 545.699 502.404
66 0 92.0921 13.3562 1230 102.644 545.48 501.907
67 0 96.0814 13.3845 1286 102.969 545.03 499.726
68 0 99.1154 13.5499 1343 102.218 545.66 496.663
69 0 103.145 13.3792 1380 102.506 545.331 495.078
70 1 54.0364 11.7884 637 101.623 544.717 520.374
71 0 55.0626 12.059 664 100.771 545.029 519.474
72 0 57.0468 12.2882 701 95.4536 545.047 518.368
73 0 55.051 11.4258 629 94.1701 544.819 518.644
74 0 58.0262 11.512 668 93.4925 545.433 518.272
75 0 60.0366 10.9933 660 94.2273 545.209 518.139
76 0 62.109 11.7052 727 93.3989 545.546 516.658
77 0 66.0283 11.7525 776 93.5477 545.497 513.816
78 0 66.0366 11.1908 739 95.203 545.199 513.756
79 0 70.0778 11.6727 818 95.1369 545.655 512.104
80 0 71.0289 11.7698 836 95.0921 545.432 511.462
81 0 73.0522 11.8819 868 96.712 545.4 510.649
82 0 76.0302 11.7979 897 96.3802 546.437 509.3
83 0 80.0343 12.1323 971 96.0515 546.284 506.823
84 0 81.0582 11.2512 912 100.034 546.33 504.385
85 0 85.0366 12.2183 1039 98.794 545.851 504.62
86 0 87.0376 11.8684 1033 101.248 546.648 501.973
87 0 90.0569 11.9369 1075 103.073 546.166 500.784
88 1 46.0111 10.8669 500 97.496 546.178 521.826
89 0 47.0564 11.3906 536 96.0504 546.037 521.063
90 0 47.0456 10.3304 486 87.5782 546.856 523.87
91 0 47.0276 10.4407 491 87.9572 547.122 523.332
92 0 50.0758 10.8635 544 85.6893 546.469 522.324
93 0 50.0317 10.3534 518 86.7934 546.193 521.753
94 0 52.0197 11.3803 592 85.5659 545.806 520.22
95 0 53.0568 10.9505 581 86.5095 545.256 519.193
96 0 55.0112 11.2159 617 84.5527 545.519 519.935
97 0 57.0587 11.567 660 83.7136 545.691 518.368
98 0 58.0358 11.2172 651 84.7558 545.876 518.645
99 0 60.0335 11.377 683 85.3221 545.388 516.23
100 0 63.0271 12.0107 757 84.8336 545.174 515.431
101 0 64.0322 11.791 755 85.7351 545.001 514.019
102 0 67.0369 12.247 821 84.8404 545.748 512.345
103 0 67.0246 11.0706 742 88.2695 545.555 511.287
104 0 71.0636 12.1159 861 87.3647 545.03 510.763
105 0 73.027 12.3379 901 95.5494 545.15 508.176
106 0 77.0614 11.9256 919 95.2829 545.407 507.422
107 0 77.0181 12.6074 971 95.2914 545.383 506.222
108 0 81.0465 12.8075 1038 94.2823 545.509 505.04
109 0 83.0582 13.039 1083 93.9557 545.247 503.649
110 0 87.0816 12.9878 1131 92.7374 546.119 503.335
111 0 88.0332 12.3363 1086 95.2063 546.258 500.268
112 0 92.0378 12.1472 1118 95.6664 546.122 499.511
113 0 95.097 12.5977 1198 95.2571 545.775 497.538
114 0 98.0976 11.8046 1158 96.1157 545.169 496.618
115 1 49.1483 11.6179 571 89.6095 544.464 521.005
116 0 53.1734 11.7728 626 89.3051 544.765 521.286
117 0 53.0426 12.292 652 89.6334 545.39 521.42
118 0 55.0406 11.8458 652 85.6672 545.416 519.73
119 0 58.039 12.8707 747 82.6372 544.987 518.28
120 0 60.0458 11.1748 671 95.7779 545.249 517.446
121 0 60.1048 11.9957 721 94.2427 545.639 517.255
122 0 62.0818 11.8714 737 94.3501 544.893 514.426
123 0 66.044 12.4311 821 91.9537 544.879 512.932
124 0 67.0841 12.7601 856 91.2103 545.141 512.778
125 0 69.0806 12.3768 855 92.2058 544.654 511.943
126 0 72.0807 12.0421 868 92.0507 545.334 510.92
127 0 72.0905 12.1653 877 91.8176 544.9 510.856
128 0 75.1117 11.9822 900 90.5356 544.712 509.997
129 0 77.0583 11.8482 913 89.9179 544.987 509.219
130 0 79.0362 11.8427 936 89.2885 545.411 507.559
131 0 82.1387 12.1258 996 86.9076 545.393 506.647
132 0 84.0553 11.3973 958 88.7683 545.256 505.604
133 0 87.0701 11.2783 982 89.2383 545.38 503.632
134 0 89.1176 11.4792 1023 89.0743 544.884 503.043
135 0 90.0658 11.8136 1064 88.8741 545.295 502.716
136 0 93.1097 11.1374 1037 90.0231 545.999 500.893
137 0 96.0902 11.9055 1144 88.6049 545.87 499.014
138 0 99.079 11.6675 1156 88.9827 546.221 498.562
139 0 102.093 11.9303 1218 89.5033 545.826 495.865
140 0 106.165 12.1037 1285 88.1463 545.901 497.078
141 0 109.147 11.8647 1295 89.5722 546.239 493.877
142 0 111.208 11.8426 1317 90.3007 544.486 492.872
143 0 115.289 12.1347 1399 89.6805 545.151 491.379
144 0 120.224 12.5599 1510 89.0166 544.928 487.197
145 0 124.114 12.1501 1508 90.3581 545.6 487.048
146 0 128.181 11.9284 1529 90.4336 545.285 485.033
147 0 132.255 12.181 1611 90.7623 544.907 480.444
148 1 86.2305 11.6896 1008 90.8611 545.312 501.613
149 0 89.1886 11.8849 1060 92.4462 544.578 497.139
150 0 94.3273 13.2729 1252 91.2532 543.742 496.864
151 0 94.2085 13.088 1233 96.8045 543.784 494.371
152 0 99.1594 12.9085 1280 96.4414 544.173 492.25
153 0 100.208 12.5039 1253 98.063 543.946 489.713
154 0 104.323 12.9214 1348 96.5 544.429 488.672
155 0 107.34 12.9122 1386 96.4401 544.009 487.473
156 0 111.171 12.5393 1394 96.6471 543.829 485.515
157 0 115.19 12.8657 1482 94.5803 544.239 485.852
158 0 116.201 12.6677 1472 95.6379 544.567 484.06
159 0 122.325 13.6031 1664 93.1833 544.563 481.151
160 0 125.317 12.9511 1623 94.2853 544.108 480.417
161 0 128.408 12.9354 1661 94.1969 543.528 477.014
162 0 132.255 13.3454 1765 92.6187 543.645 477.108
163 0 136.173 13.6223 1855 92.7089 543.805 474.817
164 0 138.248 12.5788 1739 94.935 544.126 472.236
165 0 142.1 13.1879 1874 94.0832 544.171 469.773
166 0 149.142 13.2223 1972 94.5771 544.208 467.975
167 0 153.088 13.1558 2014 94.6306 545.188 463.235
168 0 157.162 13.1202 2062 95.1232 545.027 462.52
169 0 161.093 12.8063 2063 97.0911 544.735 459.609
170 0 168.094 13.3853 2250 95.3067 544.448 456.431
171 0 173.22 13.3068 2305 95.7436 543.92 454.537
172 0 178.15 13.6626 2434 95.8615 544.67 451.197
173 0 184.17 14.1771 2611 92.6377 545.005 445.949
174 0 190.208 14.3632 2732 88.5143 544.842 443.465
175 0 196.254 13.5487 2659 97.9665 544.722 440.016
176 0 202.23 13.2473 2679 98.7018 543.937 438.143
177 0 210.216 13.8334 2908 97.8614 543.175 433.417
178 0 215.257 13.2307 2848 99.0218 543.795 429.677
179 1 51.059 9.81217 501 88.6148 543.902 516.108
180 0 52.0329 11.1276 579 87.8912 543.857 517.772
181 0 55.0601 11.2423 619 86.8304 543.927 518.483
182 0 58.0526 11.3345 658 85.8663 544.053 517.43
183 0 55.0451 10.7367 591 80.9475 545.734 516.42
184 0 58.0292 10.8566 630 79.7127 545.559 516.959
185 0 60.0312 10.6278 638 80.3009 545.381 516.64
186 0 60.0113 11.3812 683 79.3514 545.174 514.978
187 0 62.0376 10.542 654 81.4419 544.382 513.963
188 0 65.0366 10.9323 711 79.3516 544.312 512.451
189 0 65.0557 11.544 751 78.8069 544.601 511.397
190 0 66.0579 10.3545 684 82.7734 544.763 510.867
191 0 68.0871 10.4425 711 82.564 545.394 510.346
192 0 72.0802 11.0155 794 80.864 545.593 508.465
193 0 73.0667 11.0584 808 81.9678 545.265 507.632
194 0 76.1034 10.8405 825 81.8727 545.95 506.68
195 0 77.0419 10.8642 837 82.7826 545.129 505.037
196 0 79.0894 10.1278 801 83.5992 544.599 503.998
197 0 81.0968 10.4936 851 83.4195 544.651 503.114
198 0 85.0655 10.2979 876 84.2237 544.802 501.765
199 0 88.1432 10.4943 925 82.7449 544.528 499.478
200 0 92.08 10.48 965 82.4052 544.956 498.683
201 0 95.1288 10.449 994 82.3793 545.052 495.882
202 1 48.0404 9.38793 451 112.583 544.621 518.474
203 0 51.0444 10.1089 516 111.822 544.543 517.085
204 0 54.0829 10.3914 562 106.792 544.306 516.342
205 0 53.0375 10.9734 582 98.0412 542.239 516.435
206 0 54.0319 10.8454 586 97.5239 542.044 516.067
207 0 56.0628 11.2731 632 95.0665 542.096 515.701
208 0 60.0726 10.7204 644 93.8106 542.727 514.21
209 0 59.0624 11.1577 659 93.1715 543.09 513.537
210 0 62.1085 11.1257 691 90.9016 543.441 512.191
211 0 62.1192 10.3511 643 92.5599 543.535 514.118
212 0 63.1249 10.7565 679 91.4728 542.856 512.227
213 0 64.1372 9.88506 634 89.5347 543.202 512.976
214 0 67.054 9.91738 665 87.1835 542.364 511.307
215 0 69.0714 9.91728 685 86.5766 542.772 509.501
216 0 73.0662 10.0046 731 85.6635 542.39 509.301
217 0 76.0424 10.0733 766 84.3198 542.882 510.047
218 0 77.0628 9.82315 757 85.8256 542.609 506.827
219 0 79.0482 10.6517 842 85.5309 542.932 505.115
220 0 82.0507 10.201 837 86.6129 543.21 504.002
221 0 84.06 10.5996 891 86.5701 542.689 502.099
222 0 86.0496 10.0523 865 88.5468 543.708 501.618
223 1 48.0155 10.3925 499 84.5952 542.874 521.12
224 0 50.0228 10.7551 538 83.7658 542.649 520.989
225 0 50.0618 10.7267 537 85.6574 543.585 519.818
226 0 52.0426 11.529 600 82.9267 542.937 518.778
227 0 53.0408 10.8407 575 86.1356 542.918 518.042
228 0 54.0821 11.5195 623 87.4655 543.86 516.876
229 0 56.0569 11.2921 633 88.0474 544.142 516.703
230 0 58.094 11.7224 681 86.9295 544.504 515.928
231 0 60.0645 11.2046 673 88.3239 543.085 515.054
232 0 61.0766 11.9686 731 87.1341 542.833 514.643
233 0 63.0466 11.9911 756 87.5873 542.746 514.489
234 0 64.0664 11.2696 722 89.3241 541.961 513.274
235 0 68.0849 11.7647 801 87.8614 541.873 512.101
236 0 70.0362 11.6797 818 87.2421 542.194 512.117
237 0 70.0463 12.1348 850 87.1624 543.546 509.842
238 0 72.0738 12.1958 879 87.0557 543.352 508.894
239 0 73.067 12.0848 883 88.1336 543.505 506.932
240 0 76.0377 11.56 879 90.1706 543.14 506.166
241 0 77.1038 11.8541 914 90.5963 543.424 505.066
242 0 79.0748 12.2542 969 88.4056 543.728 503.854
243 0 82.0595 11.711 961 89.0884 543.143 502.03
244 0 84.0782 11.9175 1002 90.1996 543.236 500.908
245 0 88.0701 11.8428 1043 89.815 543.036 500.615
246 0 89.0469 11.5557 1029 89.4626 542.66 500.374
247 0 92.0572 11.797 1086 89.6878 542.288 498.036
248 0 95.0306 11.8488 1126 90.2336 543.319 496.686
249 0 98.086 12.5298 1229 90.4792 542.693 494.418
250 0 99.0868 11.8583 1175 92.817 543.312 491.706
251 0 103.073 12.0594 1243 92.8302 542.953 490.143
252 0 107.2 12.1829 1306 91.9724 543.856 488.842
253 0 108.152 12.1125 1310 91.9702 543.763 487.524
254 0 115.195 12.4831 1438 90.3992 543.565 485.206
255 0 118.175 12.1768 1439 91.3037 544.193 483.599
256 0 120.298 11.9952 1443 92.1996 543.494 481.029
257 0 123.136 11.264 1387 93.9229 542.913 478.493
258 0 128.101 11.5378 1478 93.8491 542.262 475.51
259 0 133.186 11.9457 1591 92.5531 542.405 473.853
260 0 138.16 12.8909 1781 93.1387 542.614 470.719
261 1 74.1621 11.0838 822 93.1277 542.135 504.2
262 0 74.1682 11.5818 859 91.9476 542.68 502.829
263 0 79.0804 11.052 874 86.8616 543.053 504.462
264 0 81.0251 11.0089 892 86.2511 543.453 503.448
265 0 83.0777 11.4953 955 86.9937 543.795 500.429
266 0 86.0967 12.1724 1048 86.2013 543.995 499.421
267 0 88.0484 11.0962 977 89.7861 543.746 498.097
268 0 91.198 11.4915 1048 89.7281 543.064 497.444
269 0 94.0256 11.9648 1125 90.1111 542.943 496.336
270 0 98.0852 12.2343 1200 90.3217 542.087 494.502
271 0 100.037 11.9256 1193 92.2984 542.454 491.937
272 1 53.0318 10.5786 561 92.0856 542.399 516.307
273 0 53.03 9.56062 507 95.3629 542.992 515.661
274 0 57.0335 10.4149 594 93.8923 542.626 515.035
275 0 57.0774 10.7223 612 93.6438 543.373 515.273
276 0 58.0872 10.5703 614 95.0977 543.899 513.664
277 0 61.1129 11.7651 719 92.6008 543.391 513.236
278 0 62.0439 12.1849 756 92.5 542.988 511.29
279 0 64.0732 11.6429 746 90.2212 542.859 511.257
280 0 62.0437 11.508 714 90.6681 543.011 512.472
281 0 65.0326 11.1636 726 91.449 542.401 511.499
282 0 67.0394 11.4709 769 91.3498 542.949 510.02
283 0 68.0733 11.6051 790 93.938 543.339 509.328
284 0 70.0496 11.4919 805 95.8832 542.646 508.147
285 0 73.0437 12.2256 893 96.8891 542.405 505.787
286 0 76.105 12.6404 962 95.8836 542.799 505.071
287 0 77.1107 12.5274 966 97.8913 543.107 503.433
288 0 78.0797 12.6409 987 101.287 543.168 501.891
289 0 82.0995 12.5336 1029 101.791 542.638 500.95
290 0 83.0607 13.2072 1097 101.917 542.057 499.132
291 0 85.0694 12.8718 1095 102.783 542.995 498.625
292 0 87.0801 12.9651 1129 103.359 541.927 498.359
293 0 89.0767 12.5398 1117 104.081 542.126 495.94
294 0 91.0966 12.7447 1161 103.404 542.229 493.928
295 0 95.1026 13.0911 1245 102.532 542.037 492.717
296 0 96.1351 12.8465 1235 104.232 541.969 490.567
297 0 97.2405 12.721 1237 104.945 542.107 489.416
298 0 100.203 13.4028 1343 102.656 542.262 489.272
299 0 103.136 12.4884 1288 104.345 542.057 487.924
300 0 105.116 12.824 1348 104.017 541.766 486.617
301 0 108.12 12.6804 1371 104.775 540.972 485.346
302 0 112.184 12.6132 1415 103.305 541.992 483.102
303 0 114.166 12.4381 1420 104.199 542.104 481.741
304 0 118.098 12.5658 1484 103.856 542.374 479.17
305 0 123.092 12.381 1524 104.046 542.203 478.15
306 0 124.132 13.0184 1616 104.053 542.699 475.78
307 0 127.139 12.7183 1617 104.474 542.915 474.592
308 0 133.124 13.2132 1759 102.52 543.488 470.274
309 0 138.204 12.9374 1788 103.577 542.297 469.37
310 0 142.155 12.9084 1835 102.981 542.154 467.462
311 0 145.174 12.6262 1833 104.888 542.818 465.458
312 0 151.134 13.3788 2022 103.139 542.091 462.875
313 0 153.177 13.1221 2010 104.547 543.064 461.224
314 0 159.21 13.1838 2099 103.61 542.33 456.802
315 0 163.263 12.8014 2090 105.184 543.104 455.557
316 0 170.21 13.5833 2312 103.125 542.761 452.679
317 0 174.208 13.7595 2397 102.383 542.104 449.768
318 0 180.209 13.5454 2441 102.645 541.881 449.162
319 0 183.216 13.4704 2468 104.025 541.359 446.664
320 0 188.208 13.5489 2550 104.582 541.371 444.587
321 0 194.178 13.5288 2627 103.85 541.296 441.798
322 0 199.284 13.6438 2719 103.956 541.438 436.807
323 0 207.246 13.4478 2787 104.873 541.527 432.908
324 0 213.214 13.5123 2881 104.944 541.302 431.496
325 0 222.187 13.3221 2960 105.31 541.683 426.894
326 0 228.155 13.6267 3109 104.573 541.323 424.098
327 0 235.161 13.3015 3128 106.269 541.341 418.996
328 0 244.216 13.701 3346 104.862 540.871 414.522
329 0 254.196 13.4778 3426 104.565 540.805 408.27
330 0 265.197 14.2272 3773 103.365 539.675 404.806
331 0 263.195 13.6211 3585 133.652 539.696 401.219
333 1 72.0368 10.3419 745 88.9342 539.577 509.228
334 0 75.0187 10.7706 808 89.7092 539.442 508.837
335 0 75.0231 10.6501 799 92.1452 539.708 508.064
336 0 78.0354 11.2257 876 90.1769 539.168 504.354
337 0 80.0329 10.9955 880 90.8159 539.335 504.395
338 0 81.0566 10.5729 857 92.4644 538.729 502.886
339 0 85.0805 11.0366 939 91.4217 538.961 501.427
340 0 87.0622 10.6705 929 93.7826 539.558 499.222
341 0 91.0586 11.542 1051 91.2036 539.81 499.15
342 0 91.1712 10.1567 926 84.4806 540.62 502.391
343 0 93.0768 10.0992 940 84.6128 540.438 498.018
344 0 95.1216 9.33542 888 85.5709 540.524 498.007
345 0 100.062 9.83387 984 85.3841 539.51 494.963
346 0 102.067 9.74852 995 84.7317 538.488 494.929
347 0 106.198 9.87778 1049 84.8885 538.378 491.289
348 0 109.136 10.0884 1101 85.3279 539.046 487.563
349 0 111.163 9.76041 1085 86.6857 538.35 487.238
350 0 117.172 10.4292 1222 84.8028 539.125 483.955
351 0 123.137 10.6467 1311 83.7216 539.861 480.967
352 0 127.162 10.9545 1393 89.8715 539.334 479.507
353 0 130.176 10.8545 1413 90.9413 539.429 477.396
354 0 134.151 10.3167 1384 92.0166 539.006 473.957
355 1 54.0594 7.82473 423 83.1158 539.468 517.175
356 0 57.122 9.0508 517 85.1857 539.447 515.226
357 0 59.0628 9.43064 557 84.0898 540.454 515.892
358 0 65.1845 10.9535 714 80.0658 540.501 515.833
359 0 66.0436 11.3259 748 81.5976 540.741 513.964
360 0 66.0294 10.2227 675 85.2341 541.402 513.862
361 0 69.081 10.77 744 84.5081 541.126 511.632
362 0 72.0496 10.8814 784 81.3482 541.4 511.1
363 0 72.0777 10.8633 783 82.5734 541.153 510.516
364 0 73.0781 10.783 788 84.08 541.272 507.784
365 0 76.176 11.9329 909 80.2101 540.662 511.943
366 0 80.1968 10.973 880 82.2864 540.191 509.806
367 0 80.1932 11.3351 909 82.5534 540.603 507.056
368 0 83.1772 10.4476 869 82.9471 541.98 507.598
369 0 84.1239 10.9006 917 81.9149 540.254 507.802
370 0 87.1816 10.6789 931 81.4973 540.733 504.445
371 0 90.1825 11.5765 1044 79.3343 540.692 502.253
372 0 93.2769 10.6993 998 79.1513 540.541 503.228
373 0 96.1958 10.3123 992 80.1593 541.553 499.471
374 0 98.1717 10.0946 991 80.5449 541.393 499.164
375 0 99.2199 10.4415 1036 80.5319 540.888 495.321
376 1 53.0533 8.78362 466 72.1052 540.968 521.395
377 0 52.0322 8.89834 463 70.3412 539.443 522.501
378 0 53.0532 9.23601 490 67.3898 540.939 521.341
379 0 57.1534 9.71071 555 65.9838 540.551 520.074
380 0 57.1108 9.54286 545 67.3174 541.488 519.365
381 0 55.0437 8.86568 488 69.2418 541.518 520.133
382 0 57.0516 9.74555 556 68.0486 541.568 517.61
383 0 59.0896 8.7325 516 69.6531 541.649 517.734
384 0 62.1112 9.22539 573 68.6004 540.871 516.188
385 0 62.0666 9.23203 573 69.3927 540.82 515.743
386 0 63.0427 7.99458 504 71.0556 540.988 516.177
387 0 66.0799 8.94372 591 69.2301 540.695 512.89
388 0 68.0601 9.80017 667 68.3928 541.054 510.934
389 0 72.085 10.0715 726 67.3664 541.12 510.375
390 0 74.0792 10.7318 795 67.1421 541.557 509.581
391 0 76.0634 11.096 844 67.1789 542.327 507.789
392 0 78.1174 10.1642 794 73.165 542.115 506.559
393 0 80.1313 9.88378 792 73.5846 541.163 504.554
394 0 82.1636 9.49325 780 74.0103 541.319 501.309
395 0 84.0666 9.24267 777 73.1326 542.42 501.776
396 0 87.0814 9.49686 827 73.2358 542.597 499.692
397 0 89.058 9.34223 832 74.3666 542.097 499.678
398 0 92.0958 10.0222 923 73.4009 541.97 498.905
399 0 95.0652 9.41459 895 74.7341 541.987 497.247
400 0 96.0504 9.99475 960 74.4708 542 493.49
401 0 99.0857 9.75923 967 75.6153 542.271 492.366
402 0 99.0855 9.31519 923 77.1257 542.508 491.499
403 0 103.1 9.49564 979 75.5608 542.012 489.507
404 0 108.085 9.87182 1067 77.5961 541.74 490.398
405 0 109.075 9.62639 1050 77.8686 542.423 488.667
406 0 112.124 9.7749 1096 77.4151 541.432 486.804
407 0 117.088 10.0779 1180 77.2432 541.634 482.842
408 0 117.12 9.13593 1070 79.486 541.427 482.896
409 0 122.18 9.15862 1119 79.9401 541.427 480.28
410 0 125.117 9.39122 1175 80.1081 542.242 479.155
411 1 67.0496 8.81436 591 73.0135 542.359 512.352
412 0 68.1025 8.97177 611 74.7169 542.201 507.069
413 0 74.1081 10.6061 786 70.9695 541.475 510.284
414 0 75.1335 11.2999 849 70.9164 540.836 509.051
415 0 79.1178 12.0833 956 68.7793 541.055 507.295
416 0 80.0621 11.566 926 71.1199 541.227 506.109
417 0 83.0471 11.0901 921 71.1509 542.021 504.839
418 0 84.0265 11.3298 952 72.2784 541.505 502.397
419 0 86.0336 10.9608 943 73.4899 542.355 503.251
420 0 89.0551 11.6669 1039 73.3109 542.531 500.224
421 0 90.0903 10.5561 951 76.9148 541.679 499.776
422 0 94.0902 11.0851 1043 75.4487 541.62 497.39
423 0 97.1236 10.8007 1049 76.5644 541.819 496.508
424 0 101.128 11.1245 1125 76.6169 541.995 495.982
425 0 105.101 10.8182 1137 78.6306 541.431 492.865
426 0 107.142 11.1347 1193 78.083 541.946 491.361
427 0 110.162 11.2108 1235 80.213 541.278 489.501
428 1 59.0931 9.89963 585 81.906 541.92 515.46
429 0 62.0308 10.3175 640 80.7828 541.245 514.664
430 0 65.1191 11.2102 730 79.1507 541.34 513.233
431 0 66.0674 10.126 669 76.858 542.253 513.235
432 0 67.0984 11.2223 753 86.081 541.355 513.234
433 0 68.0718 11.4291 778 85.9177 541.033 512.634
434 0 71.0494 11.5553 821 86.6663 541.02 510.016
435 0 73.1018 11.5045 841 87.0083 540.912 508.535
436 0 74.0915 11.2833 836 88.1974 541.659 507.726
437 0 78.0315 11.5722 903 86.433 542.382 508.693
438 0 78.1029 11.0495 863 88.9548 542.421 505.199
439 0 81.0964 11.8378 960 87.0688 541.989 504.958
440 0 84.025 11.7465 987 88.0081 542.216 501.703
441 0 86.1091 11.9035 1025 87.9463 541.903 500.446
442 0 89.0572 11.9586 1065 87.0432 542.008 499.691
443 0 93.1135 12.1572 1132 86.068 541.318 499.119
444 0 92.124 11.7342 1081 88.9352 540.347 497.066
445 0 97.1325 12.0351 1169 89.0111 540.519 496.246
446 0 100.165 12.6691 1269 88.2916 541.08 494.374
447 0 101.092 11.9297 1206 90.4793 541.407 492.706
448 1 54.0405 9.71493 525 91.7981 541.564 517.061
449 0 57.103 10.5073 600 88.9617 542.577 514.463
450 0 58.0606 11.1952 650 88.8615 541.557 515.652
451 0 60.0909 11.1831 672 89.692 540.579 514.613
452 0 62.0465 10.9595 680 82.6662 541.331 514.197
453 0 64.0479 11.3977 730 88.9096 541.133 514.225
454 0 66.1262 11.1151 735 89.9687 540.658 512.781
455 0 69.1203 12.0081 830 88.1277 541.119 511.296
456 0 70.0972 11.3985 799 91.7547 542.309 510.198
457 0 71.0661 11.6371 827 88.5526 541.872 509.622
458 0 72.0761 11.0578 797 90.6738 542.354 507.735
459 0 75.0948 11.3989 856 89.979 541.604 507.797
460 0 78.0827 11.4878 897 89.1427 541.239 505.075
461 0 82.0449 12.1641 998 87.3136 541.521 504.375
462 0 83.0897 11.4816 954 88.7442 541.978 502.274
463 0 85.0723 11.6489 991 88.3804 541.4 501.658
464 0 90.0828 12.2554 1104 85.8587 541.68 500.969
465 0 92.0957 12.2807 1131 86.6446 541.883 499.033
466 0 96.1261 12.0675 1160 87.0845 541.983 498.37
467 0 97.0746 11.3933 1106 86.1917 542.152 495.186
468 1 46.0331 9.14559 421 79.4703 542.028 518.556
469 0 50.0129 10.4973 525 80.1219 541.368 520.518
470 0 51.0133 10.3698 529 84.9792 540.484 520.658
471 0 53.0508 10.7633 571 84.1173 541.112 520.291
472 0 53.0182 11.3923 604 84.553 541.093 518.626
473 0 55.032 11.357 625 85.5008 541.197 517.672
474 0 57.1102 11.6967 668 84.4012 540.952 516.118
475 0 59.1449 11.4803 679 85.2533 541.102 515.819
476 0 61.0781 10.9532 669 86.8012 540.895 515.429
477 0 60.0776 12.0012 721 86.5534 540.608 515.498
478 0 64.0591 12.1763 780 85.5692 539.824 515.076
479 0 63.0462 11.5788 730 87.8342 540.023 514.442
480 0 68.0577 13.1212 893 82.6887 539.954 512.667
481 0 70.0614 12.489 875 84.5451 540.863 512.418
482 0 72.0203 12.0105 865 86.0994 541.077 510.783
483 0 73.0463 11.5543 844 87.6102 540.495 510.043
484 0 75.065 11.4967 863 87.6512 541.057 508.241
485 0 81.0319 12.2298 991 91.5409 540.606 505.85
486 0 81.0391 11.1428 903 95.2226 540.37 503.839
487 0 85.0424 11.265 958 93.5428 540.492 503.495
488 1 40.013 10.0218 401 92.1322 538.85 524
489 0 44.0158 10.8597 478 88.3912 539.481 524.251
490 0 43.0402 10.6877 460 89.313 539.074 522.804
491 0 46.0523 11.0744 510 87.2824 539.076 523.122
492 0 47.025 11.4833 540 86.9037 539.087 521.641
493 0 48.0539 11.0917 533 88.1182 538.848 521.602
494 0 50.0333 11.6123 581 85.6265 540.115 521.141
495 0 50.0334 11.4524 573 87.3054 540.937 520.347
496 0 53.0725 11.8706 630 85.3111 540.668 518.975
497 0 53.0218 11.9196 632 86.1756 539.663 517.878
498 0 55.032 12.1929 671 85.8376 539.934 518.247
499 0 56.0202 12.4062 695 84.6604 539.068 516.384
500 0 55.0423 11.4821 632 81.1171 539.146 520.081
501 0 58.0404 11.1991 650 81.0185 539.574 518.137
502 0 59.0807 11.3404 670 80.8985 539.936 517.29
503 0 60.0235 11.3955 684 79.8392 539.791 516.845
504 0 62.0554 10.9579 680 81.3088 539.868 515.313
505 0 65.0922 11.261 733 80.618 540.396 515.479
506 0 67.0254 11.6672 782 79.5537 540.201 512.118
507 0 70.0738 11.8018 827 79.1886 540.508 510.375
508 0 72.1035 10.8871 785 81.1134 540.389 509.651
509 0 73.07 11.3042 826 81.7433 539.304 507.496
510 0 75.0736 10.8693 816 83.8738 539.384 506.472
511 0 78.0825 11.6159 907 82.2712 539.261 505.329
512 0 79.0652 10.9656 867 83.9089 539.871 505.068
513 0 83.0855 10.8322 900 83.6189 540.417 504.742
514 1 44.0289 9.69817 427 85.5433 539.843 520.998
515 0 45.0554 9.74355 439 83.4009 539.624 520.075
516 0 47.0604 10.6034 499 80.6533 539.998 518.455
517 0 50.024 10.415 521 85.2399 540.551 520.823
518 0 50.0225 9.9755 499 77.5371 540.134 522.447
519 0 49.0608 9.66148 474 79.9093 538.764 521.854
520 0 52.1117 10.4199 543 77.7256 538.416 520.101
521 0 55.0845 9.63973 531 78.1055 539.324 520.341
522 0 58.024 10.1682 590 77.3542 539.276 518.653
523 0 59.0898 10.3402 611 78.162 539.573 517.764
524 0 60.0227 10.0962 606 78.8779 540.158 515.86
525 0 64.0521 10.9442 701 77.8317 540.021 515.382
526 0 64.0187 10.1689 651 80.0922 539.329 515.134
527 0 69.0674 10.6273 734 78.5027 539.136 514.023
528 0 70.0409 10.4225 730 79.6959 538.503 513.19
529 0 73.1254 10.4068 761 79.8397 538.961 510.373
530 0 77.0533 10.7069 825 79.6909 539.341 508.842
531 0 77.0139 9.97223 768 81.0312 539.078 509.216
532 0 81.0707 10.1393 822 81.4234 539.252 507.591
533 0 85.031 11.631 989 78.6956 539.559 507.708
534 0 91.0401 11.9068 1084 77.0821 540.021 506.193
535 0 91.1318 11.3243 1032 79.5407 539.373 503.292
536 0 95.1597 11.6856 1112 85.1259 539.315 502.799
537 1 47.0136 10.2736 483 81.735 539.46 526.723
538 0 49.0555 11.3749 558 81.7652 539.864 525.978
539 0 50.1043 11.6557 584 80.6627 540.089 525.51
540 0 50.0869 11.0009 551 76.4737 539.207 524.864
541 0 52.0459 10.6637 555 76.618 539.382 524.922
542 0 53.0615 10.8365 575 76.6522 539.294 524.202
543 0 56.0682 11.4504 642 75.704 538.903 524.014
544 0 57.0684 11.1095 634 76.2476 538.861 523.18
545 0 59.0459 12.0245 710 75.2648 538.877 521.379
546 0 61.0704 11.4131 697 76.901 538.247 521.854
547 0 62.0274 11.3982 707 77.7949 538.273 521.068
548 0 65.0501 12.6672 824 76.2985 537.989 517.172
549 0 66.051 12.3389 815 77.7926 538.064 516.858
550 0 68.0911 12.2189 832 78.6731 538.095 516.02
551 0 72.0586 12.129 874 78.7002 537.69 514.541
552 0 74.0955 12.1465 900 80.0444 538.851 512.638
553 0 78.0337 12.5843 982 78.7332 539.125 511.959
554 0 80.088 13.0481 1045 79.9455 539.246 512.524
555 0 81.0736 12.0138 974 83.2023 538.73 510.742
556 0 85.0955 12.6446 1076 81.9331 537.939 508.797
557 0 87.067 12.2434 1066 83.7336 538.04 508.902
558 0 92.0719 13.0659 1203 82.4289 537.244 506.391
559 0 95.0395 12.2581 1165 84.503 537.495 504.559
560 0 98.0903 12.3152 1208 83.7227 537.485 503.671
561 1 54.0683 11.208 606 83.9901 537.805 525.678
562 0 56.0461 11.2407 630 85.5571 537.787 524.481
563 0 57.0659 11.5831 661 83.4992 538.466 524.256
564 0 59.026 11.7914 696 77.9454 538.963 522.731
565 0 58.0388 11.7335 681 79.1821 538.689 523.352
566 0 61.09 11.8514 724 78.9157 538.296 521.134
567 0 64.0902 12.0143 770 77.9649 538.087 519.595
568 0 67.0518 12.289 824 78.1529 537.663 518.723
569 0 68.0658 12.723 866 78.7667 538.333 517.103
570 0 71.0496 12.3153 875 78.9291 538.178 516.626
571 0 73.0415 12.7462 931 79.4973 538.802 514.918
572 0 76.0282 12.7716 971 78.5592 538.818 515.677
573 0 77.1523 12.8966 995 79.3849 538.42 513.402
574 0 80.0966 12.0355 964 81.2334 538.734 513.376
575 0 83.0985 12.5514 1043 92.2963 538.146 511.517
576 0 87.0875 12.8377 1118 91.8605 537.561 509.998
577 0 91.1925 12.841 1171 94.8907 537.205 508.557
578 0 93.1367 13.0883 1219 96.274 538.012 506.819
579 1 44.0379 10.9678 483 96.7888 537.909 530.778
580 0 45.0731 11.9362 538 91.3718 537.874 530.125
581 0 46.0303 11.4055 525 91.36 538.573 529.333
582 0 48.0577 12.2353 588 89.3265 538.25 528.245
583 0 48.0173 11.954 574 92.3711 537.659 528.683
584 0 50.0732 11.8427 593 94.3187 537.814 526.474
585 0 52.1154 12.1461 633 94.139 537.684 525.825
586 0 53.0536 11.9125 632 95.106 537.799 525.794
587 0 57.0752 12.7201 726 92.7603 538.153 524.66
588 0 56.0324 12.1358 680 97.6529 537.957 524.584
589 0 59.1086 12.4009 733 95.4802 537.885 523.296
590 0 62.068 12.4702 774 94.1008 538.632 523.276
591 0 64.1509 12.2368 785 95.3236 539.018 520.824
592 0 66.0416 12.8252 847 93.0578 538.672 519.829
593 0 69.1113 12.6607 875 92.4834 538.533 518.631
594 0 72.0404 13.2842 957 89.6437 537.563 518.027
595 0 75.0816 12.9459 972 91.1224 537.907 516.292
596 0 74.1344 12.5987 934 93.2291 538.355 515.161
597 0 79.097 13.1358 1039 90.0221 538.486 513.478
598 0 81.2059 13.0779 1062 90.725 538.593 511.667
599 0 83.1243 12.0422 1001 91.9371 538.613 510.252
600 0 86.0649 12.4441 1071 90.5229 538.358 506.166
601 0 90.0583 12.8028 1153 88.7936 538.238 505.145
602 0 92.1495 12.2301 1127 89.8909 537.836 503.643
603 1 49.092 10.7146 526 90.2624 537.802 523.568
604 0 51.0312 11.4048 582 89.9158 537.296 524.246
605 0 52.043 11.2407 585 86.8137 537.814 519.954
606 0 54.0266 11.8645 641 87.5148 537.627 519.63
607 0 57.0108 12.0854 689 90.4935 537.898 521.806
608 0 57.1358 12.444 711 90.0506 538.014 521.331
609 0 60.1472 13.1344 790 87.6278 538.265 518.985
610 0 62.0538 12.3602 767 88.6493 537.561 519.708
611 0 61.0932 12.3745 756 90.1429 537.411 519.119
612 0 62.064 12.5193 777 90.5302 537.181 516.741
613 0 64.0658 12.3935 794 91.1511 536.953 516.037
614 0 68.087 13.1156 893 89.3438 537.194 514.016
615 0 69.0535 12.5844 869 92.2198 536.945 512.374
616 0 73.132 12.7578 933 92.0836 537.191 511.826
617 0 74.0902 13.2001 978 91.0562 537.191 511.045
618 0 78.0482 13.0689 1020 91.998 537.394 507.912
619 0 80.1713 13.097 1050 90.9714 537.378 506.65
620 0 83.0844 12.4933 1038 93.106 537.965 504.515
621 0 87.0997 12.9736 1130 90.8558 537.368 503.347
622 0 90.2247 13.289 1199 88.789 537.303 500.936
623 0 92.1824 13.0719 1205 89.7046 537.472 498.134
624 0 94.1755 12.3918 1167 90.6101 538.113 493.695
625 0 96.1782 12.009 1155 88.6918 537.829 493.906
626 1 46.0514 10.814 498 88.3132 537.773 517.622
627 0 46.0533 11.1393 513 88.462 537.906 517.292
628 0 51.0399 11.4224 583 86.0669 537.986 521.046
629 0 52.0563 11.8141 615 86.3187 538.213 521.455
630 0 53.0538 10.97 582 88.1409 538.428 520.945
631 0 55.0436 11.8633 653 87.1822 538.292 519.916
632 0 57.03 11.5027 656 88.7744 539.017 517.221
633 0 57.0478 12.1302 692 87.9393 538.449 516.117
634 0 56.0264 11.9765 671 90.6662 538.051 515.069
635 0 58.0272 11.598 673 89.3462 538.95 511.923
636 0 61.0251 12.6669 773 88.8862 538.859 511.548
637 0 62.039 11.525 715 92.5944 538.814 509.112
638 0 62.0177 11.9805 743 93.3015 539.856 507.845
639 0 65.0821 12.0771 786 94.2023 539.029 506.379
640 0 69.0647 12.7127 878 92.615 538.437 505.698
641 0 73.0714 12.5083 914 94.6969 538.77 506.115
642 0 73.09 12.6419 924 96.8009 538.641 505.991
643 0 75.0775 12.254 920 98.4446 538.837 504.654
644 0 78.1254 13.3247 1041 96.6321 539.468 501.867
645 0 81.1154 12.8829 1045 99.1263 539.444 501.809
646 0 84.0804 12.9757 1091 99.2136 539.518 500.909
647 0 87.0971 12.8248 1117 101.067 539.641 499.129
648 0 88.0998 13.2236 1165 101.147 540.211 497.525
649 0 92.1586 13.2272 1219 101.136 539.87 495.797
650 0 96.219 12.9912 1250 102.138 539.249 493.007
651 0 96.1763 12.7474 1226 105.174 538.804 490.12
652 0 96.1763 12.8306 1234 154.63 537.812 490.091
653 0 104.091 12.9311 1346 104.321 539.763 487.565
654 0 110.132 12.8754 1418 104.652 539.987 486.395
655 0 114.194 13.1093 1497 102.558 539.976 486.12
656 0 119.128 13.1288 1564 102.373 540.54 483.898
657 1 65.1426 11.0834 722 102.395 540.096 510.126
658 0 66.0785 11.1988 740 104.796 540.823 508.626
659 0 70.0807 13.0992 918 103.052 540.777 510.279
660 0 72.2175 13.0716 944 103.394 540.627 510.74
661 0 73.097 12.6818 927 102.636 540.275 507.932
662 0 75.1858 12.9945 977 101.298 539.123 505.022
663 0 78.1388 12.9897 1015 100.533 539.651 502.104
664 0 81.227 12.779 1038 100.171 539.111 501.321
665 0 80.1924 12.7194 1020 102.357 539.345 499.653
666 0 83.1367 12.4734 1037 103.084 540.176 498.942
667 0 82.115 11.9345 980 106.2 540.181 497.802
668 0 88.1169 12.7104 1120 102.252 540.171 496.228
669 0 90.1386 12.4475 1122 103.072 540.041 494.094
670 0 95.1614 13.1146 1248 100.481 539.93 492.643
671 0 96.0957 13.1119 1260 100.954 539.772 489.902
672 0 100.105 13.296 1331 100.042 540.024 491.009
673 0 103.102 13.0259 1343 100.541 539.198 487.052
674 0 107.049 13.1249 1405 100.389 539.394 485.572
675 0 109.115 12.7481 1391 101.388 539.702 482.702
676 0 113.122 13.1097 1483 101.386 539.978 481.817
677 0 116.111 12.8411 1491 102.404 540.111 478.533
678 0 119.159 12.5462 1495 102.086 540.209 478.321
679 0 124.102 12.804 1589 101.745 540.272 477.071
680 0 131.123 13.0641 1713 101.046 540.388 474.036
681 0 133.118 12.5828 1675 102.446 539.587 473.336
682 0 138.233 12.7828 1767 103.298 538.35 470.849
683 0 141.155 12.7449 1799 104.563 538.998 468.371
684 0 146.112 12.7984 1870 104.84 540.15 466.823
685 0 153.16 12.8558 1969 104.79 540.335 464.895
686 0 158.08 12.462 1970 107.431 540.752 462.222
687 0 161.162 12.23 1971 108.858 540.939 458.258
688 0 167.106 12.4053 2073 108.383 540.45 454.861
689 0 172.163 12.0293 2071 109.738 540.813 453.57
690 0 179.196 12.7012 2276 107.213 540.753 454.424
691 0 184.135 12.203 2247 108.785 540.53 448.636
692 0 189.211 12.3196 2331 108.492 539.499 445.644
693 0 196.348 12.0398 2364 109.863 539.657 441.371
694 0 202.239 12.144 2456 110.402 540.092 437.226
695 0 208.182 11.7157 2439 111.857 539.242 438.097
696 1 39.0273 9.63429 376 82.367 538.867 530.013
697 0 41.0251 9.53075 391 81.5013 538.731 528.578
698 0 43.0958 9.51369 410 80.8098 538.054 528.871
699 0 45.1371 9.8367 444 76.5743 539.428 529.381
700 0 47.1374 9.12227 430 76.9442 539.314 528.602
701 0 47.1139 9.63622 454 76.3326 539.229 527.489
702 0 53.046 5.335 283 82.8905 539.742 479.671
703 1 102.158 5.09016 520 82.9865 539.206 508.262
704 0 104.194 8.4554 881 88.8899 538.848 499.89
705 0 105.144 8.44557 888 89.723 538.86 496.698
706 0 110.401 9.4021 1038 86.0665 539.146 497.393
707 0 113.333 9.26475 1050 86.7333 539.644 492.392
708 0 117.189 10.402 1219 84.2404 538.9 490.94
709 0 121.26 10.2755 1246 84.3467 538.681 489.599
710 0 125.464 10.1942 1279 84.4457 538.399 489.104
711 0 130.431 10.7719 1405 83.7708 537.441 485.38
712 0 135.408 10.2136 1383 83.9877 538.216 483.609
713 0 136.416 9.27312 1265 86.0427 538.433 480.618
714 0 141.361 9.21045 1302 85.4685 538.645 480.116
715 0 146.284 9.83021 1438 86.0508 538.516 476.748
716 1 68.1213 6.56182 447 80.3781 539.183 519.781
717 0 69.1735 8.61601 596 81.0872 539.577 518.2
718 0 70.1662 8.57963 602 80.8023 539.581 517.071
719 0 73.1491 8.70824 637 80.8932 538.783 516.391
720 0 74.203 7.466 554 83.0993 538.098 517.377
721 0 76.1161 8.07976 615 83.5171 538.489 514.223
722 0 78.095 9.29637 726 82.584 538.45 513.222
723 0 81.095 9.3224 756 82.7315 538.442 513.545
724 0 83.0812 8.38938 697 86.7088 538.172 511.046
725 0 85.1662 9.09985 775 86.8116 538.159 510.841
726 0 87.1068 8.5642 746 89.496 538.511 510.32
727 0 90.2167 9.22224 832 89.9639 537.933 508.8
728 0 94.2119 10.0412 946 90.1596 537.5 506.544
729 0 96.1641 9.20302 885 93.5378 536.73 503.651
730 0 98.2059 9.7041 953 93.4124 536.847 504.753
731 0 101.133 9.78905 990 94.7808 537.473 502.755
732 1 52.0281 9.24501 481 89.025 537.699 526.468
733 0 54.0258 9.43994 510 89.3765 537.851 527.002
734 0 54.0198 8.90415 481 90.3638 538.127 527.137
735 0 54.0372 9.03082 488 92.8566 538.688 525.32
736 0 61.0223 10.2749 627 89.1579 538.788 522.774
737 0 65.0545 11.6518 758 85.8588 539.005 522.888
738 0 65.0181 12.6734 824 86.3289 538.61 521.789
739 0 67.0768 11.9266 800 89.0312 538.172 521.392
740 0 67.0796 11.1957 751 91.4647 538.417 520.414
741 0 70.0955 12.483 875 88.3749 538.193 518.533
742 0 71.0812 12.2677 872 88.4438 538.328 517.372
743 0 74.0896 12.2014 904 89.5664 538.811 516.264
744 0 75.2033 12.2601 922 89.7885 538.741 515.912
745 0 77.0894 12.8293 989 90.3721 538.52 514.407
746 0 79.0892 12.4922 988 92.837 539.357 513.708
747 0 80.1394 12.7902 1025 94.1298 539.316 512.477
748 0 84.1488 13.1553 1107 93.6043 538.754 511.225
749 0 86.187 13.1922 1137 95.3245 537.711 509.544
750 0 87.0894 13.9167 1212 97.1642 537.513 507.121
751 0 91.1098 13.6429 1243 98.4578 538.669 504.604
752 0 94.0802 13.4672 1267 99.6125 538.608 503.116
753 0 94.0598 13.215 1243 101.566 538.705 501.763
754 0 100.245 13.3772 1341 99.1029 538.837 500.488
755 0 102.112 13.779 1407 98.774 539.077 499.247
756 0 102.16 13.4789 1377 100.145 539.132 498.412
757 0 105.219 13.0205 1370 101.236 539.182 496.968
758 0 109.098 13.5475 1478 101.026 538.517 495.449
759 0 110.2 12.9582 1428 102.672 538.468 492.876
760 0 115.205 13.3588 1539 101.852 538.472 491.055
761 0 118.193 13.0973 1548 101.923 538.445 488.851
762 0 124.31 13.1848 1639 101.459 538.558 486.043
763 1 48.151 10.3632 499 87.3707 538.244 526.649
764 0 48.1353 11.0106 530 88.4189 538.623 525.376
765 0 48.1308 10.5546 508 94.1181 539.687 525.325
766 0 52.0745 11.1955 583 94.1492 539.525 523.254
767 0 53.0709 11.5694 614 98.4902 539.344 522.883
768 0 55.0655 11.7496 647 98.5193 538.73 521.932
769 0 56.0977 11.1591 626 100.471 538.572 522.257
770 0 58.1226 11.3897 662 100.112 539.159 519.101
771 0 59.079 12.1024 715 98.6965 539.004 518.944
772 0 60.0966 11.0655 665 101.403 539.758 519.547
773 0 62.0536 11.9574 742 99.4447 539.895 519.047
774 0 63.0471 11.9117 751 101.104 540.055 516.931
775 0 66.0817 12.1365 802 100.589 539.751 515.32
776 0 67.0558 11.8111 792 101.404 538.602 515.321
777 0 67.0325 11.2334 753 93.1687 538.867 515.301
778 0 71.0939 11.6184 826 91.9903 538.524 514.376
779 0 73.0483 11.5814 846 92.9456 538.408 512.807
780 0 74.0474 11.4521 848 95.342 538.307 513.999
781 0 77.0588 11.8611 914 94.0602 539.315 511.605
782 0 79.0795 11.2798 892 96.8061 539.732 510.525
783 0 82.0838 12.1705 999 94.8899 539.821 509.737
784 0 80.1126 11.721 939 98.607 539.847 508.913
785 0 83.0781 11.9887 996 100.683 539.182 506.265
786 0 87.0935 12.1134 1055 100.713 539.665 505.641
787 0 88.0709 11.9449 1052 103.114 539.152 504.836
788 0 91.0878 12.1751 1109 105.413 539.517 502.41
789 0 94.2033 12.1227 1142 106.186 539.14 501.649
790 0 98.0763 13.0613 1281 104.916 540.014 499.404
791 0 100.174 13.0473 1307 106.256 540.454 499.103
792 0 101.199 13.2709 1343 105.72 540.104 496.94
793 0 105.179 12.8924 1356 106.987 540.498 495.617
794 0 109.21 13.561 1481 105.391 540.807 493.284
795 0 110.21 12.6576 1395 109.061 540.48 491.617
796 0 113.212 12.8343 1453 108.8 541.341 491.092
797 0 116.163 13.197 1533 108.292 540.391 490.551
798 0 120.163 13.5649 1630 108.058 540.207 488.925
799 0 123.18 13.6629 1683 109.368 540.291 485.91
800 0 127.206 13.6 1730 109.995 540.71 484.671
801 0 131.257 13.1878 1731 111.334 540.842 482.931
802 0 134.258 13.6453 1832 109.634 540.944 481.093
803 0 137.223 12.5635 1724 113.544 540.602 478.602
804 0 143.105 13.5215 1935 107.69 541.026 477.008
805 0 149.152 13.8248 2062 106.581 540.21 472.529
806 0 152.068 13.6912 2082 107.189 540.304 470.395
807 0 157.124 13.4607 2115 108.363 540.119 472.219
808 0 160.059 12.8765 2061 110.609 539.85 465.82
809 0 167.14 13.3242 2227 108.992 539.406 462.878
810 0 170.093 12.7518 2169 111.585 539.6 463.195
811 1 102.093 10.4218 1064 103.096 539.77 501.375
812 0 105.08 11.4769 1206 101.376 539.19 497.972
813 0 108.048 11.4857 1241 100.174 539.454 497.651
814 0 111.077 11.4605 1273 107.042 539.907 495.341
815 0 115.099 11.8419 1363 105.008 539.634 495.08
816 0 120.153 12.3842 1488 102.924 539.436 493.98
817 0 124.206 12.1412 1508 101.653 539.287 492.121
818 0 129.171 12.5028 1615 100.943 539.103 487.908
819 0 134.166 11.7318 1574 104.204 538.107 484.297
820 1 74.1023 11.6326 862 101.769 537.898 515.36
821 0 77.1452 12.5996 972 103.431 538.048 512.675
822 0 78.0622 12.6566 988 107.832 538.352 512.863
823 0 79.0811 12.1521 961 108.694 538.37 511.848
824 0 84.0554 12.9319 1087 104.831 538.503 512.297
825 0 85.0271 13.1723 1120 104.985 538.656 510.824
826 0 87.0784 12.7242 1108 106.452 539.32 509.585
827 0 90.1052 12.9515 1167 105.326 539.079 508.482
828 0 92.0411 12.9507 1192 106.565 538.864 506.459
829 0 95.1107 12.1858 1159 108.043 538.942 505.291
830 0 99.0728 13.162 1304 105.916 538.87 504.609
831 0 99.0765 12.5963 1248 108.381 538.204 502.524
832 0 104.109 12.4677 1298 106.236 538.015 501.552
833 0 107.085 12.6535 1355 107.332 537.542 500.269
834 0 110.138 12.5206 1379 106.898 537.649 498.541
835 1 57.0302 10.5558 602 106.233 538.252 526.542
836 0 60.0934 11.2325 675 99.9007 538.698 525.046
837 0 62.0407 12.4918 775 99.6852 538.139 522.843
838 0 61.0378 11.1734 682 94.4267 537.274 524.081
839 0 62.0542 11.2321 697 95.0775 538 523.399
840 0 63.0418 11.1037 700 95.7086 538.156 523.287
841 0 66.0782 11.9101 787 93.2287 537.699 521.896
842 0 67.0544 11.6473 781 94.4571 537.923 519.464
843 0 68.0367 11.0529 752 95.2673 537.36 517.678
844 0 70.0593 11.1049 778 93.2159 537.122 516.802
845 0 72.0497 10.8397 781 93.9782 537.261 514.245
846 0 75.0455 11.5663 868 92.2765 537.094 512.9
847 0 74.0509 11.3976 844 97.3294 537.051 510.742
848 0 81.0264 11.5395 935 94.9059 536.923 509.362
849 0 84.0681 12.2282 1028 93.5457 537.088 507.242
850 0 84.0846 11.9879 1008 94.9911 537.662 506.729
851 0 90.1206 12.3057 1109 92.7133 537.889 506.784
852 0 90.0759 12.434 1120 93.9491 538.094 504.629
853 0 92.0508 11.9717 1102 95.7014 536.434 504.322
854 0 95.0731 12.1485 1155 95.5394 537.033 502.046
855 0 97.064 12.4351 1207 95.4341 536.838 498.787
856 0 100.181 12.1979 1222 95.7496 537.284 497.976
857 0 103.094 12.183 1256 96.6186 537.415 490.587
858 0 105.207 12.1094 1274 96.7794 537.708 488.017
859 0 109.06 12.1676 1327 94.7302 537.534 488.448
860 0 117.086 12.683 1485 97.7556 538.157 492.134
861 0 121.13 13.5639 1643 95.9124 537.645 489.005
862 1 65.0447 12.8373 835 95.1246 537.452 518.619
863 0 68.082 13.0725 890 96.1899 536.749 516.791
864 0 67.0353 12.5158 839 99.3433 536.784 515.756
865 0 70.0525 12.9903 910 97.4275 537.298 516.21
866 0 70.0284 12.7091 890 99.6584 537.361 514.198
867 0 74.0183 12.9968 962 98.6383 537.739 512.636
868 0 76.0625 12.8973 981 98.9062 537.505 511.373
869 0 79.0399 12.9808 1026 99.2622 537.674 510.02
870 0 78.0344 13.3531 1042 99.9568 536.931 509.578
871 0 82.1001 13.1547 1080 99.9435 537.635 508.592
872 0 82.04 12.2623 1006 94.3529 537.243 508.529
873 0 86.061 12.2239 1052 95.5266 538.158 507.419
874 0 87.0214 12.2958 1070 96.9206 538.003 506.841
875 0 91.0245 12.3154 1121 97.0375 538.051 504.374
876 0 93.0622 11.949 1112 98.5567 537.191 504.586
877 0 97.0851 12.4633 1210 96.9438 537.537 501.435
878 0 97.0576 11.725 1138 101.734 538.005 501.281
879 0 102.028 12.2515 1250 99.5624 537.963 500.32
880 0 107.134 13.0304 1396 96.1418 538.254 496.862
881 0 110.141 13.2103 1455 98.3526 538.177 496.648
882 0 114.111 13.1013 1495 98.6676 538.597 492.996
883 1 60.0343 11.6433 699 94.01 538.592 522.378
884 0 63.0639 12.0513 760 94.3908 538.588 519.439
885 0 64.0711 11.6589 747 95.6493 538.427 516.93
886 0 67.1052 12.5624 843 97.9039 538.014 513.236
887 0 66.0646 13.2749 877 97.8997 537.038 515.288
888 0 71.052 13.2016 938 97.6514 537.139 514.224
889 0 72.0374 13.5346 975 98.2123 537.562 513.527
890 0 74.0282 13.0491 966 100.144 537.555 512.47
891 0 75.0367 13.6866 1027 99.7683 537.242 511.154
892 0 79.0455 13.4606 1064 99.6476 537.646 510.507
893 0 83.0566 13.5209 1123 100.19 537.035 508.386
894 0 85.0399 13.7582 1170 99.5496 536.489 506.91
895 0 86.0963 13.5778 1169 100.818 537.056 505.377
896 0 89.0555 13.6993 1220 100.161 537.331 504.27
897 0 92.0467 13.5149 1244 100.873 538.031 502.692
898 0 94.0858 13.4877 1269 101.404 537.372 500.279
899 0 97.0256 13.8623 1345 98.826 537.26 499.214
900 0 100.051 13.633 1364 99.7867 537.253 496.004
901 0 102.031 13.6233 1390 100.277 538.502 494.994
902 0 106.031 13.8073 1464 99.8579 538.733 495.008
903 0 109.083 13.6135 1485 100.494 538.798 491.374
904 0 107.029 12.7255 1362 104.958 539.107 488.92
905 0 112.063 13.3764 1499 102.517 538.396 484.633
906 0 115.066 13.0534 1502 104.415 538.033 484.171
907 0 118.114 12.8011 1512 106.029 538.849 482.997
908 0 121.088 12.5776 1523 107.167 538.961 482.682
909 0 125.047 12.8032 1601 107.881 539.217 480.462
910 0 129.043 12.8562 1659 108.374 539.298 477.086
911 0 134.1 13.1693 1766 108.006 538.741 473.975
912 0 140.137 12.7304 1784 109.405 538.832 472.359
913 0 144.08 12.8123 1846 110.061 538.49 470.034
914 0 149.129 13.599 2028 108.468 537.944 468.616
915 0 155.11 13.745 2132 108.282 538.259 464.569
916 0 160.151 13.3874 2144 110.16 538.848 461.65
917 0 167.135 13.4682 2251 109.209 538.267 459.055
918 0 171.127 13.604 2328 110.826 539.293 456.075
919 0 176.161 13.5615 2389 110.917 538.712 451.494
920 0 182.17 13.3172 2426 111.862 538.621 450.647
921 0 187.259 13.6442 2555 111.98 537.619 449.052
922 0 193.175 13.6043 2628 112.807 537.041 443.916
923 0 200.159 13.864 2775 111.9 538.079 441.727
924 0 205.154 13.7068 2812 112.895 537.466 438.297
925 0 214.162 13.5132 2894 114.035 537.374 434.313
926 0 221.137 13.7019 3030 112.309 537.596 431.614
927 1 172.131 11.1775 1924 116.337 537.278 457.083
928 0 177.105 12.2018 2161 112.832 538.133 457.298
929 0 184.079 12.2611 2257 111.775 537.889 452.581
930 0 187.082 12.5934 2356 110.847 536.765 450.012
931 0 195.116 12.5874 2456 111.267 536.105 448.097
932 0 202.086 12.7619 2579 111.215 536.578 446.06
933 0 211.157 12.9903 2743 110.14 536.912 444.138
934 0 217.165 12.7414 2767 113.205 536.783 437.711
935 0 227.214 13.4191 3049 111.164 537.131 437.786
936 0 235.215 13.4303 3159 110.988 537.225 434.794
937 0 243.22 13.017 3166 113.323 537.354 430.846
938 1 58.0294 10.5809 614 99.5651 537.847 525.432
939 0 58.0425 11.4743 666 99.6306 536.733 524.065
940 0 61.0955 12.7669 780 101.762 536.683 523.353
941 0 64.0715 12.845 823 101.289 536.718 522.847
942 0 64.0745 12.4074 795 104.005 536.845 522.647
943 0 67.0354 12.7395 854 102.958 537.038 520.866
944 0 69.0566 12.9314 893 103.298 536.916 520.843
945 0 70.0487 12.8339 899 104.388 537.041 519.861
946 0 72.0586 12.587 907 105.303 536.793 518.305
947 0 75.0817 12.9459 972 103.941 536.525 516.509
948 0 75.0392 12.1403 911 108.126 536.462 515.233
949 0 80.1098 13.0821 1048 105.219 535.556 512.891
950 0 80.093 12.86 1030 105.994 536.342 511.303
951 0 86.0619 12.5026 1076 114.263 535.704 512.334
952 0 86.072 12.536 1079 115.981 536.776 511.086
953 0 90.1386 12.2034 1100 103.698 536.292 510.626
954 0 92.0797 11.6204 1070 107.483 537.202 507.587
955 0 95.1276 11.7106 1114 99.035 536.829 508.902
956 0 99.2027 12.7618 1266 96.4423 536.667 503.964
957 0 101.129 12.9241 1307 97.5639 537.307 503.667
958 0 106.102 13.7981 1464 98.6995 537.031 502.443
959 0 109.169 13.7401 1500 98.2667 536.823 499.977
960 0 112.18 13.7993 1548 97.6531 535.964 497.994
961 0 115.205 13.758 1585 98.4505 536.765 497.165
962 0 118.214 13.4925 1595 97.9831 536.567 496.299
963 0 120.113 15.3189 1840 91.2174 536.849 495.816
964 0 126.129 13.5417 1708 96.668 537.193 492.401
965 0 128.169 13.4042 1718 97.4494 537.483 491.349
966 0 132.198 13.4344 1776 97.1408 537.44 487.864
967 0 135.114 12.8854 1741 95.6835 538.5 487.08
968 0 141.252 13.1184 1853 95.0637 537.486 485.475
969 0 145.177 13.1151 1904 94.2731 537.384 481.313
970 1 78.0888 11.8839 928 94.4138 537.787 512.616
971 0 84.0617 13.1451 1105 90.3728 538.166 510.233
972 0 85.0586 12.7677 1086 92.4015 536.915 510.924
973 0 88.0719 13.6252 1200 87.1583 536.897 509.653
974 0 88.031 11.2688 992 93.6794 537.36 510.382
975 0 93.045 12.2951 1144 91.0009 537.712 508.274
976 0 96.0937 12.1964 1172 90.3771 537.851 506.677
977 0 100.125 12.2547 1227 87.749 538.46 505.285
978 0 102.106 11.0376 1127 91.8137 537.906 504.109
979 0 105.143 11.784 1239 97.9128 539.091 503.6
980 0 109.084 11.7432 1281 98.2131 539.224 501.147
981 1 65.1284 11.6693 760 101.43 539.422 518.089
982 0 67.1859 11.0738 744 88.9933 538.569 514.97
983 0 69.0287 11.5314 796 86.7927 538.168 515.44
984 0 70.0471 11.6636 817 88.2803 537.755 513.854
985 0 71.1544 11.3696 809 86.6539 538.108 510.807
986 0 72.1558 11.6692 842 86.9323 538.481 516.764
987 0 77.0486 11.1748 861 84.2369 538.148 513.947
988 0 79.0775 10.8628 859 87.6542 537.61 512.492
989 0 83.1396 11.3424 943 84.9438 537.814 509.643
990 0 85.0854 11.3533 966 87.4079 538.491 511.398
991 0 88.1459 11.2314 990 88.0333 537.978 509.146
992 0 93.068 11.8945 1107 87.4101 537.313 507.005
993 0 94.1273 11.5163 1084 88.8007 538.792 506.054
994 0 98.0459 11.464 1124 88.2224 538.648 501.835
995 0 100.147 11.2835 1130 89.1372 538.612 501.808
996 0 105.158 12.0676 1269 87.8676 538.698 498.978
997 0 107.108 11.5118 1233 90.498 537.875 497.675
998 0 111.176 11.6302 1293 91.0688 537.971 494.725
999 0 115.099 11.3988 1312 91.5884 538.043 496.213
1000 0 119.205 11.4006 1359 91.8013 538.47 493.941
1001 0 123.154 11.4735 1413 92.1274 538.268 490.036
1002 0 126.353 11.6974 1478 92.0981 538.815 488.764
1003 0 130.36 10.8545 1415 93.8382 539.037 487.599
1004 1 70.2098 11.3517 797 87.8984 539.217 516.753
1005 0 71.1037 11.7153 833 88.6807 540.086 516.03
1006 0 74.077 11.731 869 88.9298 540.258 515.8
1007 0 76.0339 12.5865 957 87.768 539.762 514.083
1008 0 79.0607 11.9275 943 89.4231 539.854 511.951
1009 0 82.0387 12.2747 1007 89.7885 538.986 510.697
1010 0 85.0286 12.0195 1022 101.239 538.641 507.877
1011 0 88.0741 11.9218 1050 98.0095 539.433 504.107
1012 0 89.1104 11.9851 1068 98.3137 540.031 502.628
1013 0 94.0914 11.9565 1125 97.9493 539.559 501.979
1014 0 96.1488 12.2726 1180 97.7771 538.686 501.912
1015 0 98.0752 11.5218 1130 101.339 539.099 497.65
1016 0 103.103 12.1529 1253 99.5914 539.454 497.718
1017 0 107.106 12.2402 1311 98.1449 539.607 498.836
1018 0 108.13 11.9301 1290 100.67 539.951 496.019
1019 0 111.076 12.0908 1343 101.63 539.908 494.115
1020 0 116.224 12.0372 1399 100.858 539.595 491.949
1021 1 63.1391 10.469 661 96.8669 540.154 518.714
1022 0 65.0826 10.7863 702 97.6311 540.395 516.236
1023 0 67.1285 11.0534 742 97.0148 540.988 515.474
1024 0 70.1086 11.9386 837 96.0681 540.607 512.183
1025 0 71.1016 11.3921 810 97.8642 539.644 513.425
1026 0 77.1088 12.4629 961 94.3985 539.278 512.938
1027 0 79.0485 12.3595 977 94.8854 539.787 511.429
1028 0 81.0682 12.4833 1012 98.8379 539.27 509.816
1029 0 84.1548 12.1086 1019 96.739 539.425 507.783
1030 0 87.112 11.9846 1044 96.4952 539.463 507.233
1031 0 90.0973 12.7418 1148 96.2604 539.989 505.488
1032 0 91.0743 11.6059 1057 100.17 539.677 505.057
1033 0 95.0844 11.8211 1124 99.7651 539.432 502.899
1034 0 98.144 12.1047 1188 100.132 539.198 500.176
1035 0 100.145 12.2922 1231 100.337 539.437 499.091
1036 0 105.191 12.4916 1314 100.747 539.449 498.76
1037 0 106.242 12.0951 1285 103.049 538.557 497.002
1038 0 110.379 12.0404 1329 103.497 540.093 493.168
1039 1 56.1837 10.5013 590 99.3441 539.746 519.888
1040 0 58.1134 11.3743 661 98.1634 539.8 520.212
1041 0 61.2292 10.9588 671 100.331 540.513 517.635
1042 0 63.0802 12.1274 765 99.6392 540.337 516.928
1043 0 63.0848 11.5876 731 103.503 539.964 516.603
1044 0 66.0852 12.1964 806 100.65 539.555 517.565
1045 0 68.0826 12.0442 820 101.484 539 517.268
1046 0 70.0522 11.8483 830 102.099 539.029 515.571
1047 0 70.0385 11.7935 826 104.436 539.782 514.081
1048 0 75.0732 12.1615 913 102.048 540.115 512.037
1049 0 76.1098 12.4294 946 103.33 539.81 510.364
1050 0 80.1325 12.7164 1019 102.097 539.6 509.443
1051 0 81.0572 12.4973 1013 103.307 540.05 508.334
1052 0 84.0747 11.8823 999 103.302 540.484 509.377
1053 0 87.0748 12.2424 1066 101.219 540.032 505.268
1054 0 91.1776 12.6676 1155 102.842 539.997 504.124
1055 0 92.1401 12.3833 1141 105.436 539.713 502.818
1056 0 95.0831 12.1578 1156 105.73 540.029 503.542
1057 0 98.1162 12.1591 1193 104.922 540.449 500.621
1058 0 98.1118 12.3227 1209 103.552 540.58 496.739
1059 1 52.1521 8.91622 465 97.0581 540.224 519.51
1060 0 52.0405 9.99222 520 96.6442 539.888 517.604
1061 0 58.0938 12.0151 698 94.9198 539.808 523.411
1062 0 57.0547 10.4286 595 96.237 539.677 526.588
1063 0 59.0532 10.8038 638 96.5533 539.448 524.682
1064 0 60.0308 10.2781 617 98.376 539.075 523
1065 0 63.0198 11.2028 706 95.8116 538.761 522.565
1066 0 64.0369 11.1498 714 95.8109 538.973 522.335
1067 0 66.0432 10.6597 704 97.7273 539.205 520.34
1068 0 66.022 10.9054 720 97.3736 538.974 519.454
1069 0 70.0193 10.9113 764 97.2971 539.043 519.278
1070 0 71.0168 11.7155 832 95.1587 539.364 517.74
1071 0 73.0158 11.2578 822 96.4173 539.202 516.296
1072 0 76.0281 11.5484 878 95.7278 539.096 515.32
1073 0 79.0483 11.4993 909 95.5886 538.338 514.197
1074 0 81.0223 11.5647 937 95.2337 538.991 512.88
1075 0 84.0457 11.934 1003 94.4247 538.156 510.229
1076 0 88.0337 12.5066 1101 93.1499 538.976 510.064
1077 0 89.0957 11.83 1054 96.1518 537.738 508.546
1078 0 93.0603 12.2394 1139 101.917 538.38 505.658
1079 0 96.0601 11.6906 1123 101.437 538.418 505.127
1080 0 98.0634 11.5334 1131 99.7533 538.763 502.067
1081 1 51.0379 9.75745 498 90.9398 539.046 526.743
1082 0 54.0329 10.7712 582 88.0739 538.998 524.985
1083 0 56.0331 11.172 626 87 539.034 524.617
1084 0 55.0172 10.6512 586 88.9915 539.328 525.724
1085 0 58.0224 10.7545 624 88.9728 538.856 524.099
1086 0 60.0271 10.8784 653 88.8193 538.701 523.182
1087 0 62.0163 10.9487 679 88.1915 539.149 521.647
1088 0 63.0375 10.7238 676 87.9408 539.68 520.225
1089 0 67.0184 11.0418 740 98.4757 539.484 519.314
1090 0 70.0482 10.864 761 98.4809 539.908 518.666
1091 0 72.0208 10.6358 766 99.282 539.944 516.936
1092 0 75.0347 11.2082 841 97.4328 539.973 516.4
1093 0 77.1023 11.1929 863 98.0151 538.605 513.839
1094 0 78.0819 11.1165 868 98.0518 538.795 512.238
1095 0 83.0816 11.4225 949 97.3193 538.875 512.21
1096 0 84.0934 11.0829 932 100.182 539.698 511.28
1097 0 87.0988 10.999 958 99.3027 539.334 509.36
1098 1 48.0187 9.55878 459 90.6797 539.954 526.477
1099 0 51.0268 10.3279 527 95.8197 541.664 529.22
1100 0 52.0337 11.4349 595 94.1798 541.533 526.931
1101 0 53.0734 10.8717 577 93.3241 541.033 525.622
1102 0 56.1207 11.3327 636 88.4607 540.443 525.412
1103 0 55.0388 10.756 592 90.5422 539.706 523.931
1104 0 58.0288 10.4603 607 86.8896 539.893 519.96
1105 0 60.0452 11.1416 669 88.568 539.731 523.202
1106 0 62.0683 10.5368 654 102.457 538.497 520.497
1107 0 64.0827 10.7361 688 101.936 538.696 519.933
1108 0 67.0842 11.18 750 100.443 539.127 517.823
1109 0 69.1542 11.8286 818 100.621 539.414 517.74
1110 0 70.1544 11.4319 802 99.606 539.266 517.272
1111 0 70.11 11.1967 785 101.157 539.259 516.698
1112 0 72.1166 10.8019 779 103.406 539.327 515.449
1113 0 76.104 12.1019 921 99.088 539.793 513.276
1114 0 78.065 11.6698 911 99.4105 539.483 513.536
1115 0 80.0635 11.3285 907 101.634 538.595 513.396
1116 0 83.1335 11.668 970 102.959 539.267 510.787
1117 0 84.0303 11.4244 960 102.731 539.484 510.832
1118 0 87.0923 10.7587 937 100.689 539.902 507.916
1119 0 89.1116 11.8503 1056 97.2812 539.63 508.655
1120 0 93.1352 11.5746 1078 99.9981 539.668 507.315
1121 1 50.0117 10.9175 546 89.3059 540.456 530.705
1122 0 50.0665 10.8855 545 92.6422 539.429 528.519
1123 0 52.0279 11.3016 588 89.9864 540.07 527.442
1124 0 53.0133 11.2802 598 89.9766 538.274 526.542
1125 0 55.0153 10.7243 590 91.039 538.947 525.808
1126 0 54.0418 9.99226 540 89.8815 538.168 524.602
1127 0 58.0517 11.1797 649 90.3544 538.176 524.573
1128 0 57.0259 10.8898 621 92.2995 539.003 523.829
1129 0 60.089 11.5662 695 90.118 539.036 522.397
1130 0 62.0229 11.1572 692 91.0275 539.328 521.978
1131 0 64.1153 10.9334 701 91.3367 539.432 521.999
1132 0 64.0683 11.0663 709 92.6037 539.258 520.126
1133 0 67.0978 10.984 737 92.9864 539.422 518.847
1134 0 68.0844 10.5604 719 94.1711 539.185 517.2
1135 0 72.0591 11.3934 821 92.1912 539.772 516.091
1136 0 72.0672 11.406 822 93.989 538.634 516.371
1137 0 74.0537 11.073 820 95.8293 539.033 513.223
1138 0 78.0721 11.784 920 96.0044 538.071 513.471
1139 0 81.0454 11.5244 934 96.2323 538.757 511.226
1140 0 84.1334 12.3138 1036 95.2674 538.734 511.576
1141 0 86.0916 12.0221 1035 98.4126 538.908 509.571
1142 0 89.0871 12.5046 1114 102.367 538.653 506.072
1143 0 92.059 13.0134 1198 101.026 538.401 505.331
1144 0 95.1648 12.6728 1206 101.596 539.011 504.192
1145 1 50.0196 10.6558 533 101.484 538.82 528.321
1146 0 51.0896 11.7245 599 101.306 538.848 527.462
1147 0 54.0608 11.7275 634 101.942 538.315 525.714
1148 0 54.0769 11.6871 632 106.729 537.646 525.437
1149 0 55.0653 11.1867 616 95.5114 537.416 524.765
1150 0 58.0904 11.7748 684 93.0629 537.911 524.17
1151 0 62.0806 12.3388 766 90.201 538.063 524.462
1152 0 61.1118 12.3053 752 91.141 537.735 523.59
1153 0 63.0924 12.2836 775 91.3936 537.012 523.372
1154 0 65.1425 12.4496 811 90.3502 537.189 522.324
1155 0 68.0718 11.958 814 91.0442 537.963 521.413
1156 0 70.0547 12.219 856 90.2056 537.992 520.405
1157 0 71.1817 12.6578 901 89.3008 537.604 519.393
1158 0 73.1505 12.3854 906 89.2726 538.265 518.092
1159 0 77.0482 13.1606 1014 87.0858 536.981 517.2
1160 0 77.1239 12.8365 990 88.7172 537.767 516.818
1161 0 78.0916 12.3317 963 90.8338 537.414 515.119
1162 0 82.0922 12.7661 1048 90.4809 536.49 512.963
1163 0 85.072 12.4013 1055 91.7554 537.036 512.677
1164 1 47.026 10.9301 514 88.1148 537.644 531.642
1165 0 47.0644 10.4113 490 84.2898 537.518 530.943
1166 0 48.0284 11.8472 569 84.0176 537.269 529.972
1167 0 49.0549 11.2119 550 86.4218 537.633 530.015
1168 0 52.0654 11.7737 613 84.6835 537.227 529.449
1169 0 52.0672 11.7924 614 85.6564 538.252 528.285
1170 0 53.1212 12.1044 643 86.6812 538.431 527.411
1171 0 55.0546 11.8791 654 88.0826 538.184 525.974
1172 0 57.0504 11.7089 668 88.1138 537.746 526.015
1173 0 59.0355 12.213 721 87.7698 537.208 524.322
1174 0 61.0549 12.3004 751 88.5606 537.257 523.365
1175 0 61.0489 11.7283 716 91.1508 537.513 521.581
1176 0 64.0501 11.9126 763 91.0131 537.562 520.564
1177 0 66.0511 12.1421 802 91.1322 537.466 518.694
1178 0 67.1235 12.0524 809 99.6576 537.45 517.586
1179 0 71.1463 11.9753 852 98.8063 537.685 517.535
1180 0 74.0832 11.4061 845 99.3976 537.825 515.793
1181 0 74.0961 11.4986 852 100.646 537.656 514.575
1182 0 78.0503 11.4926 897 99.5251 536.883 514.457
1183 0 80.0745 11.1521 893 101.99 536.974 511.51
1184 0 82.0549 11.7848 967 101.05 536.45 510.498
1185 0 89.1091 12.9504 1154 96.7409 536.478 509.708
1186 0 91.0846 12.6805 1155 97.8727 536.512 511.1
1187 0 94.0758 13.5316 1273 97.348 536.832 507.75
1188 1 49.088 11.7544 577 94.4246 537.132 530.851
1189 0 49.0306 11.6662 572 99.4091 537.198 529.1
1190 0 51.0431 12.1858 622 97.5916 537.132 527.81
1191 0 51.0403 12.304 628 89.836 536.635 529.021
1192 0 53.0762 12.2465 650 91.2154 536.312 528.209
1193 0 53.1461 11.1203 591 95.3384 536.254 527.122
1194 0 54.1034 11.8846 643 94.4681 537.019 526.759
1195 0 57.1139 11.9761 684 93.9225 536.77 525.648
1196 0 57.0768 11.686 667 94.7541 537.045 525.082
1197 0 61.1308 12.825 784 93.4924 537.355 523.389
1198 0 64.1011 12.7611 818 96.5905 537.523 522.654
1199 0 65.0675 13.3707 870 96.7736 537.355 521.737
1200 0 68.0321 12.2736 835 92.2838 537.493 520.65
1201 0 69.1411 13.0024 899 96.9922 537.502 520.825
1202 0 71.1227 12.6542 900 98.1133 536.646 518.419
1203 0 73.0531 13.059 954 97.1069 537.104 515.958
1204 0 76.0495 12.413 944 97.6091 536.905 515.793
1205 0 77.0515 12.4592 960 99.2979 537.179 514.66
1206 0 79.0555 12.5481 992 98.5413 537.123 514.463
1207 0 82.0323 12.6536 1038 96.868 537.421 514.059
1208 0 86.0323 12.7627 1098 95.0883 537.126 511.79
1209 0 86.0393 12.6105 1085 104.264 537.867 510.5
1210 0 90.0684 12.7681 1150 92.193 537.404 510.164
1211 0 91.0851 13.1855 1201 93.1149 536.931 508.489
1212 0 94.0573 12.2479 1152 95.1059 536.513 506.654
1213 0 98.064 13.1037 1285 92.3463 536.278 505.552
1214 0 102.064 12.9526 1322 92.1596 536.542 503.481
1215 1 58.0487 10.2156 593 87.9191 536.941 527.184
1216 0 60.0511 10.5077 631 88.5563 537.098 527.046
1217 0 59.0404 10.9586 647 88.2519 537.148 526.628
1218 0 64.0238 11.6051 743 86.8425 536.938 524.568
1219 0 66.0435 12.0224 794 90.9798 537.142 522.816
1220 0 67.0878 11.6415 781 95.1703 536.809 522.391
1221 0 68.024 11.5841 788 96.33 536.006 519.589
1222 0 72.0232 11.9128 858 94.0699 535.61 518.776
1223 0 73.0276 12.0092 877 95.1357 536.139 518.089
1224 0 74.0712 12.299 911 85.7102 537.175 517.014
1225 0 76.0907 12.5245 953 85.8867 537.106 514.672
1226 0 79.0714 11.8754 939 88.918 536.509 512.525
1227 0 83.1741 12.9848 1080 90.0667 536.838 513.715
1228 0 85.1359 12.6739 1079 92.1687 537.316 511.01
1229 0 86.0978 12.1606 1047 99.1681 537.914 509.224
1230 0 90.0798 12.6443 1139 92.2537 537.465 507.771
1231 0 92.0657 12.654 1165 98.3356 537.665 508.806
1232 0 94.0583 12.5879 1184 98.8176 537.517 505.682
1233 0 99.0666 12.6178 1250 97.6448 537.359 504.45
1234 0 102.047 13.1508 1342 96.9173 537.439 503.63
1235 1 54.0142 10.3121 557 98.9084 537.61 526.806
1236 0 56.0145 10.283 576 100.486 537.504 525.637
1237 0 58.0289 11.3909 661 98.9758 537.92 524.154
1238 0 61.0218 12.4873 762 93.5997 537.656 522.31
1239 0 63.0355 11.9615 754 95.8806 537.904 522.817
1240 0 62.0535 12.0702 749 97.7997 537.872 520.858
1241 0 66.0508 11.9756 791 95.8369 537.906 520.229
1242 0 65.1094 12.0873 787 93.5476 537.625 519.593
1243 0 68.0709 12.5751 856 93.5596 536.536 519.002
1244 0 70.0655 12.4598 873 94.2314 536.985 518.179
1245 0 72.0806 12.3889 893 94.3292 536.47 516.308
1246 0 74.1521 12.8385 952 93.501 537.352 515.654
1247 0 75.082 13.0524 980 93.1867 537.56 514.215
1248 0 78.0701 13.2317 1033 94.2836 537.392 513.012
1249 0 82.0635 13.5139 1109 92.7529 537.399 513.237
1250 0 84.0771 13.6422 1147 93.653 537.468 510.609
1251 0 85.1066 12.9955 1106 96.9376 537.26 509.536
1252 0 86.0298 12.8328 1104 97.1549 537.836 508.255
1253 0 87.1111 13.2015 1150 97.36 537.968 505.056
1254 0 90.1016 12.8522 1158 99.1667 538.01 504.617
1255 0 90.0452 12.7381 1147 99.9956 537.94 502.112
1256 0 95.1001 13.0494 1241 96.2288 537.075 500.283
1257 0 94.0778 11.8732 1117 98.8111 539.179 498.024
1258 1 55.0432 10.8278 596 98.0185 537.997 520.872
1259 0 54.0384 9.80785 530 93.4358 538.434 517.298
1260 0 56.0272 10.9233 612 85.6405 537.997 516.835
1261 0 56.0177 10.2289 573 87.5881 538.15 516.838
1262 0 60.1416 11.5893 697 84.7647 537.397 517.099
1263 0 63.0312 12.232 771 83.4955 537.72 516.284
1264 0 64.0699 11.5655 741 85.7368 537.918 516.205
1265 0 65.0154 11.3204 736 87.3424 538.149 514.641
1266 0 69.0499 11.9189 823 86.164 538.281 513.52
1267 0 71.04 11.7962 838 87.7434 538.62 511.314
1268 0 72.0294 11.4536 825 89.6715 538.324 511.584
1269 0 74.0697 11.5432 855 90.8047 538.57 508.092
1270 0 74.0371 11.035 817 94.8127 537.944 508.87
1271 0 77.039 11.3189 872 94.422 537.136 507.405
1272 0 81.1132 11.2559 913 95.402 537.901 507.042
1273 0 82.054 11.3949 935 96.7508 538.066 504.461
1274 0 87.0518 12.0618 1050 94.3657 537.772 503.804
1275 0 89.0958 11.9085 1061 96.114 537.418 501.547
1276 0 91.1039 11.5912 1056 98.7642 537.391 501.437
1277 0 95.176 11.9253 1135 99.1401 538.318 500.521
1278 0 97.058 11.6013 1126 100.368 538.201 499.748
1279 0 102.087 12.2053 1246 100.073 537.926 497.395
1280 1 51.0186 9.60434 490 100.382 538.233 520.688
1281 0 54.0706 10.8747 588 101.083 538.017 519.294
1282 0 54.028 11.0869 599 105.18 537.895 519.406
1283 0 57.1163 11.5554 660 103.218 537.736 519.024
1284 0 58.055 11.3685 660 100.218 537.989 519.098
1285 0 63.0453 12.8955 813 109.574 538.429 522.096
1286 0 65.0174 12.9658 843 109.027 538.643 520.326
1287 0 67.0831 13.5504 909 110.281 538.569 519.199
1288 0 68.099 13.4951 919 110.607 537.888 518.627
1289 0 72.2154 13.1274 948 111.195 538.23 517.864
1290 0 73.0265 12.7077 928 107.328 538.362 519.28
1291 0 74.059 12.3955 918 109.437 538.171 517.769
1292 0 75.0442 12.939 971 108.021 538.786 516.321
1293 0 78.0436 12.903 1007 108.842 538.307 515.105
1294 0 80.0146 13.1976 1056 107.961 538.69 513.787
1295 0 82.0325 12.8851 1057 110.15 537.714 511.52
1296 0 86.0117 13.9167 1197 107.2 537.714 511.553
1297 0 87.0797 12.9192 1125 111.547 537.084 509.244
1298 0 91.0441 13.466 1226 109.923 537 508.269
1299 0 93.0336 14.1562 1317 109.853 537.376 507.901
1300 0 95.0591 14.1175 1342 110.864 537.427 507.84
1301 0 99.05 14.2049 1407 110.096 537.794 505.325
1302 0 100.035 14.215 1422 111.828 537.344 504.734
1303 0 104.05 14.2527 1483 111.808 538.235 501.985
1304 0 106.044 14.4468 1532 111.17 537.905 501.052
1305 0 109.02 14.1075 1538 112.822 538.23 500.097
1306 0 114.104 14.8987 1700 108.506 538.124 496.867
1307 0 117.118 14.9337 1749 108.946 537.726 495.971
1308 0 119.093 14.9128 1776 111.29 537.604 492.577
1309 0 122.097 14.1445 1727 114.242 537.131 492.123
1310 0 125.11 14.1316 1768 109.831 536.847 485.796
1311 0 128.144 13.9375 1786 112.237 536.628 483.272
1312 0 135.176 14.6846 1985 109.881 537.011 480.595
1313 0 137.195 14.7527 2024 111.519 537.246 479.143
1314 0 140.154 14.8052 2075 113 537.55 476.744
1315 0 144.208 14.4167 2079 114.123 537.17 476.408
1316 0 148.156 14.37 2129 115.923 537.929 474.455
1317 0 152.189 13.9563 2124 116.858 537.642 469.964
1318 0 159.196 14.4036 2293 114.996 537.573 467.458
1319 0 162.137 14.2472 2310 118.061 537.415 465.622
1320 0 168.109 14.0385 2360 116.736 537.644 460.536
1321 0 173.154 14.386 2491 115.425 537.326 461.005
1322 0 179.192 14.2417 2552 115.606 537.299 456.92
1323 0 183.1 13.9268 2550 117.244 536.901 453.443
1324 0 190.107 13.7607 2616 116.55 538.172 451.923
1325 0 194.084 13.5096 2622 117.381 538.286 450.029
1326 0 203.177 13.9681 2838 114.831 537.576 445.3
1327 0 209.152 13.9086 2909 114.199 537.802 442.329
1328 0 216.156 13.5365 2926 115.438 538.839 437.732
1329 0 224.182 13.4712 3020 115.684 536.946 434.189
1330 0 231.234 13.5966 3144 113.638 537.024 430.303
1331 0 240.154 13.7537 3303 112.955 537.436 426.162
1332 0 248.189 13.8362 3434 113.697 537.433 421.551
1333 0 257.129 13.9191 3579 113.042 537.428 416.023
1334 0 263.22 13.3842 3523 113.919 537.165 412.792
1335 0 274.154 13.8572 3799 110.841 537.864 407.454
1336 0 284.163 13.436 3818 111.852 536.563 401.396
1337 1 317.228 10.5886 3359 116.092 536.195 401.496
1338 0 319.279 20.3083 6484 86.6542 535.469 365.483
1339 0 317.227 18.1983 5773 96.0603 535.494 368.648
1340 0 324.257 13.9334 4518 112.078 536.213 384.082
1341 1 107.085 11.122 1191 107.832 536.236 502.702
1342 0 108.053 11.5129 1244 108.51 536.35 500.158
1343 0 111.106 11.4395 1271 106.817 536.958 499.147
1344 0 112.084 11.4022 1278 107.718 536.971 497.786
1345 0 116.075 11.975 1390 107.458 537.465 496.072
1346 0 120.121 12.2044 1466 106.779 536.593 493.044
1347 0 124.078 12.4438 1544 104.508 537.12 488.547
1348 0 127.09 12.2983 1563 107.082 537.204 489.046
1349 0 128.084 11.6955 1498 97.1676 536.777 472.216
1350 0 135.176 11.866 1604 95.9445 536.738 474.574
1351 0 135.094 11.17 1509 103.445 536.872 471.942
1352 0 141.075 11.5116 1624 99.4797 536.89 468.648
1353 0 145.089 11.8686 1722 101.272 536.501 468.464
1354 0 155.112 12.6038 1955 98.7074 537.027 472.251
1355 0 158.13 12.5529 1985 99.5572 536.979 469.177
1356 0 166.149 13.1088 2178 97.4573 536.14 463.448
1357 0 167.148 12.2646 2050 101.067 537.064 459.963
1358 1 100.073 10.5822 1059 104.577 536.642 492.451
1359 0 107.083 11.5424 1236 102.337 536.517 491.562
1360 0 113.146 12.3468 1397 103.077 536.51 493.482
1361 0 116.144 12.0023 1394 100.787 536.303 496.154
1362 0 119.119 11.6355 1386 102.4 536.258 492.585
1363 0 121.142 11.7631 1425 102.773 535.815 489.467
1364 0 124.169 11.9192 1480 102.626 535.98 487.645
1365 0 124.172 11.9995 1490 106.093 535.626 482.136
1366 0 127.104 12.242 1556 107.136 535.51 479.702
1367 0 130.179 12.8208 1669 104.712 536.075 476.689
1368 0 133.125 11.9737 1594 105.036 536.056 473.327
1369 0 141.127 12.308 1737 102.293 536.539 472.967
1370 0 143.224 12.2047 1748 103.702 536.131 469.601
1371 0 150.161 12.147 1824 102.451 536.275 469.007
1372 0 153.131 11.7546 1800 103.557 536.663 467.452
1373 0 160.16 11.9818 1919 103.394 536.924 463.068
1374 1 92.116 9.98741 920 105.143 536.935 495.08
1375 0 103.186 11.4454 1181 98.569 536.246 498.93
1376 0 106.179 11.3959 1210 99.9413 536.313 495.976
1377 0 108.131 12.3831 1339 91.2435 536.472 494.376
1378 0 107.064 10.9001 1167 95.3728 535.973 494.279
1379 0 109.088 10.8078 1179 92.6548 535.904 495.941
1380 0 108.04 10.7831 1165 97.0043 536.488 492.722
1381 0 108.069 11.2613 1217 98.7592 536.398 494.627
1382 0 109.033 11.8405 1291 98.1844 536.546 493.152
1383 0 112.091 12.0527 1351 96.4767 536.625 490.024
1384 0 116.068 11.5363 1339 96.3062 536.176 487.875
1385 0 121.143 12.0767 1463 92.1668 535.434 486.626
1386 0 123.109 11.8513 1459 90.7779 534.731 484.269
1387 0 127.109 11.3839 1447 90.0346 535.296 483.482
1388 0 128.143 11.5262 1477 88.478 535.089 481.268
1389 0 132.157 11.2896 1492 86.6387 535.619 479.156
1390 0 135.19 10.881 1471 85.9912 536.067 478.452
1391 0 140.186 11.2351 1575 84.9314 535.892 476.016
1392 0 144.176 11.2779 1626 84.1402 536.461 474.264
1393 0 144.112 11.0747 1596 84.7249 536.32 469.166
1394 0 153.147 10.8001 1654 85.3573 536.155 467.489
1395 0 157.133 10.4943 1649 86.923 535.133 466.82
1396 0 166.19 10.6746 1774 86.0806 535.534 467.751
1397 0 170.177 10.918 1858 88.2589 534.934 466.837
1398 1 92.0975 10.4672 964 82.055 535.333 511.086
1399 0 96.107 11.3415 1090 81.7459 535.129 508.713
1400 0 95.1463 10.4681 996 85.9398 536.487 507.624
1401 0 99.1109 11.5023 1140 84.1491 536.996 505.397
1402 0 102.103 11.7724 1202 84.327 536.491 503.139
1403 0 105.06 11.898 1250 85.948 535.407 504.078
1404 0 107.081 11.8882 1273 87.3291 535.781 501.37
1405 0 109.097 11.4668 1251 90.0719 536.934 499.003
1406 0 110.147 11.3031 1245 91.8803 537.138 499.238
1407 0 116.117 12.1343 1409 90.0916 537.272 497.998
1408 0 118.194 11.7773 1392 92.4784 536.925 497.436
1409 0 121.088 11.9665 1449 92.2857 536.41 495.653
1410 0 123.183 11.4789 1414 95.4123 536.34 493.322
1411 0 125.105 11.0547 1383 98.6197 535.749 493.044
1412 0 130.162 11.2629 1466 96.7258 534.675 490.423
1413 0 131.107 11.2351 1473 97.9905 535.163 489.534
1414 1 76.0144 10.0507 764 95.9437 535.661 519.166
1415 0 75.0155 9.63801 723 136.051 536.682 518.485
1416 0 78.1323 10.687 835 94.5102 536.226 511.819
1417 0 81.0955 11.505 933 90.6613 535.854 510.67
1418 0 83.0734 11.7848 979 88.5526 536.692 512.675
1419 0 86.0521 12.1322 1044 87.7165 536.971 511.8
1420 0 87.0444 12.35 1075 88.2279 536.293 509.736
1421 0 92.0528 13.0903 1205 84.8481 536.359 507.695
1422 0 93.0659 12.5717 1170 86.2632 535.591 506.197
1423 0 98.1012 12.3444 1211 86.5846 535.752 504.588
1424 0 97.0557 12.3434 1198 88.1002 535.891 502.7
1425 0 100.114 12.9353 1295 87.8618 536.82 503.211
1426 0 102.143 12.6588 1293 88.2359 536.241 500.798
1427 0 105.066 13.0014 1366 87.1845 536.614 499.679
1428 0 108.05 12.3276 1332 89.1554 536.276 496.055
1429 0 110.151 12.728 1402 89.5913 536.159 496.781
1430 0 114.131 12.3191 1406 90.2191 536.236 496.756
1431 0 116.1 12.5409 1456 89.9787 535.464 494.784
1432 0 119.11 12.4675 1485 88.6323 536.104 491.941
1433 0 122.249 12.4909 1527 88.2312 535.624 491.7
1434 0 126.197 12.4092 1566 88.825 536.46 487.185
1435 0 131.157 12.5346 1644 87.8035 536.071 483.867
1436 0 134.217 12.763 1713 87.6369 535.994 479.845
1437 0 139.133 12.8798 1792 84.4442 536.23 476.413
1438 0 141.237 12.1852 1721 87.5787 536.327 473.571
1439 0 144.124 12.524 1805 85.128 536.404 467.439
1440 0 149.135 13.0285 1943 83.6629 536.338 467.693
1441 0 149.115 12.0511 1797 87.0223 536.139 461.032
1442 0 152.216 12.4034 1888 87.1239 536.214 455.913
1443 0 160.169 12.5555 2011 86.6106 535.378 454.551
1444 1 96.0904 10.896 1047 78.7899 535.325 498.933
1445 0 99.0952 11.8573 1175 80.8426 535.657 502.426
1446 0 101.074 12.0308 1216 79.8043 536.224 503.564
1447 0 106.112 12.025 1276 79.0729 536.144 501.408
1448 0 106.095 11.7253 1244 79.7894 536.563 499.781
1449 0 109.081 11.7619 1283 80.4832 536.499 498.516
1450 0 113.078 11.691 1322 80.9887 536.206 496.412
1451 0 116.12 12.3751 1437 81.1079 536.105 493.978
1452 0 121.071 12.8189 1552 79.7049 536.229 493.122
1453 0 124.1 12.8445 1594 88.3965 535.967 491.555
1454 0 128.107 12.9345 1657 90.2173 535.614 487.153
1455 0 132.12 13.1396 1736 90.6244 535.755 487.395
1456 0 135.138 13.1643 1779 91.8803 536.033 482.373
1457 0 139.11 12.8029 1781 92.5424 535.475 480.09
1458 0 145.112 13.3276 1934 91.3552 536.508 481.026
1459 0 148.134 13.2042 1956 92.6339 536.867 478.307
1460 0 153.248 13.5336 2074 83.8611 536.837 478.747
1461 0 158.052 13.1666 2081 87.4623 536.988 474.52
1462 1 94.0861 10.6286 1000 88.457 536.578 507.142
1463 0 97.1235 11.2846 1096 84.4215 537.175 505.962
1464 0 98.1261 11.4546 1124 83.5925 536.397 505.729
1465 0 101.093 12.0384 1217 82.7658 536.491 502.21
1466 0 101.12 12.2924 1243 83.3846 536.12 500.389
1467 0 106.144 12.4265 1319 82.1524 535.694 499.362
1468 0 109.115 12.3631 1349 83.3402 535.998 496.736
1469 0 110.1 11.7439 1293 84.8716 535.616 498.562
1470 0 114.154 12.1415 1386 84.4084 535.859 496.45
1471 0 117.092 11.6489 1364 85.9267 535.889 493.474
1472 0 120.112 11.7057 1406 85.4438 535.927 491.92
1473 0 124.127 12.0441 1495 84.8013 536.361 490.474
1474 0 128.123 12.2382 1568 84.5988 536.507 487.577
1475 0 129.139 11.9871 1548 85.7306 536.616 483.734
1476 0 131.138 11.934 1565 86.2204 536.926 482.997
1477 0 138.146 12.6026 1741 85.2102 536.485 479.647
1478 0 141.178 12.757 1801 89.5214 536.571 475.647
1479 0 145.22 12.1884 1770 91.9994 536.441 473.411
1480 0 147.155 11.5661 1702 92.8831 536.757 469.953
1481 0 153.21 12.4209 1903 90.9963 536.478 466.25
1482 0 157.235 12.5099 1967 92.3294 536.743 464.169
1483 1 90.0943 9.90074 892 88.9708 536.825 502.422
1484 0 89.0389 9.82716 875 88.7486 536.609 501.353
1485 0 92.0878 10.6746 983 87.5829 536.295 499.488
1486 0 96.1562 11.0029 1058 87.0756 535.906 499.447
1487 0 99.2039 11.5419 1145 87.8393 536.049 497.291
1488 0 101.125 12.0544 1219 86.6276 536.263 497.368
1489 0 103.181 12.8609 1327 84.9623 536.296 497.199
1490 0 107.149 12.6086 1351 85.8949 535.569 495.523
1491 0 108.307 13.0278 1411 86.3345 536.23 492.595
1492 0 110.083 10.9372 1204 90.6777 536.072 494.154
1493 0 110.257 10.9835 1211 92.2981 536.347 486.778
1494 0 114.195 11.1388 1272 92.0134 536.603 487.744
1495 0 117.275 11.5625 1356 91.4484 536.817 486.148
1496 0 120.261 11.4002 1371 92.1189 537.095 487.417
1497 0 122.124 11.5457 1410 92.3879 536.748 488.85
1498 0 123.19 11.3159 1394 93.8357 537.365 482.198
1499 0 132.168 12.8624 1700 88.65 537.548 486.4
1500 0 136.182 12.733 1734 87.1672 537.009 479.7
1501 0 136.297 12.4068 1691 86.0538 536.795 472.305
1502 0 139.282 12.9306 1801 85.2538 535.9 468.93
1503 0 142.242 12.7037 1807 87.0963 536.831 467.57
1504 0 147.262 12.5287 1845 87.5539 535.93 464.029
1505 0 150.276 12.9163 1941 87.5064 536.295 463.333
1506 0 156.333 12.9723 2028 89.0592 536.112 461.596
1507 0 159.378 12.6053 2009 90.8492 535.699 460.677
1508 0 164.328 12.5299 2059 93.338 536.363 460.729
1509 0 171.161 12.9001 2208 91.9294 536.446 459.011
1510 0 174.183 12.5672 2189 93.064 536.874 457.299
1511 0 177.159 12.3053 2180 94.1633 536.959 453.962
1512 0 183.087 12.4913 2287 93.4036 536.876 450.278
1513 0 190.177 12.9038 2454 93.6345 536.59 445.932
1514 0 194.211 12.7387 2474 93.3133 536.724 444.485
1515 0 202.325 12.816 2593 93.6714 536.065 438.944
1516 0 207.312 12.8357 2661 93.9181 536.632 438.814
1517 0 213.306 13.108 2796 92.7207 536.91 435.657
1518 1 160.33 11.283 1809 90.9337 536.731 466.632
1519 0 167.304 12.0201 2011 89.2536 536.432 462.603
1520 0 170.256 11.8116 2011 89.5888 536.515 460.62
1521 0 175.205 12.1343 2126 90.6486 536.495 455.05
1522 0 179.203 12.4551 2232 91.4722 536.854 452.609
1523 0 182.296 11.6075 2116 94.0397 536.842 449.203
1524 0 190.324 12.3894 2358 92.4003 537.36 446.374
1525 0 193.335 11.912 2303 93.5532 537.22 445.677
1526 0 200.247 12.4696 2497 93.6284 537.538 441.515
1527 0 203.219 12.4152 2523 94.5906 537.626 439.187
1528 0 209.271 12.7395 2666 93.9801 537.354 437.458
1529 0 216.34 12.5404 2713 93.7825 537.285 436.081
1530 0 222.339 12.8947 2867 93.9965 536.644 430.734
1531 0 228.401 12.5656 2870 95.5617 537.267 429.453
1532 0 235.423 12.5561 2956 97.4641 536.473 422.46
1533 0 241.337 13.0274 3144 97.8572 536.359 421.538
1534 0 249.484 12.9668 3235 98.8043 536.831 417.24
1535 0 255.381 13.0785 3340 101.624 536.826 413.166
1536 0 261.357 12.7068 3321 102.647 536.883 411.4
1537 0 267.425 13.0579 3492 103.529 536.741 405.346
1538 0 274.333 13.7497 3772 102.689 536.525 404.915
1539 1 286.417 16.5458 4739 95.9791 536.598 388.342
1540 0 294.545 18.9411 5579 90.0826 536.072 380.826
1541 0 299.43 16.3344 4891 99.56 536.34 384.095
1542 0 303.288 13.6141 4129 108.587 536.194 389.179
1543 0 314.402 14.2906 4493 107.446 535.825 383.289
1544 0 322.292 13.7639 4436 109.686 536.19 379.088
1545 0 331.219 13.8791 4597 109.996 535.268 372.961
1546 0 342.261 13.4663 4609 111.461 535.865 370.747
1547 0 351.276 14.806 5201 105.028 535.803 363.213
1548 1 41.0348 9.91841 407 80.0688 536.604 531.351
1549 0 42.0864 9.90818 417 81.7482 534.988 530.187
1550 0 41.02 10.117 415 85.3855 534.86 528.436
1551 0 42.0167 9.71042 408 87.4534 535.387 530.338
1552 0 42.0926 10.5957 446 86.6435 534.765 530.478
1553 0 47.0403 12.4149 584 78.7312 534.533 526.396
1554 0 46.0173 11.4088 525 85.8724 534.482 527.282
1555 0 47.0734 11.7264 552 85.5924 534.154 526.168
1556 0 46.0436 11.9886 552 89.0109 535.049 528.172
1557 0 41.0279 9.04263 371 91.566 535.191 533.097
1558 0 42.0102 10.426 438 90.1552 537.281 532.995
1559 0 40.0195 9.74525 390 93.7641 536.738 532.564
1560 0 42.0254 9.70841 408 93.8015 536.684 533.032
1561 0 41.0509 9.79272 402 94.4478 537.02 533.716
1562 0 42.0263 10.1841 428 94.5397 537.114 532.252
1563 0 44.0684 10.6652 470 92.5362 537.23 532.094
1564 0 41.0129 10.3382 424 95.6934 537.719 532.892
1565 0 42.0138 10.0681 423 95.4444 537.657 531.82
1566 0 45.0331 10.5478 475 92.0042 537.941 531.87
1570 0 421.887 14.5134 6123 126.738 535.944 317.545
1571 0 419.911 14.6674 6159 125.426 536.213 319.47
1572 1 42.0549 9.65405 406 96.6232 536.52 532.261
1573 0 42.0397 9.75269 410 96.1659 536.451 532.232
1574 0 47.1484 13.3621 630 79.4397 535.822 524.881
1575 0 48.0159 13.7246 659 62.6798 536.901 527.388
1576 0 48.0801 14.2055 683 61.7496 537.373 526.133
1577 0 49.0738 13.9993 687 61.2402 536.183 527.608
1578 0 48.0712 13.7296 660 62.5242 535.642 527
1579 0 49.052 13.5163 663 62.8688 536.792 527.419
1580 0 49.0527 13.8423 679 62.3211 536.312 526.485
1581 0 49.0527 13.1083 643 62.8383 536.275 526.784
1582 0 49.0993 13.544 665 61.6451 536.507 526.326
1583 0 50.051 13.0467 653 61.7014 536.832 527.444
