time division length width area intensity CMx CMy
0 0 54.0468 14.7835 799 82.4844 1331.13 500.768
1 0 53.0319 13.7087 727 83.8487 1331.81 499.069
2 0 54.038 13.5275 731 83.6813 1331.94 497.611
3 0 56.0551 13.6651 766 83.2807 1331.45 497.401
4 0 56.0233 14.137 792 82.5644 1331.63 495.686
5 0 57.0249 14.2569 813 146.042 1332.66 496.119
6 0 60.0434 14.4895 870 85.9 1331.36 496.54
7 0 64.0906 14.7448 945 83.8899 1331.59 496.543
8 0 66.113 14.7323 974 84.9466 1331.7 494.193
9 0 68.039 14.5946 993 85.1208 1330.58 494.161
10 0 68.039 14.5946 993 156.242 1330.58 494.161
11 0 72.1144 15.1565 1093 84.8509 1330.78 492.706
12 0 73.036 15.6224 1141 83.9378 1331.47 492.937
13 0 77.1411 14.804 1142 85.12 1331.41 490.69
14 0 79.0923 14.8181 1172 86.5094 1331.19 488.9
15 0 82.0442 14.8578 1219 86.0509 1331.28 489.403
16 0 83.0861 14.479 1203 89.4788 1330.94 487.928
17 0 86.0963 14.96 1288 88.927 1330.58 486.304
18 0 88.1165 15.2979 1348 88.3494 1330.63 486.115
19 0 90.0645 14.8338 1336 89.3174 1329.87 485.293
20 0 94.0935 14.3687 1352 90.8499 1329.84 483.723
21 1 48.056 12.3606 594 92.5354 1330.41 505.928
22 0 50.0639 13.0234 652 88.4785 1330.83 505.186
23 0 50.0359 13.0107 651 90.3287 1330.21 503.691
24 0 52.0196 13.6295 709 91.8463 1330.9 503.381
25 0 54.0352 13.9724 755 92.5444 1330.19 503.315
26 0 56.0126 13.372 749 94.3672 1330.31 502.928
27 0 58.0404 14.1798 823 91.5723 1330.05 501.345
28 0 61.0815 13.7358 839 88.646 1329.72 501.751
29 0 63.0338 14.0877 888 90.045 1330.07 500.008
30 0 63.1219 13.8304 873 91.0046 1329.28 499.599
31 0 66.0538 13.2619 876 91.2979 1329.45 499.576
32 0 68.0313 13.9789 951 93.1577 1328.58 497.587
33 0 72.0431 14.0888 1015 94.0424 1329.74 495.959
34 0 74.0712 14.4186 1068 93.2294 1328.85 496.023
35 0 77.0624 14.7153 1134 94.3677 1329.44 493.574
36 0 78.0379 14.2367 1111 96.622 1329.01 492.812
37 0 80.0377 14.1058 1129 95.4074 1329.03 492.275
38 0 85.0495 13.9331 1185 93.9646 1328.41 489.765
39 0 86.0454 13.3534 1149 92.4352 1329.05 488.544
40 0 91.0823 13.8446 1261 91.1332 1328.27 487.819
41 0 94.0651 13.9903 1316 90.5965 1328.72 486.784
42 0 94.0651 14.0435 1321 160.685 1328.72 486.872
43 1 48.0453 12.0303 578 90.1644 1328.77 507.253
44 0 50.0678 12.7827 640 90.0016 1329.51 506.564
45 0 52.0671 12.7336 663 91.991 1329.49 504.407
46 0 53.02 12.4293 659 83.2747 1329.64 505.703
47 0 54.0234 12.1244 655 84.2 1328.71 505.501
48 0 56.0541 13.487 756 82.963 1329.1 503.701
49 0 57.0565 12.917 737 85.7829 1328.62 501.617
50 0 60.0279 12.6275 758 85.5488 1329.57 501.015
51 0 62.0225 12.9953 806 84.9789 1328.72 498.517
52 0 65.0507 12.8669 837 84.4325 1328.41 498.941
53 0 67.0732 13.0156 873 90.8981 1328.48 496.113
54 0 69.0562 12.7143 878 91.0057 1328.98 494.959
55 0 70.0346 13.1364 920 90.5783 1329.47 494.832
56 0 74.0411 13.3575 989 88.9292 1330.21 493.449
57 0 77.0416 14.2131 1095 86.6968 1329.88 493.026
58 0 75.037 12.7004 953 99.6212 1329.51 492.369
59 0 81.0542 13.5465 1098 88.4062 1328.94 490.039
60 0 84.0807 13.5584 1140 88.4158 1329.92 489.325
61 0 86.0778 13.5691 1168 89.0882 1330 487.24
62 0 88.0612 12.832 1130 89.6788 1329.13 486.535
63 0 91.0756 13.67 1245 87.8056 1328.41 485.208
64 0 91.0736 13.6922 1247 146.628 1327.42 485.098
65 0 95.0553 13.5395 1287 87.5058 1329.54 483.204
66 0 94.0549 12.6203 1187 147.784 1332.59 481.772
67 0 103.085 13.6975 1412 87.4122 1329.46 480.02
68 1 52.0293 11.013 573 83.5201 1329.9 504.148
69 0 56.0751 11.3598 637 81.3093 1330.85 503.688
70 0 57.0706 11.9676 683 81.4026 1330.64 501.676
71 0 61.0834 12.2128 746 82.055 1330.51 501.72
72 0 61.0961 12.2594 749 84.7877 1330.12 498.976
73 0 63.0599 12.0203 758 77.715 1329.62 498.975
74 0 63.043 12.1028 763 77.4784 1330.41 499.083
75 0 66.042 12.4921 825 76.56 1330.57 498.354
76 0 69.0252 11.7204 809 77.8319 1329.95 496.129
77 0 72.0236 12.0655 869 78.046 1330.32 495.321
78 0 72.0983 11.3872 821 80.9208 1330.71 494.59
79 0 76.0341 12.0867 919 79.9902 1331.08 492.736
80 0 78.0646 11.8492 925 81.6497 1330.74 491.072
81 0 81.0318 13.0319 1056 79.0928 1331.44 490.793
82 0 83.1055 12.7549 1060 79.9887 1330.39 489.75
83 0 85.0988 12.4561 1060 82.5858 1330.91 486.703
84 0 89.0649 12.6649 1128 84.2482 1330.6 484.018
85 0 91.1205 12.8401 1170 81.6564 1330.26 484.145
86 0 94.0283 13.2194 1243 79.2534 1330.16 484.464
87 0 97.1223 12.788 1242 81.4952 1330.23 480.018
88 0 100.086 12.6891 1270 81.7362 1330.74 479.202
89 0 102.079 12.5491 1281 84.5441 1331.1 475.976
90 0 104.134 12.3687 1288 84.1615 1330.98 474.944
91 0 109.079 13.0089 1419 82.5476 1330.13 473.802
92 1 58.0337 10.2699 596 75.5671 1331.05 501.789
93 0 60.0344 11.5767 695 74.7309 1331 501.168
94 0 63.0176 11.4571 722 76.0416 1330.73 497.395
95 0 64.0414 11.6487 746 82.0322 1329.86 496.286
96 0 64.048 10.8668 696 74.0876 1329.47 497.371
97 0 67.0374 11.5607 775 73.449 1328.68 496.083
98 0 67.016 11.1167 745 75.2255 1329.51 495.507
99 0 71.0251 11.2777 801 75.7865 1330.1 493.486
100 0 74.0344 12.143 899 74.8932 1329 492.057
101 0 76.1243 12.1775 927 75.7368 1330.18 490.358
102 0 79.047 11.7145 926 77.824 1329.44 487.348
103 0 82.0526 12.0045 985 86.4254 1330.39 485.898
104 0 84.1042 11.5214 969 88.1909 1330.02 484.762
105 0 89.0854 12.763 1137 84.8953 1330.61 484.977
106 0 89.0854 12.8192 1142 142.262 1330.6 484.855
107 0 95.0439 13.1623 1251 85.3341 1329.46 482.723
108 0 97.0889 13.0705 1269 84.9614 1328.79 479.974
109 0 100.087 12.5091 1252 85.893 1329.44 478.96
110 0 103.09 12.3775 1276 85.9028 1329.89 475.379
111 0 106.146 12.5676 1334 83.5495 1329.77 473.737
112 0 110.068 12.8102 1410 82.2872 1329.96 473.118
113 1 57.0297 10.591 604 75.1242 1330.49 501.368
114 0 57.1402 10.7805 616 76.0097 1330.39 498.278
115 0 59.1637 11.0034 651 77.9939 1329.55 498.31
116 0 62.0286 11.5108 714 74.1989 1329.22 498.227
117 0 66.0725 11.6236 768 80.388 1328.66 496.671
118 0 68.0813 11.5744 788 80.6396 1329.39 496.166
119 0 70.0553 11.4338 801 79.8889 1328.88 494.888
120 0 71.1198 12.1063 861 79.3148 1329.81 493.79
121 0 71.0697 11.6505 828 80.2778 1329.84 491.943
122 0 74.06 11.6797 865 80.2197 1329.83 491.035
123 0 79.0589 12.1934 964 79.11 1329.78 489.373
124 0 80.0735 11.7018 937 80.6852 1330.25 487.608
125 0 83.0249 11.8639 985 80.3624 1329.75 487.201
126 0 85.0876 12.1522 1034 80.413 1329.44 484.637
127 0 89.3198 12.2817 1097 80.0656 1329.52 481.82
128 0 93.2195 12.7441 1188 79.3813 1329.04 480.387
129 0 96.2437 13.019 1253 79.585 1329.01 479.085
130 0 98.3104 12.369 1216 81.4992 1329.65 477.808
131 0 101.191 11.9774 1212 84.0074 1329.78 473.913
132 0 104.251 12.5179 1305 83.6215 1329.97 474.555
133 0 108.106 12.8947 1394 85.0753 1329.76 473.878
134 1 54.031 10.9197 590 76.6051 1329.86 502.6
135 0 59.0747 11.3585 671 75.3174 1329.7 501.306
136 0 60.0581 11.5222 692 75.5636 1329.97 500.711
137 0 62.05 11.7486 729 76.9314 1329.65 499.658
138 0 63.0407 11.5957 731 78.1081 1329.76 498.245
139 0 64.0732 11.3776 729 78.6118 1329.52 498.674
140 0 69.0697 12.2051 843 76.9478 1329.65 497.469
141 0 70.047 12.0776 846 79.3463 1329.66 495.935
142 0 72.0516 12.4078 894 78.2696 1330.09 496.075
143 0 75.068 12.6952 953 77.9717 1328.79 494.018
144 0 78.1167 12.3277 963 78.6532 1328.33 491.382
145 0 78.1116 11.842 925 79.5816 1328.14 491.263
146 0 82.2157 11.859 975 79.5723 1328.64 488.908
147 0 82.1927 12.3004 1011 79.0059 1328.38 486.609
148 0 87.0972 12.1473 1058 79.6786 1328.44 485.153
149 0 89.2023 11.8383 1056 80.6326 1328.83 483.127
150 1 47.1574 9.77577 461 74.6963 1327.93 506.998
151 0 49.0776 9.94343 488 74.8053 1327.9 505.324
152 0 51.0605 10.8303 553 74.0235 1327.61 504.441
153 0 50.0801 10.7228 537 75.3352 1327.9 503.92
154 0 54.0772 11.9089 644 71.486 1328.36 502.43
155 0 56.0328 10.9222 612 72.3791 1327.84 501.753
156 0 57.0806 10.056 574 73.6916 1328.56 499.927
157 0 62.0418 12.3788 768 68.1784 1328.04 500.898
158 0 62.0583 11.7309 728 69.3984 1328.86 499.607
159 0 64.0479 11.7724 754 70.0809 1329.24 498.718
160 0 64.0801 11.7353 752 71.2194 1329.57 497.672
161 0 68.0272 11.9805 815 70.2577 1328.82 496.541
162 0 70.0558 12.0333 843 71.0308 1328.43 495.845
163 0 71.0526 11.8082 839 72.5518 1328.58 494.79
164 0 74.0827 12.6345 936 71.8568 1328.66 492.479
165 0 78.0353 12.8147 1000 71.421 1328.53 490.874
166 0 79.0821 12.5439 992 74.6008 1328.66 488.847
167 0 81.0608 12.4845 1012 74.999 1328.85 488.559
168 0 84.0954 12.5809 1058 77.7514 1329.42 486.497
169 0 87.0826 12.6317 1100 77.8391 1329.52 484.558
170 0 89.1395 11.4988 1025 80.5268 1329.8 483.032
171 0 92.0578 13.057 1202 76.1897 1329.41 481.818
172 0 95.0811 13.01 1237 75.9612 1328.56 478.88
173 0 99.1547 12.7478 1264 75.0759 1328.16 478.881
174 0 101.147 12.6845 1283 75.053 1328.25 477.054
175 0 104.14 12.5216 1304 75.2998 1328.36 476.621
176 0 106.125 12.5513 1332 75.4242 1328.98 474.637
177 0 110.144 12.3929 1365 76.7319 1329.06 472.489
178 0 114.066 12.6418 1442 76.5999 1329.45 471.959
179 0 118.083 12.6183 1490 77.8107 1329.47 469.352
180 0 123.125 12.3289 1518 77.4374 1328.61 466.031
181 0 125.13 12.0915 1513 77.5915 1328.56 466.238
182 0 130.158 12.7845 1664 76.0919 1327.96 463.547
183 0 135.081 12.9477 1749 76.713 1329.05 462.284
184 0 137.165 12.7875 1754 79.1403 1329.26 458.395
185 1 72.1011 11.0678 798 77.3133 1329.41 493.437
186 0 75.1383 11.8448 890 78.0303 1329.52 491.462
187 0 76.0902 11.3944 867 79.0888 1329.46 490.023
188 0 77.1167 11.528 889 79.4252 1329.78 485.632
189 0 79.1161 11.6158 919 79.7541 1329.27 484.232
190 0 84.0939 12.0817 1016 77.4862 1328.86 483.207
191 0 85.1286 11.3123 963 78.4652 1328.73 480.907
192 0 86.0929 11.7199 1009 76.4024 1328.18 477.719
193 0 89.1293 11.8255 1054 77.0769 1329.01 477.453
194 0 93.1319 11.9508 1113 78.0674 1328.79 476.946
195 0 95.1919 12.0388 1146 79.1169 1329.38 477.275
196 0 99.0966 12.0186 1191 78.3308 1328.94 474.685
197 1 51.0498 9.81394 501 75.9222 1330.18 497.992
198 0 53.0313 10.9747 582 74.4364 1329.42 498.567
199 0 53.0274 9.95712 528 64.9356 1327.35 501.725
200 0 54.0391 10.0483 543 65.3352 1327.14 502.748
201 0 56.0147 10.1759 570 65.9579 1327.4 500.602
202 0 56.0147 10.2295 573 128.972 1327.41 500.572
203 0 59.043 9.97578 589 82.5433 1327.97 500.986
204 0 60.0269 9.94554 597 82.2965 1327.68 500.039
205 0 62.0835 10.6147 659 81.2003 1327.23 498.507
206 0 65.0468 11.1151 723 78.5007 1327.95 496.172
207 0 68.0462 11.6098 790 76.3494 1327.1 497.041
208 0 69.1102 11.3297 783 76.6105 1327.45 493.743
209 0 71.0567 10.8927 774 77.7842 1327.08 493.407
210 0 73.0482 10.2809 751 78.6511 1327.56 494.979
211 0 74.0484 10.4931 777 78.9858 1327.51 494.386
212 0 75.0265 10.3163 774 82.5258 1327.35 492.598
213 0 78.0471 10.1733 794 83.2116 1328.07 490.383
214 0 82.0396 10.6412 873 80.4296 1328.1 489.836
215 0 84.0748 10.6096 892 81.2511 1328.01 488.08
216 1 46.0531 9.33705 430 78.214 1328.1 508.079
217 0 49.0223 10.5462 517 75.0832 1327.74 506.184
218 0 49.0622 10.1912 500 75.304 1327.54 505.566
219 0 50.1089 10.1778 510 75.6235 1326.73 504.665
220 0 48.0472 10.2816 494 79.5223 1326.99 506.328
221 0 49.0657 9.21214 452 81.1394 1327.26 505.938
222 0 51.0494 8.4624 432 81.9468 1327.07 505.736
223 0 52.1002 9.61609 501 80.489 1327.56 504.01
224 0 53.1013 9.62311 511 80.8454 1327 503.54
225 0 56.1159 10.407 584 80.1199 1326.8 501.551
226 0 58.0625 10.1098 587 78.9353 1326.2 501.489
227 0 59.0887 9.90038 585 80.1795 1326.96 499.926
228 0 63.0866 10.652 672 78.5521 1326.56 498.551
229 0 63.1342 9.93123 627 80.5072 1327.21 498.182
230 0 67.0624 9.9907 670 79.094 1327.15 496.404
231 0 68.1008 10.4698 713 79.8205 1327.27 494.804
232 1 37.0455 9.87975 366 78.8224 1328.02 513.104
233 0 35.015 10.1385 355 78.8225 1327.59 513.262
234 0 36.0366 10.3228 372 80.793 1327.63 511.409
235 0 37.0218 10.2642 380 90.9763 1328.54 510.937
236 0 33.0413 10.0783 333 84.4655 1326.32 514.796
237 0 36.0586 9.90055 357 85.9636 1326.66 512.818
238 0 37.0187 9.94092 368 88.1467 1325.77 512.592
239 0 37.0391 10.1784 377 86.2891 1326.62 512.09
240 0 38.0514 9.77624 372 88.5269 1326.78 511.96
241 0 38.05 10.1971 388 89.933 1327.4 512.466
242 0 42.0501 11.4387 481 87.5114 1327.07 511.048
243 0 43.0156 11.4842 494 90.7854 1326.58 510.565
244 0 44.0675 11.7547 518 90.7104 1326.71 510.143
245 0 44.012 11.406 502 88.741 1326.97 510.612
246 0 44.029 11.1063 489 90.2863 1327.26 509.883
247 0 46.033 11.6221 535 87.4019 1326.89 509.873
248 0 48.0232 11.4944 552 87.7011 1327.43 507.853
249 0 49.0161 11.5472 566 86.5901 1327.1 506.645
250 0 49.015 11.9351 585 85.841 1327.29 507.258
251 0 51.0165 11.5061 587 85.9676 1326.53 507.06
252 0 50.0394 11.2711 564 86.8351 1327.54 506.537
253 0 52.0431 11.6634 607 85.9638 1328.05 505.272
254 0 53.0147 10.9592 581 85.568 1328.83 504.694
255 0 56.0744 11.8057 662 83.9381 1327.91 503.017
256 0 56.0328 11.9394 669 83.6861 1328.42 502.979
257 0 58.0614 12.1079 703 84.2091 1328.47 502.01
258 0 59.0458 12.177 719 84.822 1327.94 500.684
259 0 61.0637 12.2004 745 85.0591 1328.06 498.215
260 0 64.0766 11.7516 753 86.4236 1328.19 498.707
261 0 65.0662 12.6333 822 87.146 1327.86 497.423
262 0 66.0644 12.8965 852 88.1232 1327.14 496.052
263 0 68.0238 12.7161 865 91.1491 1327.51 495.45
264 0 70.0439 13.0632 915 92.6842 1327.23 493.83
265 0 72.1161 13.4228 968 92.9607 1327.01 493.235
266 0 72.1009 13.2453 955 95.2932 1327.99 491.723
267 0 77.0484 14.0042 1079 93.3383 1327.58 491.037
268 0 79.02 14.2243 1124 94.4413 1327.92 490.915
269 0 81.0501 13.4361 1089 97.3646 1327.66 490.729
270 0 84.0672 15.2497 1282 97.2527 1327.62 488.682
271 0 85.0698 14.0238 1193 105.293 1327.3 487.485
272 0 88.0598 14.4902 1276 104.371 1326.64 485.487
273 0 89.0743 14.37 1280 104.847 1327.1 484.738
274 0 90.0454 14.8925 1341 104.273 1327.37 484.192
275 0 92.1015 14.7555 1359 104.934 1327.29 483.628
276 0 95.0578 15.4222 1466 103.943 1327.49 482.439
277 0 96.0661 15.2499 1465 105.85 1327.66 481.548
278 0 101.066 14.822 1498 106.525 1327.38 479.198
279 0 101.052 14.8438 1500 108.659 1328.09 476.923
280 0 105.086 15.7776 1658 106.42 1327.52 476.845
281 0 108.072 14.7494 1594 109.485 1327.23 474.427
282 0 111.079 15.1064 1678 107.744 1326.93 474.055
283 0 115.144 15.5719 1793 106.974 1327.58 472.25
284 0 117.181 15.2328 1785 108.697 1326.48 466.95
285 0 120.188 15.7587 1894 108.237 1326.04 467.597
286 0 125.131 15.4238 1930 109.475 1326.38 464.341
287 0 128.046 14.7916 1894 111.588 1326.39 464.533
288 0 131.166 15.5986 2046 109.717 1326.82 463.261
289 0 133.088 15.5011 2063 110.616 1327.05 460.143
290 0 137.087 15.4793 2122 109.569 1327.49 458.485
291 0 140.071 15.0424 2107 112.426 1326.64 457.32
292 0 143.108 15.1215 2164 113.076 1327.34 455.497
293 0 147.14 15.8488 2332 111.451 1327.14 455.436
294 0 148.095 15.6521 2318 113.036 1326.59 451.937
295 0 153.16 15.9245 2439 112.572 1325.74 450.03
296 0 158.204 15.815 2502 111.97 1325.75 447.853
297 0 160.111 15.7079 2515 112.405 1326.97 446.35
298 0 165.218 16.1665 2671 109.941 1327.22 445.413
299 0 166.11 15.7667 2619 112.233 1326.89 444.488
300 0 172.122 15.8841 2734 111.457 1326.73 443.194
301 0 174.108 15.163 2640 114 1327.15 440.297
302 0 177.122 15.4018 2728 113.282 1326.85 437.988
303 0 180.132 15.8384 2853 112.459 1327.34 437.362
304 0 183.102 15.8272 2898 112.826 1326.04 435.577
305 0 189.193 15.9995 3027 112.305 1326.61 433.796
306 0 191.183 15.2995 2925 115.009 1326.9 431.163
307 0 195.117 16.0468 3131 113.099 1327.38 430.234
308 0 199.086 16.2794 3241 113.53 1327.6 428.348
309 0 203.153 16.4703 3346 112.382 1327.38 425.859
310 0 208.12 16.3848 3410 111.721 1327.38 424.442
311 0 210.109 16.3534 3436 113.31 1327.17 423.673
312 0 215.176 15.8661 3414 116.933 1326.66 420.57
313 0 219.123 16.1553 3540 116.215 1326.19 421.482
314 0 224.128 16.7315 3750 115.409 1326.15 416.837
315 0 227.144 17.0553 3874 114.678 1326.24 415.303
316 0 232.137 17.0374 3955 115.696 1326.96 413.015
317 0 235.094 17.376 4085 116.722 1326.95 410.515
318 0 237.194 17.0114 4035 119.729 1326.26 409.38
319 0 242.083 16.8041 4068 120.959 1326.89 407.78
320 0 246.147 16.5226 4067 123.091 1326.57 405.666
321 0 252.138 16.6179 4190 121.999 1326.28 402.835
322 0 257.107 17.2769 4442 120.368 1325.85 400.717
323 0 261.264 17.2775 4514 120.333 1324.75 399.744
324 0 264.207 17.6944 4675 120.125 1324.74 395.899
325 0 269.166 17.2162 4634 122.13 1325.66 395.787
326 0 275.184 17.4429 4800 120.509 1325.99 393.922
327 0 275.213 17.3538 4776 123.592 1325.41 390.178
328 0 280.11 17.5431 4914 123.309 1325.8 388.599
329 0 287.239 18.1521 5214 121.63 1325.59 386.654
330 0 290.134 18.2054 5282 123.59 1325.43 382.528
331 0 295.196 18.3098 5405 124.3 1324.91 381.739
332 0 295.19 17.4836 5161 129.55 1324.7 377.612
333 0 302.21 17.7824 5374 129.358 1324.52 377.563
334 0 309.147 18.1888 5623 129.663 1324.39 372.622
335 0 309.221 18.0647 5586 132.102 1324.88 371.898
336 0 314.12 18.1364 5697 133.181 1324.57 372.689
337 0 318.189 18.225 5799 132.661 1324.27 367.292
338 0 323.192 19.0259 6149 131.078 1324.86 364.228
339 0 329.229 18.8683 6212 133.738 1323.98 362.872
340 0 333.186 18.4281 6140 136.488 1324.07 358.593
341 0 339.158 18.8349 6388 136.334 1323.78 355.713
342 0 343.137 18.5115 6352 139.296 1323.22 355.87
343 0 349.191 18.3567 6410 140.269 1323.36 353.299
344 0 354.266 19.5277 6918 136.271 1323.47 350.923
345 0 357.247 18.1023 6467 144.769 1323.5 346.558
346 0 363.219 18.6279 6766 142.979 1323.15 346.171
347 0 368.204 18.6663 6873 143.879 1323.35 342.69
348 0 373.229 18.6481 6960 145.715 1322.29 344.652
349 0 378.199 19.5267 7385 143.441 1322.53 339.094
350 0 382.22 18.9184 7231 145.562 1322.35 337.343
351 0 387.223 18.6921 7238 147.14 1323.06 333.071
352 0 393.247 18.8863 7427 147.041 1323.31 330.348
353 0 399.296 18.9408 7563 146.837 1322.86 328.647
354 0 405.239 19.5736 7932 145.005 1323.69 326.802
355 0 410.289 18.3602 7533 150.209 1322.77 322.53
356 0 416.293 19.1596 7976 147.343 1323.11 319.829
357 0 419.294 19.2895 8088 147.322 1324.21 320.362
358 0 427.243 20.4427 8734 143.751 1323.47 315.438
359 0 409.32 18.2253 7460 155.221 1323.02 315.482
360 0 416.259 19.2068 7995 155.197 1322.98 313.792
