time division length width area intensity CMx CMy
0 0 71.0316 14.585 1036 83.5714 578.801 498.173
1 0 74.06 14.6368 1084 83.0046 579.588 495.928
2 0 74.055 14.9889 1110 83.1595 579.713 495.32
3 0 74.0992 14.9529 1108 84.213 579.261 494.705
4 0 77.021 13.9832 1077 84.8802 579.5 494.093
5 0 77.021 13.9702 1076 167.178 579.505 494.125
6 0 80.0567 14.6271 1171 83.5781 579.369 491.744
7 0 83.0576 14.7247 1223 83.9836 579.475 491.413
8 0 84.0521 15.1573 1274 83.2645 579.506 490.639
9 0 87.0264 14.9725 1303 83.5602 578.524 489.86
10 0 91.0387 15.2463 1388 81.6081 580.076 490.038
11 0 92.0212 15.1161 1391 82.6312 578.617 488.069
12 0 96.0397 15.4415 1483 80.797 579.228 488.217
13 0 98.0595 15.4396 1514 81.6156 579.142 485.464
14 0 101.068 15.7518 1592 81.0597 578.933 484.455
15 0 106.052 15.1907 1611 81.5369 579.063 482.652
16 0 107.059 14.7582 1580 83.257 578.782 481.918
17 0 109.068 14.2296 1552 84.5045 578.384 480.356
18 0 113.062 14.4434 1633 83.4207 578.457 478.506
19 0 116.059 14.777 1715 82.1539 577.57 477.714
20 0 120.096 14.6134 1755 83.3225 577.625 475.847
21 0 124.094 14.5051 1800 84.3417 577.841 474.777
22 0 128.094 14.7938 1895 83.439 578.329 472.897
23 0 132.077 14.6506 1935 83.8506 577.634 471.129
24 0 137.156 15.2308 2089 83.6415 578.409 467.825
25 0 141.132 15.0498 2124 83.8729 577.559 465.35
26 0 145.15 15.1016 2192 84.0068 577.837 464.761
27 0 148.131 14.2914 2117 86.8682 577.395 461.949
28 0 152.134 14.829 2256 85.3657 576.896 460.947
29 0 156.077 14.3711 2243 85.8025 577.45 457.405
30 0 160.162 14.2543 2283 85.9873 576.579 457.91
31 0 165.186 14.6684 2423 85.0487 576.751 455.734
32 0 173.13 14.7519 2554 84.3771 576.031 452.298
33 0 176.173 14.2474 2510 86.8514 577.111 449.972
34 0 181.11 13.7099 2483 88.1248 576.174 445.944
35 0 186.106 13.9276 2592 89.1385 576.814 443.08
36 0 192.087 13.3741 2569 89.687 576.285 441.589
37 0 201.21 14.1743 2852 87.501 576.402 435.817
38 0 207.136 13.7494 2848 88.4709 575.785 432.75
39 0 216.211 14.1482 3059 86.8441 576.47 430.99
40 0 221.132 13.4218 2968 89.0088 575.701 425.841
41 0 231.27 14.2517 3296 86.0407 576.025 423.85
42 0 231.27 14.269 3300 156.391 577.024 424.022
43 1 191.205 13.2266 2529 90.1526 576.081 439.692
44 0 198.13 13.9706 2768 88.8129 576.756 434.705
45 0 206.142 13.8933 2864 88.1658 576.738 430.809
46 0 211.16 13.549 2861 89.9147 577.212 425.01
47 0 219.118 13.6365 2988 89.6707 576.308 423.483
48 0 226.142 13.5976 3075 90.1041 576.679 419.636
49 0 234.147 13.2011 3091 91.5781 576.251 414.919
50 0 244.134 13.939 3403 90.7161 577.073 411.638
51 0 252.181 13.8194 3485 90.7954 576.231 405.015
52 0 261.201 13.8323 3613 90.2939 575.917 402.089
53 1 58.0126 10.5322 611 73.1342 576.543 502.795
54 0 59.0575 11.8867 702 76.0328 576.879 503.583
55 0 62.0186 12.5608 779 75.2003 577.453 502.135
56 0 63.0742 12.4774 787 76.0648 577.934 502.318
57 0 64.0582 11.7862 755 72.6146 577.711 502.928
58 0 67.0499 12.4832 837 76.644 577.325 502.489
59 0 67.0383 12.1722 816 71.2574 576.789 501.266
60 0 71.02 12.757 906 69.9128 577.881 498.967
61 0 73.0613 12.1952 891 71.367 578.102 498.059
62 0 76.0184 12.2733 933 71.3644 577.275 497.817
63 0 78.0296 11.9314 931 72.9431 576.534 496.714
64 0 80.0491 11.8302 947 72.9071 577.455 495.627
65 0 83.0802 11.7597 977 73.087 577.856 493.904
66 0 86.0383 11.6925 1006 71.508 577.706 494.372
67 0 91.0837 12.2744 1118 71.483 577.495 490.064
68 1 47.1503 10.8377 511 76.546 577.845 511.117
69 0 47.1456 10.8176 510 75.2 578.594 509.453
70 0 49.0689 11.1068 545 74.8477 578.75 510.734
71 0 52.0685 10.9471 570 77.2368 577.949 510.126
72 0 53.0423 11.3117 600 77.5967 577.333 507.822
73 0 53.0548 11.2148 595 78.2286 577.17 507.385
74 0 56.0788 12.1258 680 75.8221 578.028 506.332
75 0 58.0716 12.2091 709 75.6135 578.461 507.315
76 0 59.0406 12.4491 735 75.3197 577.742 505.283
77 0 61.0536 11.8748 725 78.429 578.228 504.549
78 0 61.0489 11.9412 729 79.7339 578.468 504.08
79 0 64.1214 12.4919 801 78.1323 578.969 503.659
80 0 66.1408 12.3676 818 77.846 578.793 503.251
81 0 66.0673 12.684 838 78.6062 579.28 503.604
82 0 67.0639 12.1973 818 80.165 578.326 501.881
83 0 70.1081 12.7089 891 79.3984 578.824 499.851
84 0 73.1019 12.5852 920 80.3152 578.483 498.916
85 0 76.1177 13.4397 1023 77.8485 578.232 498.214
86 0 76.0649 12.5551 955 80.9686 578.245 497.227
87 0 79.0501 13.1056 1036 80.5695 578.263 495.045
88 0 80.1291 13.0415 1045 81.356 578.757 494.198
89 0 84.078 12.5241 1053 82.4435 579.05 493.444
90 0 85.0542 12.3216 1048 78.8845 578.405 493.09
91 0 88.0652 11.9003 1048 80.4714 577.821 492.004
92 1 46.0461 11.445 527 80.0664 578.638 511.323
93 0 47.0648 10.7724 507 80.9034 578.392 511.878
94 0 48.0632 12.2963 591 76.6294 578.127 510.171
95 0 48.0485 12.2793 590 76.5932 577.308 509.142
96 0 50.0404 12.33 617 76.3566 576.921 509.353
97 0 50.0359 11.6716 584 78.3151 576.32 509.457
98 0 52.0367 12.9716 675 75.8193 577.037 508.243
99 0 54.0486 12.2667 663 77.0196 577.523 507.222
100 0 55.0681 12.8023 705 76.4582 576.525 506.569
101 0 58.0358 12.7508 740 77.0068 577.896 505.365
102 0 59.0242 12.3339 728 78.2775 577.055 504.641
103 0 60.0488 12.4898 750 79.1867 577.952 503.637
104 0 62.0579 12.4239 771 79.7523 577.595 502.773
105 0 64.0221 12.7768 818 79.5721 578.209 502.758
106 0 64.0221 12.7925 819 141.569 578.227 502.654
107 0 66.0409 13.1434 868 81.3214 577.143 501.122
108 0 70.0434 12.9777 909 80.6612 576.441 499.578
109 0 71.0985 12.5882 895 82.4782 577.181 497.51
110 0 72.0397 13.2288 953 82.3148 577.645 497.478
111 0 74.0691 13.5009 1000 81.181 577.605 494.919
112 0 79.0331 13.1844 1042 81.4156 577.635 493.925
113 0 81.0655 13.3719 1084 81.3921 578.078 491.885
114 0 84.0131 13.236 1112 81.3192 577.496 489.424
115 0 87.0681 13.9431 1214 79.6425 576.772 490.884
116 0 87.0381 13.4194 1168 81.6259 576.947 489.515
117 0 89.0715 13.5509 1207 82.3852 576.353 487.155
118 0 92.055 13.1986 1215 82.3004 577.036 485.83
119 0 95.0648 12.6125 1199 81.5663 576.466 485.038
120 0 98.0573 12.9822 1273 81.8437 577.372 481.435
121 0 100.086 12.3094 1232 81.3312 577.433 481.838
122 0 103.063 13.4772 1389 78.941 577.346 478.576
123 0 104.067 13.0205 1355 79.8583 577.528 475.616
124 0 108.092 13.4237 1451 78.3494 577.901 474.116
125 0 111.107 13.0594 1451 78.1475 577.454 473.092
126 0 111.061 12.4165 1379 79.2901 577.432 471.133
127 0 117.047 12.4309 1455 78.6158 577.619 468.797
128 0 123.086 12.9665 1596 76.5075 577.001 468.125
129 0 126.111 13.3851 1688 76.2838 577.001 466.288
130 0 129.128 12.5225 1617 77.551 577.54 464.134
131 0 133.268 12.8013 1706 77.2298 577.559 462.095
132 0 137.154 12.5698 1724 77.1816 577.796 459.172
133 0 142.106 12.927 1837 76.3827 577.231 458.25
134 0 147.197 12.3848 1823 77.4591 577.479 456.059
135 0 151.11 12.2361 1849 77.4997 577.297 450.364
136 0 160.15 12.7006 2034 75.6563 577.603 450.779
137 0 165.115 12.4519 2056 76.6055 577.167 450.34
138 0 171.265 13.3419 2285 75.8013 577.343 444.055
139 0 177.102 12.7271 2254 76.799 577.181 441.805
140 0 184.193 13.2361 2438 76.2305 577.239 440.425
141 0 192.151 13.1616 2529 76.4563 577.242 437.079
142 0 199.113 12.8018 2549 77.1538 577.815 432.328
143 1 145.173 12.1785 1768 78.6968 576.703 459.597
144 0 150.164 12.7128 1909 78.7025 576.404 456.88
145 0 156.23 12.9617 2025 77.9368 576.289 456.408
146 0 160.111 13.8529 2218 78.6492 577.033 456.986
147 0 166.224 13.1389 2184 79.353 576.812 451.757
148 0 172.124 13.4321 2312 78.6799 576.582 446.015
149 1 61.0631 10.6611 651 67.9508 577.797 503.115
150 0 63.0422 11.8492 747 73.3909 577.483 504.13
151 0 66.1002 12.7534 843 69.892 577.396 503.394
152 0 68.038 12.0815 822 68.4039 576.583 502.408
153 0 69.089 12.3174 851 68.3843 576.772 501.96
154 0 73.0552 12.2099 892 67.7926 576.383 500.261
155 0 75.0921 12.6245 948 67.5506 575.776 498.579
156 0 76.023 11.4702 872 69.9427 576.604 498.22
157 0 78.0719 11.6815 912 70.2928 576.141 496.285
158 0 82.0698 12.0263 987 70.5198 577.02 496.25
159 0 84.0724 12.1205 1019 71.6045 577.11 494.194
160 0 87.0943 12.0444 1049 71.5043 577.491 492.723
161 0 88.0973 11.2149 988 72.8927 576.61 490.417
162 0 91.1452 12.1893 1111 72.0207 576.132 491.063
163 0 95.0448 12.2469 1164 72.7466 576.426 489.713
164 0 97.1609 12.0933 1175 75.4834 576.524 487.16
165 0 101.163 12.2475 1239 75.2825 576.43 487.34
166 0 102.113 12.3393 1260 79.0968 576.613 483.739
167 0 107.167 11.9533 1281 80.484 576.697 482.693
168 1 53.1084 11.034 586 74.6007 577.578 506.391
169 0 53.147 10.4051 553 72.0705 577.425 503.749
170 0 56.13 11.2774 633 75.9463 577.872 504.585
171 0 56.0612 11.0415 619 71.5202 577.913 507.609
172 0 57.0635 10.5321 601 72.6522 577.012 506.383
173 0 61.0448 11.123 679 71.0869 576.56 504.8
174 0 62.0329 11.0748 687 71.8195 576.603 504.59
175 0 64.0351 11.1501 714 72.2115 576.831 502.817
176 0 66.0459 10.7501 710 73.2479 577.568 503.9
177 0 69.0758 11.0893 766 72.8721 577.495 502.882
178 0 71.0565 11.1601 793 73.5107 577.544 501.686
179 0 74.0418 11.6826 865 73.6659 577.371 499.131
180 0 76.1042 11.7076 891 70.9259 575.724 498.221
181 0 79.0967 11.8463 937 69.8623 575.762 496.799
182 0 83.1026 11.179 929 70.183 575.164 495.103
183 0 85.1027 11.633 990 69.4525 576.23 494.706
184 1 44.0327 10.9237 481 70.0083 576.694 514.212
185 0 47.0525 10.4352 491 69.165 576.619 513.448
186 0 47.0191 10.8679 511 69.6849 577.489 511.851
187 0 48.0756 11.2739 542 68.2491 577.511 511.506
188 0 49.0403 11.1541 547 68.9122 577.258 511.205
189 0 47.0664 10.4321 491 72.277 576.519 511.177
190 0 48.0466 10.136 487 72.3409 575.893 511.125
191 0 52.0479 10.1253 527 71.0512 575.909 510.283
192 0 54.0269 10.6243 574 69.4059 575.401 510.538
193 0 53.0428 10.1993 541 71.342 576.355 508.494
194 0 54.1399 10.1035 547 71.7166 576.126 509.777
195 0 57.0609 10.6378 607 71.4992 576.555 507.675
196 0 59.037 11.1286 657 69.4034 576.272 507.149
197 0 60.0366 10.6768 641 69.5601 576.445 506.228
198 0 61.066 10.7916 659 69.5584 576.473 504.375
199 0 63.0842 10.0818 636 69.467 575.7 505.55
200 0 65.0684 11.0806 721 69.3259 575.351 502.563
201 0 68.1543 10.9898 749 68.6943 575.595 502.207
202 0 68.1543 10.9457 746 135.105 575.586 502.273
203 0 74.0191 12.5238 927 83.8177 576.272 499.875
204 0 74.0317 11.6707 864 86.6227 576.043 497.389
205 0 76.0549 11.781 896 86.0346 575.498 498.27
206 0 80.0366 11.4198 914 86.4431 576.136 496.701
207 0 82.0179 11.595 951 86.164 574.87 494.965
208 0 86.0724 11.8505 1020 85.7226 574.841 493.56
209 0 88.0699 11.7634 1036 86.7027 574.542 493.53
210 0 91.06 11.8164 1076 91.7491 575.014 490.157
211 0 93.0697 12.2489 1140 91.0561 575.03 489.784
212 0 94.0963 11.6689 1098 93.6157 575.119 488.472
213 0 96.0556 10.6709 1025 94.1561 575.756 487.984
214 0 99.0768 9.95187 986 93.6836 575.594 486.409
215 0 102.06 10.7975 1102 93.1189 575.604 483.055
216 1 50.0835 10.0033 501 86.7984 575.733 510.188
217 0 52.0262 10.437 543 85.1087 575.074 509.479
218 0 56.0686 10.0769 565 83.9168 575.069 507.147
219 0 56.0347 10.3864 582 86.8608 574.809 505.629
220 0 59.034 11.8914 702 87.0812 575.43 505.437
221 0 62.0453 10.863 674 89.3294 575.513 502.831
222 0 64.0298 11.1354 713 88.986 575.464 503.215
223 0 64.046 11.3981 730 90.789 575.942 501.122
224 0 69.0381 12.3845 855 88.8094 575.384 500.685
225 0 72.0595 12.3925 893 90.7682 575.339 498.937
226 0 72.0952 12.747 919 93.7889 574.394 497.047
227 0 74.0882 12.6876 940 97.1479 575.231 496.17
228 0 77.0702 12.7546 983 97.292 574.778 495.279
229 0 79.0713 12.6721 1002 98.505 575.437 493.447
230 0 83.0442 13.3182 1106 95.5208 575.254 493.01
231 0 84.0639 12.7641 1073 98.0214 575.256 493.71
232 0 87.0982 12.8935 1123 98.4586 576.102 491.606
233 0 90.2536 13.2405 1195 96.8034 575.566 491.675
234 0 92.1564 12.9779 1196 98.5276 575.474 488.451
235 0 95.126 13.4769 1282 98.1583 575.509 487.607
236 0 97.1764 12.8529 1249 100.528 574.918 485.598
237 0 100.081 13.2193 1323 100.37 575.267 484.663
238 0 105.207 13.117 1380 99.4949 574.352 483.221
239 0 109.23 12.8078 1399 100.475 575.027 479.46
240 1 58.1151 11.546 671 99.6498 575.262 504.581
241 0 60.0478 11.6407 699 102.928 576.149 504.499
242 0 64.0577 12.4731 799 100.885 575.533 503.905
243 0 65.0251 12.3337 802 101.423 574.893 502.419
244 0 69.0156 12.5769 868 100.051 575.058 501.448
245 0 69.0232 12.5175 864 101.907 575.378 500.278
246 0 73.0347 12.6515 924 100.368 575.525 498.937
247 0 74.034 12.0755 894 100.992 575.11 498.643
248 0 77.0621 12.4315 958 100.879 575.488 494.83
249 0 78.064 11.8492 925 101.882 575.436 494.686
250 0 83.0765 12.663 1052 95.5913 575.344 494.35
251 0 86.0429 12.0754 1039 99.1829 574.822 492.478
252 0 88.0296 12.0982 1065 99.139 575.575 491.841
253 0 91.023 11.8981 1083 99.2512 575.957 488.208
254 0 95.0656 12.5808 1196 95.2258 576.549 486.616
255 1 45.0095 10.3756 467 91.4882 575.538 511.636
256 0 49.0457 11.948 586 89.2099 576.189 510.251
257 0 50.0484 11.5488 578 91.9273 575.886 509.365
258 0 49.0599 10.4362 512 89.0723 575.553 510.107
259 0 51.0206 11.7404 599 87.7212 575.79 506.686
260 0 53.0899 11.0379 586 89.4812 575.787 506.345
261 0 56.0252 10.9415 613 90.9135 575.336 505.806
262 0 57.0468 12.2531 699 89.1388 574.742 503.894
263 0 57.0107 11.2084 639 92.6166 575.279 504.105
264 0 60.0276 11.7113 703 93.4196 574.915 503.165
265 0 63.0738 12.1128 764 93.1361 574.742 501.241
266 0 64.0809 12.0629 773 95.6481 575.765 500.736
267 0 67.0629 12.7343 854 95.6862 575.241 499.041
268 0 69.0448 12.3543 853 97.8242 575.676 497.909
269 0 70.074 12.5011 876 98.492 575.417 498.412
270 0 74.0443 13.0192 964 96.2853 575.337 497.192
271 0 76.0317 12.3764 941 99.7343 575.032 495.969
272 0 78.0318 12.3924 967 101.07 574.539 494.693
273 0 79.0521 12.5993 996 100.971 574.805 493.632
274 0 83.041 13.1742 1094 100.007 575.189 491.825
275 0 86.0529 13.3058 1145 100.139 575.097 490.464
276 0 89.1002 12.9517 1154 102.183 575.277 488.687
277 0 91.0425 13.1807 1200 101.282 575.372 488.459
278 1 48.0817 10.2742 494 100.032 575.273 510.682
279 0 50.042 10.651 533 99.561 575.799 508.707
280 0 51.0253 10.9357 558 98.1487 575.163 509.573
281 0 54.0418 12.0277 650 98.8415 575.097 506.986
282 0 55.019 11.5415 635 103.455 574.876 506.767
283 0 54.0208 11.0883 599 95.0367 575.629 508.078
284 0 58.0183 11.7204 680 93.475 574.89 507.087
285 0 60.0244 12.345 741 92.7679 574.561 504.804
286 0 61.0186 11.603 708 94.5918 574.894 503.826
287 0 65.0159 12.2124 794 94.8035 574.712 501.649
288 0 68.0713 12.2812 836 95.9785 575.285 500.577
289 0 69.0364 13.1814 910 97.8231 575.397 497.675
290 0 70.0337 12.494 875 101.494 575.753 497.696
291 0 73.0853 13.0669 955 99.111 575.141 496.708
292 0 77.0342 13.3707 1030 97.5282 575.786 495.744
293 0 80.0616 13.0899 1048 97.7013 575.437 494.774
294 0 81.0323 12.9578 1050 97.6829 574.931 493.723
295 0 83.0415 13.4993 1121 97.504 574.046 490.949
296 0 86.105 12.8216 1104 97.8134 574.004 490.022
297 0 90.1198 13.4377 1211 95.0768 575.107 488.369
298 0 91.0641 13.0018 1184 96.0862 575.339 485.696
299 0 94.0713 12.852 1209 95.8892 574.963 486.313
300 0 97.0682 13.2072 1282 95.1022 574.867 484.503
301 0 100.047 13.0638 1307 95.1262 575.236 482.919
302 0 104.053 12.6282 1314 95.1887 574.766 480.963
303 0 105.105 13.377 1406 93.1842 575.342 480.539
304 0 110.117 12.9862 1430 92.8518 573.888 478.485
305 0 113.106 13.147 1487 91.9966 574.517 475.146
306 1 63.0867 10.9373 690 87.2014 575.461 504.257
307 0 67.1044 11.728 787 87.2821 575.997 503.51
308 0 68.0594 11.2402 765 86.6 576.376 501.912
309 0 70.0583 11.1907 784 85.3878 575.94 500.926
310 0 72.0356 11.6193 837 83.4767 575.967 501.139
311 0 75.0684 11.9891 900 83.0978 575.684 499.269
312 0 77.0781 11.7673 907 85.1952 575.203 497.858
313 0 79.0766 11.3814 900 85.9544 574.637 496.208
314 0 83.049 11.6919 971 85.7436 574.685 495.843
315 0 85.0419 11.0534 940 85.8223 574.961 492.929
316 0 88.0679 11.4003 1004 85.1235 575.572 491.317
317 0 91.0348 11.6988 1065 83.5869 575.479 490.078
318 0 94.0729 12.0439 1133 82.8914 574.897 489.03
319 0 97.0614 11.4361 1110 84.0721 575.464 486.711
320 0 101.097 11.9292 1206 83.67 575.089 485.572
321 0 104.055 11.6766 1215 84.0642 574.795 484.673
322 1 53.0495 10.8012 573 83.2304 574.778 510.679
323 0 54.0253 10.4396 564 82.8174 573.745 509.186
324 0 57.0654 10.9173 623 79.488 573.18 508.66
325 0 59.0867 10.4931 620 78.3645 573.564 507.539
326 0 60.0684 10.9042 655 75.3221 573.838 506.397
327 0 62.0759 10.9704 681 75.0587 573.288 505.747
328 0 63.0465 10.7222 676 74.787 573.704 506.118
329 0 67.1166 11.8749 797 73.6474 574.225 504.132
330 0 68.0832 10.9572 746 76.8311 574.157 502.631
331 0 71.195 11.8969 847 74.8111 573.44 500.948
332 0 71.0591 12.1448 863 75.5203 573.194 498.632
333 0 74.0959 11.5931 859 80.9453 573.01 496.024
334 0 77.1476 11.3808 878 81.5626 572.871 494.584
335 0 79.1165 11.4262 904 81.1493 573.501 493.737
336 0 82.1436 12.2834 1009 79.0545 573.153 491.806
337 0 86.2266 12.3048 1061 75.4807 572.375 490.747
338 0 87.1967 12.3399 1076 75.3244 573.112 488.441
339 0 88.2553 11.3874 1005 76.7483 572.214 488.11
340 0 92.1297 11.9722 1103 75.0725 572.367 488.021
341 0 94.3908 11.3147 1068 76.0225 572.148 486.444
342 0 96.1702 11.8228 1137 75.5902 571.572 484.226
343 0 101.335 12.2564 1242 74.0193 571.729 482.546
344 0 101.443 11.1392 1130 75.4035 571.769 479.739
345 0 104.277 10.8845 1135 75.9207 572.006 481.119
346 0 107.314 11.1449 1196 75.561 571.602 477.466
347 0 109.284 11.2917 1234 75.3136 571.787 476.318
348 0 114.233 10.6974 1222 75.9067 570.815 477.11
349 0 117.213 11.7223 1374 74.5422 570.982 473.704
350 0 119.343 10.4488 1247 75.5822 570.936 473.8
351 0 122.26 10.1178 1237 76.2239 571.574 469.369
352 0 128.476 10.8736 1397 74.3958 571.957 469.391
353 0 131.229 9.6701 1269 76.7746 571.411 465.647
354 0 136.122 9.86614 1343 77.519 572.135 464.132
355 0 140.183 10.7931 1513 77.3622 571.326 464.306
356 1 71.1482 10.0494 715 72.5608 571.81 501.091
357 0 74.1284 10.4413 774 71.9754 572.915 500.819
358 0 74.0426 9.60259 711 75.2152 572.205 500.391
359 0 75.0697 10.2571 770 75.3195 571.869 497.883
360 0 77.0596 10.2258 788 75.1421 571.815 497.371
361 0 79.0616 9.39774 743 72.6878 572.533 496.75
362 0 82.0613 10.7481 882 69.9898 572.512 496.257
363 0 83.0578 9.60777 798 71.8083 572.822 495.262
364 0 87.0803 10.1975 888 71.393 572.244 493.528
365 0 88.1287 9.55421 842 72.2494 573.176 492.229
366 0 93.173 10.8615 1012 71.3389 573.428 490.813
367 0 96.0515 11.3377 1089 70.8338 573.517 489.647
368 0 98.0899 10.8472 1064 72.4727 572.966 488.699
369 0 101.097 11.9588 1209 71.3366 573.276 486.556
370 0 104.116 11.516 1199 75.7573 572.387 484.454
371 0 107.234 11.5168 1235 75.5773 571.69 482.703
372 0 110.152 11.8019 1300 75.5108 572.905 481.543
373 0 112.146 11.3959 1278 77.5563 573.066 478.752
374 0 115.124 10.9099 1256 79.0438 572.799 476.182
375 0 120.234 11.4859 1381 78.6503 573.403 473.02
376 0 124.365 11.1527 1387 80.3187 573.139 472.911
377 0 128.249 11.0332 1415 80.6163 573.51 474.42
378 0 128.241 11.0573 1418 123.699 574.525 474.553
379 0 135.365 10.8595 1470 82.2932 572.642 467.758
380 0 139.467 11.8666 1655 82.1378 572.294 466.986
381 0 142.274 10.7469 1529 85.7031 572.789 463.464
382 0 146.321 11.509 1684 84.5362 572.521 461.893
383 0 149.314 11.6868 1745 85.863 573.158 460.396
384 0 152.303 11.7989 1797 86.005 573.457 456.874
385 0 158.33 12.0886 1914 84.0172 573.135 455.019
386 0 163.314 12.4362 2031 84.5958 573.383 451.967
387 0 166.227 12.4709 2073 84.7931 573.209 449.343
388 0 169.306 11.9015 2015 86.807 573.494 448.611
389 0 174.323 12.0236 2096 86.4122 573.011 446.575
390 0 179.277 12.3942 2222 87.0464 573.334 442.905
391 0 182.333 11.6819 2130 88.8873 573.756 436.442
392 0 188.357 12.0409 2268 88.1958 573.975 435.749
393 0 193.416 11.1418 2155 89.9378 574.048 431.337
394 0 199.342 11.7236 2337 88.9042 573.575 426.572
395 0 207.371 11.9351 2475 88.1548 573.772 424.997
396 0 213.478 11.8138 2522 88.2375 573.77 423.83
397 0 222.298 12.3033 2735 87.6176 573.744 423.313
398 1 157.3 11.3668 1788 89.9832 573.725 451.581
399 0 164.245 12.1221 1991 90.7112 572.903 448.974
400 0 165.248 12.3753 2045 92.4235 573.368 444.086
401 0 171.232 12.2407 2096 93.7734 572.103 441.994
402 0 177.265 12.281 2177 94.6964 573.002 439.779
403 0 181.266 11.9548 2167 96.7822 573.825 435.512
404 0 187.27 11.8012 2210 97.6919 573.876 433.388
405 0 194.204 12.3787 2404 97.9563 573.095 431.826
406 0 199.256 11.4977 2291 100.364 573.752 426.395
407 0 210.235 13.7703 2895 93.8556 573.801 432.083
408 0 214.347 13.842 2967 95.3374 573.197 428.018
409 0 221.512 13.5929 3011 95.736 573.568 424.975
410 0 228.411 13.7165 3133 97.0916 572.862 420.421
411 0 235.381 14.2153 3346 96.2845 573.638 418.217
412 0 242.294 14.0532 3405 98.1606 573.66 411.571
413 0 249.305 13.9307 3473 99.2275 573.329 406.179
414 0 257.386 13.8508 3565 100.024 573.424 406.274
415 0 264.29 13.4587 3557 102.246 573.526 402.314
416 1 73.1046 10.8475 793 86.0858 572.976 497.526
417 0 77.1474 11.6789 901 85.0122 572.865 495.741
418 0 77.1412 10.8762 839 88.5769 572.541 494.815
419 0 79.1543 11.8124 935 88.9872 573.662 493.059
420 0 82.1473 11.6376 956 90.7019 573.775 490.796
421 0 84.2224 11.5765 975 92.3333 573.665 490.56
422 0 88.1607 12.273 1082 90.5841 572.873 488.006
423 0 91.1865 12.1509 1108 91.0199 573.092 488.001
424 0 93.1402 11.7457 1094 93.4497 573.19 487.783
425 0 97.117 12.6754 1231 91.4898 573.27 486.944
426 0 100.191 12.7556 1278 91.9742 572.339 484.009
427 0 103.09 12.2029 1258 93.2647 572.563 481.798
428 0 105.18 12.9398 1361 92.7744 572.201 480.859
429 0 109.194 12.6655 1383 92.585 571.334 479.432
430 0 114.18 13.5838 1551 90.4797 573.075 474.658
431 0 119.094 15.0386 1791 86.5489 572.965 470.924
432 0 121.133 13.0601 1582 93.177 572.694 471.885
433 0 126.146 12.8661 1623 94.5169 573.228 471.392
434 1 72.12 10.843 782 94.6534 573.034 497.334
435 0 73.1022 11.3676 831 95.2467 572.721 495.467
436 0 76.1376 11.755 895 94.4961 571.981 493.914
437 0 76.054 11.7548 894 95.6253 572.271 491.885
438 0 78.1473 11.7471 918 97.9608 571.548 490.019
439 0 81.1269 11.71 950 97.1105 571.956 489.319
440 0 84.2117 11.673 983 99.0977 571.834 486.989
441 0 87.1088 12.3638 1077 97.2423 572.675 485.943
442 0 89.111 12.3666 1102 97.9074 572.822 485.762
443 0 93.0908 12.6328 1176 95.7032 572.438 485.36
444 0 95.1507 12.0335 1145 97.0166 572.793 484.824
445 0 96.1054 12.3718 1189 96.471 572.03 483.563
446 0 101.156 12.1199 1226 95.9657 572.497 481.378
447 0 101.156 12.1101 1225 144.94 573.511 481.389
448 0 105.147 12.5349 1318 96.6047 572.98 477.617
449 0 110.284 12.4587 1374 96.1936 572.68 477.659
450 0 113.18 12.4669 1411 96.9079 573.443 476.052
451 0 117.098 13.6296 1596 92.8571 572.927 475.545
452 0 119.15 13.3361 1589 94.2788 572.837 473.872
453 0 123.193 13.2313 1630 94.016 573.285 472.396
454 0 124.122 12.6569 1571 98.0458 572.717 469.567
455 0 128.129 12.9947 1665 96.6138 572.542 467.885
456 0 133.186 13.8078 1839 94.366 573.194 467.593
457 0 136.075 13.1766 1793 97.0379 573.382 464.876
458 0 138.105 13.0118 1797 98.3617 573.306 461.989
459 0 143.241 12.9502 1855 99.4199 573.515 460.665
460 0 147.234 13.1831 1941 100.111 573.234 456.578
461 0 151.199 13.2607 2005 100.893 573.877 453.267
462 0 156.117 13.2209 2064 102.282 573.299 450.907
463 0 164.198 13.5263 2221 101.224 573.536 448.524
464 0 167.201 13.3193 2227 102.589 572.92 445.029
465 0 172.147 12.9715 2233 105.133 573.117 442.99
466 0 176.242 12.8233 2260 107.019 573.517 438.329
467 0 183.244 13.8231 2533 105.733 573.125 435.263
468 0 186.165 13.0529 2430 111.1 574.115 432.19
469 0 193.274 13.1886 2549 110.413 574.113 430.217
470 0 199.216 13.769 2743 108.199 573.696 424.862
471 0 206.21 13.5687 2798 108.612 573.302 422.375
472 0 210.253 13.2222 2780 108.703 572.931 418.792
473 0 219.24 15.0566 3301 103.31 573.008 412.669
474 0 224.255 13.3999 3005 108.027 573.482 411.29
475 0 232.18 13.1278 3048 109.059 573.077 407.958
476 1 261.27 19.3286 5050 86.0016 572.921 388.909
477 0 260.2 19.3812 5043 87.9149 573.212 383.103
478 0 267.225 19.7362 5274 88.1122 573.062 377.97
479 0 269.207 17.663 4755 94.9199 573.243 376.19
480 0 276.176 16.6706 4604 97.9774 572.777 374.635
481 0 279.258 13.6218 3804 110.742 573.168 377.521
482 1 60.0789 9.78714 588 90.381 571.774 502.913
483 0 63.0637 10.6559 672 88.8482 571.443 501.509
484 0 65.0607 10.1597 661 90.4266 572.029 501.632
485 0 67.0883 10.6427 714 90.2871 572.099 499.42
486 0 68.1784 9.78316 667 93.0435 572.372 497.189
487 0 70.165 10.0905 708 92.024 572.877 497.983
488 0 72.1947 9.54363 689 93.9013 572.589 497.441
489 0 74.1785 10.3264 766 92.9569 572.501 495.227
490 0 77.1298 9.60718 741 95.1538 572.753 494.363
491 0 81.1831 10.1253 822 92.7494 573.471 493.252
492 0 83.267 10.5564 879 91.0774 572.757 491.338
493 0 86.2348 9.88 852 91.8568 572.754 490.008
494 0 88.3861 9.83186 869 91.0944 572.183 488.67
495 1 45.054 9.07799 409 72.4108 573.061 513.117
496 0 45.0936 8.38257 378 74.5926 573.132 511.238
497 0 47.0944 8.09014 381 74.3675 573.593 509.803
498 0 53.0385 11.3691 603 65.6434 572.708 512.828
499 0 56.0528 12.0065 673 65.3432 573.409 511.351
500 0 56.093 11.9444 670 66.7134 572.81 511.07
501 0 56.0735 11.7168 657 69.2207 573.641 509.339
502 0 58.0481 11.3699 660 71.7106 572.765 509.208
503 0 59.066 11.5633 683 71.9824 572.78 509.852
504 0 63.0702 11.6061 732 70.6503 572.522 508.568
505 0 63.0472 11.1345 702 72.9231 572.755 508.197
506 0 64.1044 11.4189 732 71.7787 573.036 506.536
507 0 66.116 12.1907 806 72.2146 573.323 503.939
508 0 69.168 12.2456 847 71.4168 573.28 503.034
509 0 72.0715 12.2933 886 71.7257 573.162 502.01
510 0 71.1004 11.9409 849 74.0448 572.269 502.107
511 0 73.0356 12.1448 887 74.1206 572.631 501.141
512 0 75.0563 12.0176 902 75.2018 572.328 500.459
513 0 76.101 12.3389 939 75.5282 572.174 499.166
514 0 81.0962 12.9353 1049 73.4566 572.237 499.078
515 0 82.0185 12.6191 1035 74.6937 572.149 498.488
516 0 85.0494 12.4398 1058 75.5435 572.494 496.452
517 0 86.0321 12.1583 1046 77.5201 572.252 496.424
518 0 88.0394 12.1082 1066 78.3696 572.196 494.229
519 0 90.0578 11.4038 1027 80.5501 572.288 493.32
520 0 94.0439 12.1645 1144 79.2448 572.502 492.677
521 1 50.0217 10.2755 514 82.1187 571.924 514.438
522 0 52.0493 10.5285 548 79.1478 571.905 513.786
523 0 55.1079 11.8858 655 76.5985 571.139 513.02
524 0 55.0302 11.6663 642 81.2695 571.182 510.715
525 0 56.0251 11.5484 647 79.6615 572.008 511.889
526 0 57.0441 12.3939 707 79.0382 571.487 510.246
527 0 56.0309 11.226 629 84.5723 572.48 511.65
528 0 57.0212 11.1187 634 85.4196 571.342 511.629
529 0 61.076 11.7395 717 82.6471 571.107 510.803
530 0 64.0414 11.5082 737 82.4912 570.75 509.882
531 0 65.0624 11.927 776 82.1443 570.977 509.103
532 0 65.0299 11.7331 763 83.945 571.231 507.018
533 0 68.0606 11.7248 798 83.3534 571.307 508.064
534 0 69.0302 12.6756 875 81.6114 571.51 506.619
535 0 74.0431 12.4387 921 80.6374 571.966 505.097
536 0 74.046 12.2762 909 87.7602 572.933 504.702
537 0 78.0469 11.8775 927 89.658 572.408 503.329
538 0 79.0695 12.3056 973 80.4378 572.738 502.789
539 0 82.0514 11.9316 979 80.4331 571.421 501.623
540 0 83.0396 12.2231 1015 82.13 571.564 499.736
541 0 88.0673 11.6388 1025 79.719 571.54 499.424
542 0 90.0714 12.0682 1087 79.4029 571.892 496.963
543 1 50.032 11.4327 572 80.7552 572.29 517.687
544 0 48.0187 11.433 549 81.2878 571.271 516.82
545 0 49.0375 12.1336 595 80.7815 572.259 515.822
546 0 51.029 11.8952 607 79.9901 572.147 515.446
547 0 52.0398 11.3183 589 80.1375 572.219 514.37
548 0 55.0171 11.7236 645 77.8543 572.308 512.874
549 0 55.0556 12.0424 663 77.0634 572.282 512.226
550 0 56.0375 11.6172 651 78.2089 572.094 512.37
551 0 59.0464 12.4478 735 76.1891 571.849 510.863
552 0 61.0938 12.8982 788 75.4898 570.787 509.76
553 0 62.0459 12.4263 771 76.0078 571.563 508.84
554 0 64.0401 12.8669 824 74.8568 571.801 509.687
555 0 65.0898 11.7376 764 78.8992 572.294 508.226
556 0 68.0579 11.9898 816 78.2096 572.037 507.648
557 0 68.0676 11.6796 795 82.1447 572.17 508.626
558 0 70.0557 12.2046 855 81.5134 571.916 506.015
559 0 72.0959 12.0395 868 83.1694 571.985 506.144
560 0 75.0403 12.34 926 83.2289 571.735 505.415
561 0 78.0625 12.6053 984 83.8598 571.528 503.425
562 0 82.0805 12.9263 1061 84.2168 571.785 501.957
563 0 81.034 12.8588 1042 87.1555 570.827 501.268
564 0 85.056 13.1913 1122 87.0864 571.919 499.718
565 0 88.1222 13.2657 1169 88.1694 571.438 499.385
566 0 90.0761 13.3998 1207 88.1284 572.287 497.014
567 0 93.0732 13.2261 1231 89.0106 571.602 496.917
568 0 96.0911 13.1334 1262 90.3344 571.754 493.327
569 0 98.0898 13.0391 1279 90.2666 570.929 494.183
570 0 102.037 12.9169 1318 90.1988 571.01 492.156
571 0 105.087 12.8655 1352 91.1146 570.585 490.212
572 0 108.097 13.0993 1416 91.1179 570.778 487.91
573 0 110.131 13.1207 1445 92.1066 571.519 487.256
574 0 115.086 13.4769 1551 91.8672 570.893 486.008
575 0 119.096 13.485 1606 92.0243 571.922 483.565
576 0 120.052 12.7445 1530 93.4614 571.424 481.533
577 0 126.066 13.5564 1709 93.6676 571.108 479.762
578 0 130.052 13.51 1757 95.2601 570.579 477.355
579 0 135.095 13.6127 1839 94.9973 570.638 475.315
580 0 139.155 13.9844 1946 95.3176 570.381 471.972
581 0 145.055 13.2847 1927 94.8204 570.617 470.675
582 0 150.128 13.4419 2018 94.3206 571.145 469.145
583 0 155.114 13.7705 2136 93.5122 571.481 464.26
584 0 155.11 13.7386 2131 165.528 573.477 464.187
585 0 166.104 13.1605 2186 96.5531 571.124 458.635
586 0 172.125 13.4147 2309 96.285 570.559 456.728
587 0 178.12 13.5695 2417 95.5118 570.192 453.385
588 0 183.189 13.5325 2479 98.0069 570.248 448.638
589 0 189.256 13.3047 2518 98.3884 570.573 445.295
590 0 194.182 14.198 2757 95.8535 570.326 445.096
591 0 202.259 13.4531 2721 99.2429 570.781 441.578
592 0 209.218 13.1968 2761 100.535 571.239 439.148
593 0 216.197 13.9456 3015 99.0056 571.427 436.473
594 0 221.172 13.0758 2892 102.811 571.25 430.982
595 0 229.16 13.2004 3025 103.025 571.201 427.78
596 0 238.167 14.1371 3367 101.358 570.969 424.475
597 0 245.251 13.8919 3407 102.231 570.598 419.63
598 0 251.259 14.1527 3556 103.002 569.361 416.209
599 0 261.254 13.8754 3625 104.092 570.287 412.494
600 0 268.418 14.116 3789 102.356 570.593 405.458
601 0 278.298 13.7263 3820 103.949 570.1 403.17
602 0 286.296 14.2196 4071 102.685 570.48 399.205
603 0 295.297 13.8979 4104 102.105 570.151 391.768
604 0 304.315 13.7325 4179 103.235 569.703 386.679
605 0 376.277 20.0411 7541 75.1796 568.89 346.111
606 1 313.279 11.3924 3569 105.066 569.985 395.081
607 0 311.35 9.65152 3005 107.938 569.4 392.954
608 0 312.313 9.14467 2856 109.687 569.627 398.54
609 1 67.0555 9.7382 653 83.7933 569.133 508.724
610 0 70.0736 10.3891 728 82.7157 570.435 506.256
611 0 73.0403 10.2957 752 83.0266 570.463 506.451
612 0 75.0345 11.0749 831 82.6185 570.842 504.407
613 0 77.0413 10.9552 844 83.949 570.963 503.703
614 0 78.0981 10.4484 816 86.9375 569.524 503.464
615 0 78.0476 9.77609 763 88.4771 570.254 503.598
616 1 95.1783 13.2593 1262 71.1371 570.116 490.877
617 0 95.103 12.6494 1203 73.931 570.71 490.332
618 0 93.1042 12.2766 1143 77.5713 570.141 491.675
619 0 95.1986 10.9771 1045 92.866 569.949 492.242
620 0 98.2197 10.8329 1064 93.906 571.065 491.392
621 1 52.0284 11.2823 587 84.1772 572.133 515.61
622 0 54.0941 11.9791 648 82.5787 571.27 513.025
623 0 58.1245 12.1807 708 76.7811 570.828 512.298
624 0 59.0321 11.9596 706 82.6997 570.237 511.826
625 0 60.0267 12.1779 731 82.7155 571.034 511.981
626 0 62.0428 12.5397 778 82.3933 571.19 510.734
627 0 62.0533 12.2798 762 84.6758 571.492 509.361
628 0 65.0603 13.1724 857 82 571.254 509.532
629 0 66.0693 12.1539 803 84.1656 572.065 508.238
630 0 67.0359 12.7693 856 82.8248 572.022 508.081
631 0 70.0506 12.9192 905 83.3182 571.268 506.717
632 0 71.0145 12.941 919 84.7236 571.293 505.774
633 0 71.0662 13.5226 961 82.3319 571.516 506.139
634 0 70.0359 12.4079 869 82.2336 571.293 504.487
635 0 70.061 12.3892 868 83.5369 571.364 505.402
636 0 74.0532 12.2209 905 82.9768 571.435 505.366
637 0 74.0266 12.6846 939 83.7604 571.625 504.592
638 0 78.0492 12.7099 992 82.8034 571.715 502.706
639 0 81.031 13.1184 1063 82.2944 571.735 501.715
640 0 79.0261 12.4136 981 85.0387 571.687 501.316
641 0 83.0846 12.6859 1054 84.8558 571.525 499.201
642 0 85.0546 12.1099 1030 86.2718 572.85 499.526
643 0 88.0708 12.7057 1119 85.6059 571.082 496.315
644 0 90.0608 11.9253 1074 88.933 571.533 493.921
645 0 92.0411 11.9512 1100 89.1255 572.174 493.488
646 0 96.0391 12.0472 1157 89.172 572.215 492.82
647 0 100.092 12.2487 1226 89.7145 571.987 489.772
648 1 56.0475 11.0977 622 89.9084 572.568 511.162
649 0 57.0365 12.2027 696 88.2644 573.095 510.473
650 0 59.0393 11.8396 699 80.3634 572.618 510.624
651 0 58.0293 12.3214 715 80.4895 572.778 508.869
652 0 61.0267 11.7489 717 83.1088 572.025 507.598
653 0 61.0613 11.8897 726 83.051 572.376 508.191
654 0 64.0801 12.1254 777 82.5251 571.856 508.202
655 0 64.0343 11.3533 727 85.1403 571.997 507.054
656 0 67.1016 11.2963 758 84.5871 571.644 507.05
657 0 69.0507 12.2229 844 82.8495 572.133 504.577
658 0 71.0856 12.3654 879 83.0535 571.985 503.297
659 0 71.0627 11.708 832 86.3017 571.849 502.657
660 0 75.0415 11.9001 893 86.4692 572.458 501.709
661 0 77.0602 11.3288 873 86.9233 573.078 500.08
662 0 81.0467 11.9067 965 86.3596 572.903 496.536
663 0 82.1136 11.4476 940 86.7245 572.04 495.204
664 0 84.0763 11.549 971 85.8723 572.73 492.582
665 0 87.0894 11.6547 1015 85.7143 571.69 490.854
666 0 91.0984 11.7565 1071 84.5369 572.129 488.111
667 1 44.08 9.57351 422 85.2204 571.393 509.488
668 0 45.0983 10.2443 462 82.8788 571.703 505.714
669 0 46.0346 10.1663 468 81.6688 570.987 505.246
670 0 45.0252 10.2609 462 83.2381 571.846 504.154
671 0 51.0278 10.4061 531 80.484 571.923 504.269
672 0 53.0641 10.2517 544 80.5257 571.857 505.279
673 0 53.0227 10.5427 559 80.5939 571.694 502.766
674 0 57.0735 10.8807 621 79.0805 571.514 502.551
675 0 59.081 11.5266 681 77.7592 571.689 501.514
676 0 59.0798 10.9851 649 81.5824 571.384 499.607
677 0 60.1068 10.3316 621 84.5507 571.726 498.33
678 0 65.0807 11.5242 750 80.2773 571.628 498.964
679 0 66.0561 11.9444 789 77.2991 572.802 505.539
680 0 67.0945 10.8653 729 81.0809 572.182 503.465
681 0 70.0847 11.3577 796 81.5666 572.7 502.384
682 0 70.2183 11.1794 785 84.2726 572.699 500.804
683 0 74.1829 11.4447 849 86.1201 572.514 499.545
684 0 79.2136 12.6367 1001 89.034 572.563 498.498
685 0 80.2463 12.1875 978 88.2975 571.974 498.172
686 0 82.1988 12.2265 1005 90.006 572.024 496.971
687 0 87.1748 13.0772 1140 91.1974 572.584 495.227
688 0 89.1222 12.7465 1136 93.0581 571.988 492.3
689 0 91.2108 12.2354 1116 94.2957 572.664 493.346
690 0 95.2749 12.7316 1213 92.798 572.601 491.804
691 0 94.3024 11.8237 1115 96.6726 573.305 491.151
692 0 96.2868 11.3411 1092 98.6273 573.157 488.09
693 0 97.3025 11.4077 1110 98.8378 572.962 486.314
694 0 102.278 12.7203 1301 94.02 571.949 488.276
695 0 106.231 13.6496 1450 92.0779 572.607 485.872
696 0 108.26 12.4977 1353 95.2062 572.276 486.323
697 0 112.275 13.4937 1515 91.9195 572.058 484.495
698 1 58.1845 11.1026 646 88.3963 571.339 512.622
699 0 59.1037 10.8623 642 85.7601 570.931 512.822
700 0 61.0824 11.7874 720 83.5056 572.076 511.665
701 0 63.152 11.8603 749 84.9146 571.28 511.57
702 0 64.097 11.233 720 89.3028 571.896 510.982
703 0 65.1236 11.3477 739 85.8241 571.21 509.846
704 0 67.1254 11.8584 796 85.2186 571.506 510.072
705 0 68.0832 11.6622 794 88.1776 571.519 509.678
706 0 69.0918 11.2459 777 91.2111 571.36 509.044
707 0 71.0799 11.5082 818 98.9976 571.4 506.722
708 0 74.092 11.6207 861 92.1928 571.888 507.146
709 0 75.0682 11.6561 875 94.1703 571.781 506.139
710 0 77.0637 12.3534 952 93.1019 572.019 505.184
711 0 79.0665 11.7243 927 96.4024 571.962 505.175
712 0 80.0585 11.7789 943 96.8738 571.393 502.709
713 0 84.042 11.411 959 99.5256 571.651 503.908
714 1 43.0387 10.2234 440 93.7659 571.636 523.673
715 0 45.0346 10.503 473 93.5518 571.829 520.416
716 0 48.051 12.2786 590 90.3763 571.849 517.276
717 0 46.0545 10.6179 489 95.2679 571.699 518.088
718 0 49.075 11.3704 558 93.767 572.647 516.846
719 0 49.0105 10.8548 532 96.8346 572.724 519.344
720 0 53.0797 11.2472 597 94.804 572.564 519.585
721 0 53.0652 12.4375 660 94.7136 571.617 518.436
722 0 53.0382 11.8405 628 98.344 572.911 518.338
723 0 55.0768 11.5294 635 98.0756 571.118 517.195
724 0 56.0471 11.4725 643 97.8787 570.925 516.512
725 0 57.0246 12.0474 687 97.0961 569.905 515.051
726 0 60.0702 11.5864 696 99.1336 570.126 514.356
727 0 61.032 11.1581 681 100.794 571.097 512.943
728 0 62.047 11.2012 695 101.558 570.963 511.665
729 0 64.0285 11.1201 712 101.972 571.27 510.121
730 0 66.039 10.5241 695 102.386 570.875 511.686
731 0 69.0437 10.4716 723 102.351 571.434 508.772
732 0 70.0373 10.9941 770 101.679 570.648 508.427
733 0 72.037 10.6889 770 102.212 570.799 507.943
734 0 72.0161 10.6921 770 103.453 570.612 506.795
735 1 36.0133 9.96853 359 105.51 570.479 524.577
736 0 38.0055 10.63 404 103.354 570.847 522.916
737 0 38.0598 10.6149 404 102.73 571.153 522.79
738 0 40.0126 10.6466 426 99.8028 571.568 523.094
739 0 38.0138 10.8119 411 100.127 571.664 522.394
740 0 42.0317 11.2534 473 96.241 571.285 521.203
741 0 41.0179 10.8733 446 99.6188 570.592 519.453
742 0 43.0506 11.4749 494 97.1518 570.154 518.136
743 0 43.0569 10.7997 465 99.9806 571.024 518.202
744 0 44.0106 11.2927 497 97.2475 570.656 517.773
745 0 46.07 10.7662 496 99.8931 570.75 516.058
746 0 47.0336 11.7575 553 102.034 570.655 515.613
747 0 47.0183 11.57 544 104.846 570.855 515.079
748 0 48.0081 11.9146 572 105.691 571.023 513.886
749 0 50.0052 11.6788 584 105.012 571.156 512.829
750 0 50.0399 11.9305 597 104.43 571.63 511.911
751 0 53.0473 11.4426 607 105.358 570.6 511.311
752 0 49.0145 10.9151 535 111.933 571.14 511.69
753 0 50.0144 10.7569 538 112.264 570.916 511.682
754 0 53.0267 10.6739 566 111.33 570.597 510.604
755 0 56.0323 10.9937 616 110.115 571.268 510.182
756 0 57.0465 11.6046 662 105.746 570.943 509.582
757 0 60.0693 10.671 641 108.53 572.134 508.821
758 0 60.0426 11.3253 680 107.809 572.054 507.896
759 0 64.039 11.0714 709 108.451 572.361 506.341
760 0 65.0752 11.3254 737 108.304 571.83 505.719
761 0 65.0267 11.626 756 108.028 571.652 503.673
762 0 68.0534 11.2412 765 108.501 571.126 503.074
763 0 72.0392 12.0629 869 104.36 570.796 502.945
764 0 75.0557 11.6847 877 103.838 571.517 501.959
765 0 75.0497 11.6856 877 138.936 571.497 502.074
766 0 79.1116 11.0351 873 103.819 572.04 499.331
767 1 44.0358 10.6958 471 102.919 571.321 514.034
768 0 45.0471 10.4557 471 100.741 571.824 512.138
769 0 44.0373 11.1723 492 100.283 572.118 511.118
770 0 48.0943 11.2903 543 91.2505 571.486 513.867
771 0 49.0296 10.9934 539 90.7366 571.868 514.673
772 0 48.0161 11.2046 538 92.0781 571.216 514.848
773 0 50.0658 11.0255 552 91.3044 571.174 514.254
774 0 54.0125 11.5714 625 88.0176 571.758 514.584
775 0 54.034 10.9005 589 89.7318 572.044 512.934
776 0 55.0346 11.7017 644 89.1662 572.25 510.711
777 0 58.0306 11.5973 673 89.6211 571.768 510.296
778 0 58.0291 11.5459 670 139.187 571.758 510.348
779 0 62.0415 11.9436 741 87.085 571.864 506.812
780 0 65.0597 11.8045 768 88.1745 571.819 507.456
781 0 65.0422 12.3612 804 88.5037 570.316 505.898
782 0 67.0431 11.9028 798 89.7857 570.615 505.094
783 0 69.0929 11.9983 829 89.8335 571.133 502.856
784 0 73.0725 12.2344 894 88.9597 570.978 502.254
785 0 77.0482 12.914 995 86.8412 571.551 501.505
786 0 78.0442 13.2233 1032 86.936 571.684 500.089
787 0 80.0443 13.2177 1058 87.5378 572.796 498.105
788 0 85.058 13.1322 1117 86.932 572.079 497.812
789 0 86.0781 12.7559 1098 88.5373 572.492 496.029
790 0 89.0786 12.4834 1112 88.8588 572.192 493.626
791 0 91.0877 13.3388 1215 87.9613 572.364 492.553
792 0 94.1446 12.9482 1219 89.2838 572.089 490.331
793 0 98.0764 12.786 1254 90.1268 572.52 487.923
794 0 103.091 13.0177 1342 88.1721 572.739 487.09
795 0 105.098 12.5406 1318 89.2223 573.3 485.174
796 0 107.098 12.3252 1320 89.425 572.855 483.161
797 0 109.064 12.4789 1361 88.6495 573.3 482.276
798 0 115.084 13.1817 1517 86.033 573.519 480.077
799 0 116.137 12.6317 1467 87.5644 573.489 476.027
800 0 119.129 12.5914 1500 87.526 572.722 476.186
801 0 124.128 12.7933 1588 87.3363 572.36 474.696
802 0 129.116 13.3755 1727 84.9647 572.196 475.351
803 0 134.097 13.095 1756 86.0638 571.518 472.977
804 0 136.164 12.9844 1768 88.1589 572.189 471.533
805 0 143.167 12.929 1851 88.7148 572.588 468.936
806 0 147.124 12.622 1857 89.4157 572.743 466.1
807 0 152.077 12.6318 1921 90.2035 572.654 463.328
808 0 159.161 13.6465 2172 88.8605 572.032 460.21
809 0 163.231 12.9142 2108 91.3501 572.422 458.869
810 0 168.134 12.9896 2184 93.2321 571.547 455.762
811 0 174.19 13.359 2327 92.193 571.376 454.896
812 0 179.208 13.6098 2439 93.4522 571.729 450.436
813 0 185.129 13.6716 2531 94.7234 571.298 448.228
814 0 190.243 13.4197 2553 96.691 571.732 445.611
815 0 197.133 13.6659 2694 96.6656 571.77 442.992
816 0 202.214 13.4709 2724 98.2493 571.796 438.945
817 0 210.205 13.9102 2924 96.8239 572.061 438.301
818 0 217.221 13.6819 2972 97.7332 571.597 433.083
819 0 226.151 14.4196 3261 96.0668 571.962 430.413
820 1 170.187 11.8634 2019 98.2655 571.611 461.937
821 0 176.174 12.658 2230 98.3215 571.361 456.155
822 0 182.211 13.1935 2404 98.0849 571.188 449.683
823 0 188.214 12.4646 2346 99.0648 570.865 446.098
824 0 196.136 13.7456 2696 95.4136 570.674 444.949
825 0 200.193 13.2522 2653 97.4847 571.13 440.323
826 0 209.318 13.1857 2760 97.0014 570.878 438.916
827 0 217.191 13.8726 3013 97.5685 570.821 433.98
828 0 224.289 13.7323 3080 97.948 570.78 429.023
829 0 232.253 13.4939 3134 100.003 570.983 425.708
830 0 238.29 13.2947 3168 101.607 571.078 423.271
831 0 244.364 13.5004 3299 102.089 570.988 417.278
832 1 182.113 12.1188 2207 96.5727 571.414 454.741
833 0 186.229 11.9423 2224 95.9357 570.893 451.106
834 0 192.218 12.3141 2367 96.2729 571.588 449.379
835 0 198.154 12.2127 2420 96.6029 570.861 446.776
836 0 204.138 12.2564 2502 93.6411 571.502 445.146
837 0 209.164 12.5691 2629 94.0856 570.507 441.604
838 0 214.164 12.1729 2607 94.7948 570.244 437.797
839 0 220.132 11.9474 2630 96.0354 569.622 434.064
840 0 227.173 12.1053 2750 100.471 569.677 430.08
841 0 234.256 12.068 2827 101.719 569.772 423.895
842 1 183.185 11.1745 2047 97.8373 570.211 453.832
843 0 190.197 12.0191 2286 96.0818 570.185 447.932
844 0 197.177 12.8919 2542 93.4571 570.427 444.006
845 0 203.167 12.8171 2604 96.1809 570.464 440.122
846 0 209.298 12.8716 2694 99.6396 569.555 433.804
847 0 216.221 12.6167 2728 101.594 570.095 431.35
848 0 224.221 12.8668 2885 102.157 569.337 426.098
849 0 233.27 14.2624 3327 99.4109 570.391 423.705
850 0 240.336 14.0387 3374 101.709 569.921 418.273
851 0 244.421 13.8409 3383 103.025 570.535 413.477
852 0 253.149 14.3591 3635 97.7144 570.787 413.244
853 0 260.209 14.1079 3671 98.4969 570.538 408.1
854 0 267.286 14.4789 3870 97.0137 570.127 403.849
855 0 276.234 14.4552 3993 96.975 570.031 398.144
856 0 281.3 14.3726 4043 97.2577 569.14 397.539
857 0 290.213 14.5101 4211 96.2959 569.245 393.83
858 1 317.268 20.8594 6618 77.5317 568.825 359.053
859 0 319.357 20.6634 6599 78.7112 569.072 363.292
860 0 320.335 17.3287 5551 88.6168 569.746 368.017
861 0 325.422 14.2431 4635 98.3724 569.448 370.432
862 0 334.382 15.7305 5260 95.0572 570.295 363.811
863 0 345.251 15.2903 5279 96.6401 570.074 358.045
864 0 358.406 16.1577 5791 94.1577 569.929 351.232
865 0 368.411 14.9344 5502 97.8101 569.188 343.242
866 0 380.439 14.7067 5595 98.7907 569.93 337.504
867 0 393.373 14.7926 5819 100.643 569.125 328.56
868 0 407.654 15.6186 6367 97.2932 569.214 318.238
869 1 186.117 9.86479 1836 92.8589 570.221 438.648
870 0 194.27 11.2164 2179 90.5232 569.928 436.122
871 0 200.242 11.2314 2249 92.0631 569.955 429.477
872 0 208.264 11.399 2374 93.2928 570.179 428.325
873 0 217.237 11.8949 2584 91.6316 570.324 426.104
874 0 224.18 11.3971 2555 93.5566 570.818 421.583
875 0 223.255 9.62128 2148 96.0335 570.875 425.432
876 0 222.272 3.21678 715 89.3385 570.726 467.28
877 0 245.303 15.487 3799 85.547 569.819 409.533
878 0 250.236 13.4553 3367 92.1286 569.688 403.342
879 0 260.304 14.898 3878 87.8571 569.758 400.867
880 0 267.26 14.8544 3970 89.8504 569.651 395.487
881 0 273.214 14.3477 3920 91.4538 570.026 388.267
882 0 284.377 14.7656 4199 89.3889 570.351 389.339
883 0 284.275 9.57525 2722 97.2895 570.647 398.942
884 0 284.276 4.68559 1332 98.7192 570.956 418.329
885 1 72.1325 8.5953 620 65.8226 569.773 507.789
886 0 71.108 8.67694 617 66.7536 570.883 502.652
887 0 77.1186 9.37517 723 68.6279 569.867 497.663
888 0 79.1281 9.87007 781 70.3124 569.169 497.301
889 0 81.2577 9.6237 782 76.9501 570.193 498.263
890 0 85.1045 9.43546 803 76.533 569.92 496.998
891 0 85.1236 9.40985 801 116.134 569.909 497.231
892 0 89.1424 9.6587 861 76.0801 569.517 496.367
893 0 90.1412 9.93997 896 76.115 571.129 493.17
894 0 98.1244 13.0854 1284 64.8131 570.234 486.283
895 1 119.167 12.7133 1515 60.3314 570.125 482.258
896 0 118.202 14.6783 1735 57.562 569.364 476.595
897 0 121.306 13.7339 1666 60.4322 570.313 478.538
898 0 121.266 15.7258 1907 57.9213 569.772 473.755
899 0 119.211 14.6631 1748 62.9159 569.82 476.465
900 0 114.284 12.6965 1451 69.8353 569.948 477.844
901 0 117.252 11.2493 1319 74.0387 570.484 478.818
902 1 64.146 10.7879 692 67.7327 571.636 509.072
903 0 65.1518 10.4986 684 69.6915 571.072 504.924
904 0 66.3142 10.6915 709 70.2299 572.306 503.011
905 0 70.0401 11.4506 802 67.9763 572.527 503.198
906 0 69.0551 10.4265 720 70.6806 572.31 501.958
907 0 73.0459 10.733 784 70.9554 571.763 501.226
908 0 76.1218 11.7575 895 68.2302 572.116 499.759
909 0 79.0344 11.8809 939 67.2907 572.711 499.705
910 0 78.0581 11.8117 922 68.8948 572.928 498.943
911 0 83.0507 11.8 980 67.3755 572.91 499.228
912 0 83.1062 11.5395 959 68.7643 571.533 498.091
913 0 86.0489 11.8886 1023 68.7869 572.541 497.839
914 0 88.08 11.6031 1022 69.3033 572.335 498.224
915 0 91.0706 11.826 1077 68.5933 572.093 497.084
916 0 91.1082 12.0955 1102 70.1706 571.304 495.282
917 0 97.0947 11.7823 1144 70.118 571.201 494.948
918 0 97.1656 11.537 1121 71.851 571.597 493.561
919 0 101.118 12.3223 1246 70.4807 571.449 491.436
920 0 103.234 11.2075 1157 74.7269 571.598 490.272
921 0 105.156 11.83 1244 73.9196 571.675 489.767
922 0 106.218 11.9377 1268 74.2658 572.071 488.789
923 0 109.325 11.7265 1282 75.9423 570.808 489.444
924 0 113.118 12.0494 1363 73.9985 571.196 486.688
925 0 114.247 11.9128 1361 75.9603 570.165 484.053
926 0 119.345 12.1831 1454 76.0942 570.195 484.011
927 0 121.477 12.3315 1498 77.5187 571.118 481.732
928 0 124.28 12.8098 1592 76.4943 570.316 482.455
929 0 126.142 12.7555 1609 76.8297 570.768 481.071
930 0 131.159 13.0833 1716 76.3712 570.488 478.374
931 0 134.261 12.0065 1612 77.6452 570.476 477.785
932 0 137.235 12.3948 1701 77.0341 569.939 473.543
933 0 141.188 12.2532 1730 77.0416 569.462 473.912
934 0 145.382 12.2367 1779 77.3035 569.194 473.689
935 0 151.258 12.7464 1928 76.596 569.592 470.269
936 0 154.186 12.9973 2004 76.509 569.006 467.909
937 0 158.243 13.0811 2070 76.7087 569.236 465.557
938 0 163.138 13.5469 2210 74.7181 569.006 462.448
939 0 169.146 13.1661 2227 74.5263 569.584 458.193
940 0 172.159 12.4943 2151 74.5574 569.601 458.338
941 0 178.191 12.7223 2267 73.1884 569.302 453.726
942 0 183.173 12.1524 2226 74.3077 569.302 455.393
943 0 188.166 12.1701 2290 74.7642 567.852 448.205
944 0 193.19 12.3454 2385 74.5828 568.169 447.701
945 0 200.266 12.3336 2470 74.5417 568.56 442.14
946 0 206.135 10.8327 2233 76.9167 568.236 444.033
947 0 213.266 11.4411 2440 75.4471 568.83 438.448
948 0 221.327 12.0184 2660 74.3545 568.822 432.609
949 1 52.037 10.4157 542 71.8524 569.467 513.712
950 0 54.0351 11.4 616 78.7695 569.24 510.625
951 0 58.0663 11.8313 687 81.2999 570.323 511.012
952 0 59.0588 12.8008 756 82.5556 569.873 509.848
953 0 61.0283 12.2238 746 83.3043 568.449 509.3
954 0 67.0296 13.6059 912 80.2357 569.132 508.062
955 0 70.1008 13.5947 953 69.4512 568.384 508.502
956 0 70.0533 13.3041 932 70.5504 568.998 506.937
957 0 72.0742 12.7508 919 71.7269 569.578 505.655
958 0 74.2447 13.0514 969 71.031 570.175 504.852
959 0 76.1509 12.8429 978 70.4591 569.196 502.308
960 0 80.0875 13.3104 1066 69.6022 570.234 500.629
961 0 80.0972 13.1091 1050 70.239 569.251 499.788
962 0 84.1687 13.4135 1129 68.899 569.967 497.402
963 0 87.0775 12.8851 1122 69.3191 569.536 498.098
964 0 92.1218 13.0371 1201 68.5762 570.398 493.584
965 0 93.2991 12.9369 1207 69.9528 570.176 493.223
966 0 95.1649 12.7778 1216 70.1357 570.227 490.416
967 0 99.1971 12.2181 1212 70.6353 569.717 489.393
968 1 51.1159 10.9164 558 67.3584 571.763 514.674
969 0 51.1159 10.9751 561 137.845 572.775 514.759
970 0 54.1081 11.4401 619 68.5057 570.682 511.648
971 0 55.1198 10.7221 591 69.4382 571.276 511.567
972 0 58.0641 12.2623 712 66.6587 571.524 510.631
973 0 59.0874 10.7468 635 65.6126 570.606 508.507
974 0 62.0596 11.6018 720 64.3264 570.007 508.51
975 0 64.0593 11.2084 718 65.6226 569.957 507.315
976 0 67.072 11.7784 790 66.0418 570.576 505.962
977 0 68.1028 11.4239 778 67.0553 571.077 504.535
978 0 72.0274 12.1065 872 66.5745 571.164 503.381
979 0 74.0642 11.8006 874 76.4485 572.186 503.549
980 0 75.0706 11.1761 839 79.5745 572.774 502.308
981 0 78.1176 11.1114 868 79.9942 571.412 499.85
982 0 82.0405 11.4334 938 72.2868 571.771 498.558
983 0 85.1116 11.4908 978 72.3211 571.028 496.75
984 0 87.0776 11.1854 974 74.229 571.523 496.193
985 0 91.0827 11.6707 1063 77.4356 571.879 492.724
986 1 44.0413 9.33214 411 76.9319 571.304 515.847
987 0 48.0685 9.96495 479 75.7829 572.53 514.889
988 0 49.0897 10.5317 517 76.0464 572.25 514.76
989 0 51.0688 10.6719 545 68.9413 572.145 513.639
990 0 51.1314 10.4632 535 69.9308 571.14 513.361
991 0 53.0956 11.3945 605 68.681 570.693 511.155
992 0 56.0471 10.8837 610 70.0262 570.536 510.966
993 0 56.0522 10.9898 616 70.289 571.148 509.406
994 0 61.1336 10.6979 654 70.6223 571.427 510.058
995 0 61.055 10.6625 651 71.4532 571.869 508.705
996 0 63.0826 11.4136 720 70.8903 572.599 506.907
997 0 66.0473 11.5675 764 70.7775 572.588 505.582
998 0 67.0526 11.3642 762 72.979 572.535 505.395
999 0 68.0699 11.4882 782 73.8644 572.454 504.995
1000 0 71.0956 11.365 808 74.2228 572.3 503.936
1001 0 73.0536 11.7859 861 76.1661 571.158 503.142
1002 0 77.0295 11.6709 899 77.0501 571.343 501.947
1003 0 80.0726 12.2764 983 84.1353 571.782 500.399
1004 0 80.0647 12.34 988 86.3279 572.195 497.551
1005 0 83.0325 11.9471 992 87.6714 573.438 496.749
1006 0 87.1218 12.1784 1061 86.2498 572.355 495.761
1007 0 87.0487 12.3954 1079 87.9963 573.468 494.566
1008 1 46.0897 10.4796 483 79.1387 573.441 516.617
1009 0 45.0442 10.8338 488 79.084 573.262 516.119
1010 0 46.0177 10.5394 485 78.033 572.276 516.315
1011 0 49.0287 11.1975 549 76.8324 571.874 515.931
1012 0 52.0333 11.877 618 83.4013 570.479 512.364
1013 0 50.0262 10.5345 527 80.7571 571.425 513.452
1014 0 50.0105 10.6778 534 82.4775 571.352 513.676
1015 0 54.0438 10.9541 592 80.0152 571.432 514.488
1016 0 55.0202 10.4325 574 81.0209 572.922 513.148
1017 0 58.037 11.1825 649 80.171 572.015 512.068
1018 0 60.0706 11.32 680 78.7103 573.421 510.099
1019 0 62.0252 10.399 645 80.955 573.271 508.664
1020 0 65.0597 11.4203 743 78.9529 573.237 508.307
1021 0 66.0537 11.203 740 79.5419 572.978 507.986
1022 0 67.0477 10.9623 735 81.181 573.48 506.822
1023 0 69.0766 11.1905 773 80.6235 573.692 505.452
1024 0 72.0277 11.2873 813 80.5658 573.363 503.261
1025 0 75.0323 11.5417 866 79.9376 572.32 503.129
1026 0 75.029 10.9958 825 83.6667 572.607 501.321
1027 0 80.0584 10.9045 873 82.7904 572.125 499.341
1028 0 82.0542 11.3583 932 81.6427 571.799 498.943
1029 0 86.0224 11.8922 1023 80.1114 571.803 496.61
1030 0 89.0552 11.9252 1062 80.1695 571.714 496.552
1031 0 90.0707 11.2689 1015 83.7074 573.221 495.668
1032 1 51.0249 10.4263 532 86.7726 572.248 513.506
1033 0 51.0443 10.6378 543 87.4015 571.486 513.635
1034 0 53.0548 11.3091 600 84.525 572.847 511.003
1035 0 54.0327 10.7527 581 79.3597 571.971 512.535
1036 0 56.0822 11.6436 653 80.4058 572.358 511.692
1037 0 54.1009 11.1274 602 87.7508 571.957 511.081
1038 0 57.0878 11.5787 661 86.4236 570.884 510.911
1039 0 59.0602 11.3952 673 86.526 571.293 511.281
1040 0 62.0756 11.9371 741 84.9609 571.39 509.86
1041 0 63.072 11.6851 737 86.4518 571.616 509.26
1042 0 64.0555 10.8031 692 88.0087 571.345 508.277
1043 0 66.0627 11.3377 749 87.235 571.574 506.844
1044 0 67.0688 11.6 778 86.8355 572.195 506.218
1045 0 71.1112 11.6297 827 86.8331 571.796 505.277
1046 0 72.109 11.6352 839 87.3433 571.809 503.402
1047 0 72.1127 11.6346 839 87.9261 571.017 501.762
1048 0 75.0831 11.2142 842 87.677 571.316 502.216
1049 0 78.0742 11.1176 868 87.485 571.863 499.387
1050 0 82.0419 11.7988 968 86.6105 572.194 497.365
1051 0 83.0786 11.7238 974 86.0975 571.231 497.555
1052 0 84.0277 11.0559 929 87.5318 571.998 495.165
1053 0 88.0718 11.6836 1029 86.4956 572.598 491.796
1054 0 88.0589 11.4469 1008 90.6875 572.487 490.682
1055 0 91.1005 11.3281 1032 91.3236 572.338 490.02
1056 0 96.0729 11.7723 1131 90.9328 572.68 489.238
1057 0 97.1347 11.9525 1161 82.8191 572.991 488.935
1058 0 102.12 11.4278 1167 91.545 571.848 487.934
1059 0 107.116 12.4817 1337 88.6604 571.809 483.776
1060 1 53.0276 10.5417 559 90.703 570.923 510.095
1061 0 54.0275 10.6982 578 91.6592 571.296 511.389
1062 0 58.0256 11.7017 679 90.1988 571.993 511.87
1063 0 61.0155 11.9314 728 83.7349 571.132 511.687
1064 0 59.0348 11.417 674 85.1736 571.869 510.904
1065 0 61.0268 11.6342 710 85.4352 571.563 509.92
1066 0 65.1182 11.8246 770 84.5636 571.426 508.37
1067 0 66.0695 11.3668 751 86.0626 571.353 507.936
1068 0 67.0273 12.0697 809 85.9135 571.195 507.22
1069 0 68.0631 12.1652 828 87.808 571.213 505.558
1070 0 71.0824 12.38 880 87.717 571.077 503.331
1071 0 74.0646 13.3937 992 86.9405 571.508 503.547
1072 0 76.1291 12.6233 961 90.7784 571.748 502.954
1073 0 80.1019 13.0084 1042 96.6344 571.916 500.299
1074 0 82.121 13.127 1078 97.9119 571.517 499.65
1075 0 84.0832 13.5461 1139 97.691 571.967 498.121
1076 0 87.0852 13.4466 1171 98.6951 572.648 497.809
1077 0 89.1598 13.358 1191 100.767 573.113 496.448
1078 0 93.2235 14.0308 1308 98.5115 571.638 495.12
1079 1 50.072 11.2438 563 98.1439 571.892 517.43
1080 0 49.0226 11.2193 550 96.9782 570.804 515.293
1081 0 51.0396 11.4029 582 97.0223 571.586 513.701
1082 0 52.02 11.6494 606 94.8647 571.262 512.516
1083 0 54.0233 11.9208 644 92.7143 572.289 512.228
1084 0 56.0388 11.8489 664 92.3012 572.351 512.146
1085 0 57.0236 11.7144 668 95.8892 573.217 511.09
1086 0 58.0224 12.4779 724 96.4033 573.225 514.546
1087 0 60.0069 12.9652 778 95.3213 573.063 513.842
1088 0 61.0326 12.9111 788 95.6929 572.134 514.518
1089 0 63.0242 12.9157 814 108.37 571.712 511.909
1090 0 66.0213 12.602 832 109.957 571.044 512.462
1091 0 65.0242 12.9183 840 112.177 571.18 510.689
1092 0 70.0175 12.9682 908 109.856 572.037 510.577
1093 0 71.0508 13.2159 939 110.948 572.333 508.226
1094 0 74.0694 13.1498 974 111.159 572.531 507.446
1095 0 75.0261 12.3157 924 114.126 572.821 507.265
1096 0 76.0262 12.6404 961 114.208 571.878 506.968
1097 0 80.0479 12.5425 1004 114.26 572.078 505.902
1098 0 83.0347 12.7778 1061 112.986 571.706 504.312
1099 0 85.0988 13.1494 1119 112.041 573.25 503.663
1100 0 86.0498 12.9925 1118 113.374 573.075 502.001
1101 0 91.0546 13.124 1195 110.879 572.124 499.388
1102 0 92.0355 12.9733 1194 110.877 572.956 498.094
1103 0 94.0536 12.9926 1222 110.66 571.971 496.251
1104 1 49.054 12.0887 593 114.835 572.651 518.597
1105 0 52.0538 12.6023 656 113.968 572.206 518.094
1106 0 54.116 12.1775 659 110.551 571.766 515.348
1107 0 55.0293 13.1203 722 104.936 573.024 516.644
1108 0 55.0216 12.5224 689 107.335 572.283 516.209
1109 0 55.0849 12.4898 688 109.047 572.644 516.965
1110 0 56.0177 12.4961 700 109.46 571.626 517.124
1111 0 57.0314 12.1512 693 113.33 572.003 515.719
1112 0 59.022 12.1311 716 112.796 572.06 514.668
1113 0 62.0214 12.2377 759 113.407 571.95 513.328
1114 0 62.0185 12.1415 753 145.637 571.973 513.462
1115 0 67.0279 11.995 804 113.813 572.765 511.418
1116 0 70.0901 12.5838 882 113.926 572.032 509.4
1117 0 73.0466 12.9096 943 112.509 572.195 509.716
1118 0 74.0638 12.4757 924 114.719 571.511 507.708
1119 0 78.036 12.6736 989 114.472 571.08 505.792
1120 0 80.0952 12.6225 1011 116.126 571.648 504.488
1121 0 84.0955 12.6761 1066 114.785 572.101 504.162
1122 0 85.1883 12.3608 1053 115.451 572.077 502.686
1123 1 45.0617 12.0058 541 119.24 571.712 520.917
1124 0 47.0826 11.7453 553 120.515 572.483 520.635
1125 0 49.0198 12.1992 598 121.462 570.888 521.254
1126 0 48.0467 13.029 626 125.497 571.788 519.928
1127 0 51.0183 13.0737 667 125.786 571.517 519.334
1128 0 49.0252 11.7898 578 120.708 571.746 519.644
1129 0 52.0144 12.4965 650 116.702 571.374 519.495
1130 0 52.0151 12.4579 648 118.826 571.208 518.81
1131 0 53.016 12.5434 665 119.632 570.644 518.403
1132 0 58.0286 12.063 700 118.697 571.826 517.309
1133 0 58.0267 12.6494 734 117.91 570.997 517.035
1134 0 59.0312 12.9254 763 118.583 571.71 515.206
1135 0 63.0505 13.513 852 116.935 571.205 513.554
1136 0 65.0144 13.5047 878 118.157 571.96 512.612
1137 0 66.1044 13.7358 908 118.843 571.15 511.583
1138 0 67.0298 13.4716 903 120.699 571.876 511.046
1139 0 70.101 13.4235 941 121.012 570.875 510.597
1140 0 72.0283 13.4947 972 121.086 571.042 510.309
1141 0 74.0799 13.202 978 121.967 570.989 508.731
1142 0 77.0336 13.3189 1026 120.582 570.063 507.096
1143 0 78.0521 13.696 1069 119.697 570.817 506.134
1144 0 81.0423 13.9557 1131 119.406 570.462 505.44
1145 0 81.0415 13.8571 1123 123.498 570.941 502.936
1146 0 87.0378 14.0973 1227 129.619 570.91 503.198
1147 0 87.0584 14.094 1227 130.645 570.835 500.666
1148 0 92.0481 14.1122 1299 128.451 570.829 498.913
1149 0 94.0889 13.9868 1316 113.342 570.853 497.47
1150 0 95.052 14.0975 1340 112.631 570.542 495.863
1151 0 99.0849 13.443 1332 112.148 570.058 496.08
1152 1 54.0218 11.5139 622 112.066 569.92 518.514
1153 0 57.0176 12.3646 705 109.95 569.46 516.399
1154 0 58.0322 12.9583 752 109.63 569.444 515.477
1155 0 59.0554 12.3951 732 107.648 569.198 515.223
1156 0 61.0161 12.2263 746 106.121 570.259 514.697
1157 0 62.0223 12.3827 768 106.389 569.962 514.581
1158 0 66.064 13.2599 876 102.372 570.14 514.096
1159 0 65.0305 12.7171 827 105.308 570.139 513.328
1160 0 68.0389 12.5957 857 105.659 570.1 511.533
1161 0 70.0131 13.0547 914 103.163 570.29 510.84
1162 0 74.0388 12.4664 923 104.29 569.808 509.053
1163 0 76.0232 13.5222 1028 103.151 569.519 507.973
1164 0 77.0268 12.8267 988 105.014 569.283 507.167
1165 0 82.0202 12.9602 1063 103.266 569.89 505.636
1166 0 82.0616 12.2225 1003 106.906 569.535 504.358
1167 0 87.115 13.2239 1152 104.259 570.125 502.694
1168 0 90.1281 12.8484 1158 111.78 569.649 501.172
1169 1 46.01 11.7148 539 110.755 570.165 521.733
1170 0 48.0296 12.0134 577 108.321 570.236 520.581
1171 0 48.0309 12.0756 580 105.783 571.269 520.309
1172 0 52.0248 12.4364 647 104.581 570.474 520.356
1173 0 51.0308 11.2873 576 107.082 570.944 520.372
1174 0 52.0513 11.9305 621 107.216 570.955 518.931
1175 0 52.0223 12.3985 645 108.298 570.47 519.098
1176 0 53.0104 11.9599 634 109.694 570.121 516.945
1177 0 58.0303 12.5796 730 106.153 569.4 516.693
1178 0 58.0349 12.6131 732 108.527 569.627 516.329
1179 0 60.0406 12.3417 741 109.329 570.571 515.795
1180 0 63.0537 12.418 783 109.525 569.754 514.78
1181 0 63.0695 11.9551 754 112.869 571.182 512.818
1182 0 66.0884 12.9523 856 110.308 570.803 510.468
1183 0 67.0598 12.0042 805 114.107 569.943 508.391
1184 0 70.1201 13.1631 923 110.884 570.491 507.358
1185 0 73.0814 12.7255 930 111.743 569.457 503.829
1186 0 75.0672 12.4821 937 114.054 569.646 502.863
1187 0 78.143 12.7075 993 113.559 568.659 498.803
1188 0 80.0967 12.4599 998 115.415 569.252 498.006
1189 0 82.1293 12.1759 1000 116.566 568.83 494.87
1190 1 43.0409 11.129 479 116.38 569.948 513.322
1191 0 45.0554 11.4969 518 116.303 570.315 513.78
1192 0 48.0837 11.7295 564 116.431 569.574 513.321
1193 0 49.1245 12.3564 607 110.807 569.824 516.75
1194 0 52.0884 12.21 636 110.906 569.288 517.269
1195 0 53.0814 12.1323 644 120.568 569.099 517.545
1196 0 55.0602 12.2775 676 123.456 569.077 516.462
1197 0 56.1093 12.2974 690 124.068 569.855 514.883
1198 0 58.1633 12.6712 737 122.825 569.053 513.735
1199 0 60.0881 12.4484 748 121.512 569.084 512.905
1200 0 62.042 12.3787 768 120.171 569.971 513.214
1201 0 65.0725 12.586 819 117.794 570.228 513.001
1202 0 65.0488 12.652 823 117.559 570.324 510.642
1203 0 67.04 11.8884 797 119.242 569.215 509.193
1204 0 68.0679 12.1056 824 117.797 569.825 509.195
1205 0 71.0314 12.4874 887 116.413 570.055 509.399
1206 0 74.0375 12.4126 919 116.935 569.96 508.718
1207 0 77.0458 12.6289 973 115.145 569.716 508.66
1208 0 79.0469 12.4989 988 114.807 569.308 506.831
1209 0 81.0344 12.4392 1008 115.769 569.664 505.987
1210 0 82.0478 12.4805 1024 116.271 569.261 504.449
1211 0 84.0582 12.301 1034 116.626 569.911 502.878
1212 0 87.1303 12.9806 1131 114.081 570.269 502.523
1213 0 89.0785 12.562 1119 116.189 571.082 502.166
1214 0 93.053 12.7884 1190 113.497 570.312 500.753
1215 0 92.0795 12.7499 1174 115.513 569.969 500.693
1216 1 49.0386 12.1537 596 109.767 569.237 521.775
1217 0 50.1175 11.9918 601 108.594 569.679 520.735
1218 0 51.066 12.5524 641 108.855 569.902 519.838
1219 0 53.043 12.7632 677 108.737 570.075 518.134
1220 0 56.0683 13.109 735 106.352 570.645 518.569
1221 0 57.0548 12.8999 736 106.06 571.276 516.062
1222 0 60.0246 12.1284 728 107.04 569.975 514.772
1223 0 61.0402 13.1716 804 104.794 570.072 512.836
1224 0 63.0573 13.1151 827 103.969 570.446 512.411
1225 0 65.0902 12.4904 813 106.737 570.114 510.504
1226 0 66.0692 12.6837 838 106.882 570.658 509.426
1227 0 69.0841 12.4775 862 105.974 570.038 508.389
1228 0 70.0631 12.4174 870 106.447 570.548 506.814
1229 0 74.0885 12.7145 942 105.173 570.307 506.441
1230 0 77.1343 12.744 983 105.537 571.124 505.571
1231 0 77.0728 12.9488 998 106.953 570.622 504.218
1232 0 81.1198 12.9315 1049 105.24 570.991 503.372
1233 0 84.0996 12.9489 1089 105.545 571.329 501.902
1234 0 86.0511 12.9226 1112 105.105 571.011 500.495
1235 0 88.1146 12.4951 1101 106.876 570.027 501.059
1236 0 90.1288 13.0147 1173 106.146 570.363 500.431
1237 0 93.1449 12.7221 1185 106.824 570.862 497.203
1238 0 96.1037 12.7154 1222 106.012 570.099 494.654
1239 1 52.0939 11.652 607 106.633 571.1 516.287
1240 0 52.0569 11.3145 589 107.846 571.329 515.222
1241 0 53.0468 11.8386 628 108.935 571.381 514.788
1242 0 54.0308 11.2528 608 107.012 570.785 512.104
1243 0 56.0721 11.1642 626 105.182 572.045 508.366
1244 0 57.0492 10.8853 621 106.633 570.837 513.14
1245 0 59.0321 12.0612 712 102.937 571.479 511.865
1246 0 62.0367 12.009 745 103.051 570.052 510.678
1247 0 66.0714 11.7903 779 103.865 570.205 509.392
1248 0 67.0542 12.6465 848 104.228 569.658 507.879
1249 0 68.0619 12.1507 827 102.209 570.516 507.086
1250 0 71.0386 12.3736 879 102.618 570.313 507.373
1251 0 76.0391 12.9013 981 100.484 571.135 505.147
1252 0 78.0323 12.8024 999 100.555 571.729 504.086
1253 0 82.0625 13.0754 1073 100.464 571.866 503.121
1254 0 83.0572 13.1355 1091 106.56 571.812 500.104
1255 0 86.073 12.6637 1090 106.955 572.061 498.8
1256 0 89.0564 12.8907 1148 104.443 570.441 497.564
1257 0 92.1221 13.3736 1232 104.52 571.368 494.121
1258 1 48.0114 10.3101 495 96.2929 571.925 517.697
1259 0 47.0577 10.8803 512 97.0644 571.141 514.842
1260 0 49.08 11.2469 552 97.6431 571.582 514.629
1261 0 52.0538 11.5073 599 97.7596 571.105 514.224
1262 0 53.0375 11.9915 636 95.5456 571.838 513.95
1263 0 52.0319 11.6851 608 98.4885 571.062 515.497
1264 0 54.0548 11.8398 640 98.7219 571.177 514.714
1265 0 55.0684 12.0941 666 99.2613 570.326 515.014
1266 0 58.0269 12.3219 715 99.0266 570.199 514.513
1267 0 57.1006 12.7144 726 100.101 570.048 513.404
1268 0 58.0412 12.8357 745 101.552 570.14 514.134
1269 0 61.1158 12.1245 741 103.292 569.912 513.644
1270 0 64.1051 12.6823 813 102.667 570.712 511.91
1271 0 65.0808 13.3373 868 101.844 570.583 510.915
1272 0 68.1278 12.4619 849 104.491 570.589 509.88
1273 0 69.0578 13.2932 918 103.03 571.661 509.247
1274 0 73.07 12.9054 943 104.509 571.335 507.458
1275 0 73.1546 12.6991 929 108.078 571.251 506.175
1276 0 77.0788 13.0646 1007 107.483 570.834 504.62
1277 0 80.03 12.1579 973 108.548 570.826 504.512
1278 1 41.027 10.6028 435 105.763 569.851 523.961
1279 0 40.015 10.4211 417 108.763 570.434 524.139
1280 0 42.0335 11.1578 469 102.748 570.608 522.032
1281 0 44.0157 11.7912 519 100.181 571.075 521.771
1282 0 44.0183 12.1313 534 99.6049 571.552 521.024
1283 0 45.0346 12.1906 549 99.827 571.608 520.579
1284 0 45.0346 12.1906 549 134.801 571.648 520.485
1285 0 49.0593 11.8224 580 95.5672 571.905 519.319
1286 0 48.0717 11.3372 545 95.2312 572.422 520.097
1287 0 51.039 11.1483 569 94.6292 571.953 518.988
1288 0 49.0108 10.7527 527 96.0892 572.482 519.615
1289 0 51.0369 10.7569 549 95.4736 572.319 518.342
1290 0 53.0243 11.3156 600 93.4383 572.125 518.052
1291 0 56.0557 10.4004 583 95.2161 572.199 515.691
1292 0 59.054 11.3794 672 90.9137 571.106 514.833
1293 0 59.0321 10.994 649 92.4314 571.891 514.627
1294 0 61.0435 10.1239 618 93.1731 571.003 514.477
1295 0 63.0373 10.8349 683 92.6471 571.19 512.016
1296 0 66.0256 11.4047 753 90.2908 570.971 512.056
1297 0 67.0769 10.6594 715 91.9049 571.894 509.636
1298 0 70.0941 11.4988 806 89.5074 571.29 510.175
1299 0 70.1013 11.569 811 118.866 571.263 510.088
1300 1 36.1032 9.97143 360 93.8278 571.261 526.558
1301 0 37.0184 10.9405 405 93.5358 570.496 524.931
1302 0 39.0367 11.5276 450 91.82 570.853 524.122
1303 0 40.0205 11.1943 448 94.6138 570.181 523.982
1304 0 38.0041 9.70947 369 99.1545 570.501 523.691
1305 0 40.0633 9.90932 397 98.4131 570.292 524.305
1306 0 41.0219 10.9697 450 96.1178 571.011 523.213
1307 0 45.018 10.7068 482 95.0643 570.986 522.346
1308 0 45.0403 11.1234 501 95.7984 570.802 521.834
1309 0 45.0111 10.7085 482 97.5021 571.533 521.498
1310 0 49.0414 10.7868 529 95.3365 571.214 520.263
1311 0 49.0235 10.5664 518 96.4865 571.241 519.714
1312 0 52.0221 11.3221 589 93.8217 570.44 520.217
1313 0 52.0928 10.9228 569 95.7838 570.518 519.902
1314 0 53.0301 10.56 560 97.1714 570.575 518.748
1315 0 58.0583 10.989 638 94.942 570.227 517.129
1316 0 58.0525 10.3871 603 98.3383 570.214 516.846
1317 0 60.0382 10.8431 651 97.768 571.025 516.114
1318 0 64.0295 10.0735 645 98.631 570.037 514.152
1319 0 67.0426 10.7096 718 96.3579 570.35 513.73
1320 0 66.0208 10.3755 685 98.0774 570.168 511.555
1321 1 37.0568 11.1451 413 94.9879 571.058 526.579
1322 0 38.031 11.4906 437 95.3913 570.217 525.206
1323 0 42.0267 12.04 506 105.073 570.166 523.986
1324 0 39.0135 10.2529 400 98.7925 571.442 525.902
1325 0 39.0221 10.5581 412 99.7621 571.728 525.539
1326 0 40.0319 9.96706 399 100.637 570.602 525.168
1327 0 43.0674 11.1453 480 96.0271 572.338 525.881
1328 0 44.0336 11.1506 491 95.8106 571.041 524.916
1329 0 46.0332 11.47 528 95.8352 569.977 525.254
1330 0 45.092 11.7094 528 96.9716 570.394 524.585
1331 0 48.0182 11.9538 574 95.3206 570.017 524.089
1332 0 48.0504 10.5098 505 97.9822 570.386 524.17
1333 0 50.009 11.5379 577 96.3657 570.676 522.785
1334 0 52.024 11.3025 588 96.2483 571.287 521.876
1335 0 54.0271 11.2166 606 95.9092 570.286 521.182
1336 0 57.0286 10.8367 618 95.0178 571.016 520.474
1337 0 58.0316 10.994 638 94.7085 570.63 518.981
1338 0 60.071 10.9704 659 95.1791 570.724 516.417
1339 0 62.0329 11.4617 711 93.0436 569.736 516.876
1340 0 65.0561 11.7437 764 92.9306 570.4 515.241
1341 0 67.0416 11.3661 762 93.4265 570.2 514.606
1342 0 70.0569 11.4764 804 92.9751 569.835 513.939
1343 0 71.0375 10.5156 747 94.1526 569.635 513.949
1344 0 75.1092 11.0106 827 92.7013 570.103 513.664
1345 1 40.0545 12.0835 484 92.3078 570.717 526.901
1346 0 41.012 12.3135 505 91.3406 570.129 525.052
1347 0 41.0088 11.3634 466 93.6846 570.811 526.5
1348 0 43.0234 11.5054 495 91.9535 570.681 525.305
1349 0 44.0372 11.1724 492 93.2215 570.681 525.604
1350 0 44.0488 11.2148 494 95.1559 569.71 524.717
1351 0 46.0915 10.848 500 95.75 570.116 523.108
1352 0 47.0148 11.6772 549 93.2058 569.721 522.326
1353 0 49.033 11.7472 576 92.9722 569.365 521.472
1354 0 50.0226 11.2949 565 92.7805 569.666 521.184
1355 0 51.0684 11.8077 603 91.3964 569.59 521.181
1356 0 54.0206 11.292 610 91.8852 569.305 519.428
1357 0 54.0414 11.4172 617 92.9562 568.843 517.87
1358 0 56.0351 10.19 571 94.1524 570.24 518.482
1359 0 57.0159 10.7163 611 93.1669 569.912 516.578
1360 0 60.0603 10.989 660 92.4152 569.886 515.329
1361 0 62.0329 10.4138 646 91.5836 569.251 513.862
1362 0 64.0622 11.2078 718 88.7632 570.138 514.116
1363 0 66.0692 10.8523 717 88.6946 569.837 512.625
1364 0 69.0473 10.9201 754 87.2679 569.956 510.714
1365 0 72.0495 11.0202 794 86.505 570.77 510.445
1366 0 73.154 10.061 736 87.9334 569.921 510.893
1367 0 76.0457 10.1781 774 86.8708 570.054 509.832
1368 0 79.026 9.73098 769 87.7087 569.443 507.316
1369 1 44.029 10.6748 470 85.7213 569.383 523.264
1370 0 45.011 10.8418 488 89.7111 569.297 522.326
1371 0 45.0251 11.0161 496 92.3427 570.123 521.623
1372 0 46.0516 10.0974 465 83.3871 569.628 522.129
1373 0 47.0234 9.93122 467 83.1114 570.146 523.762
1374 0 48.0368 10.1381 487 84.0411 569.871 522.922
1375 0 50.0581 9.76865 489 83.6708 570.043 522.174
1376 0 52.034 10.2049 531 82.4652 569.503 519.529
1377 0 54.0408 10.7881 583 77.2333 569.509 520.257
1378 0 54.0248 10.1435 548 82.9617 570.372 520.531
1379 0 55.0123 10.3795 571 80.4851 570.317 520.499
1380 0 55.0269 9.50444 523 84.6941 569.744 520.249
1381 0 55.0405 10.2107 562 86.0747 569.852 519.916
1382 0 55.0185 10.6328 585 86.0325 569.152 519.277
1383 0 54.0157 8.64564 467 88.6702 568.758 517.959
1384 0 55.1103 8.98199 495 86.9333 568.816 518.125
1385 1 28.0331 7.38412 207 86.2802 569.415 529.304
1386 0 30.0151 7.52954 226 84.146 569.62 529.513
1387 0 30.0201 7.32842 220 82.2136 569.282 530.745
1388 0 29.0491 7.36683 214 80.743 569.589 531.257
1389 0 32.0032 8.12419 260 78.5962 568.4 528.892
1390 0 33.0197 9.02491 298 77.5872 568.312 528.05
1391 0 34.02 9.61198 327 78.0642 568.471 528.318
1392 0 34.0143 8.87862 302 80.0166 569.728 527.099
1393 0 35.0068 8.4555 296 81.1723 568.73 525.98
1394 0 36.0437 7.93481 286 82.8462 569.329 524.087
1395 0 37.0122 9.02405 334 83.0808 569.425 524.5
1396 1 0 0 1 79 569 504
1397 1 38.03 8.5459 325 89.0215 569.652 523.803
1398 0 41.0182 8.58155 352 90.3693 569.352 522.784
1399 0 42.0209 9.01933 379 91.628 569.459 522.322
1400 0 43.0218 8.57705 369 94.477 568.447 521.921
1401 0 42.0199 8.54356 359 98.1588 569.078 520.744
1402 0 45.0218 8.68468 391 98.7775 568.99 519.568
1403 0 46.0157 9.88793 455 99.4637 568.706 519.163
1404 0 49.0364 9.84982 483 100.402 568.812 517.209
1405 0 49.0261 9.7907 480 103.115 569.044 517.423
1406 0 50.027 10.0346 502 105.896 569.992 517.135
1407 0 55.0369 10.0115 551 107.766 569.258 516.098
1408 0 56.0441 9.90292 555 112.757 569.542 514.51
1409 0 58.0618 10.4888 609 114.021 569.317 515.236
1410 0 61.0436 10.3369 631 116.391 569.132 513.932
1411 0 62.0351 10.3812 644 118.874 568.925 512.331
1412 0 61.0161 10.3251 630 121.335 569.641 510.835
1413 0 64.0295 10.7919 691 122.145 569.036 510.44
1414 0 67.0639 11.586 777 120.236 568.348 511.51
1415 0 68.0292 11.7597 800 120.438 569.34 509.431
1416 0 71.0333 11.2905 802 123.095 568.302 509.867
1417 0 73.043 11.3221 827 123.312 569.196 509.452
1418 0 75.04 11.4606 860 124.074 568.385 508.615
1419 0 76.0413 11.1124 845 125.219 568.673 507.604
1420 0 77.0283 11.0998 855 126.142 569.288 506.92
1421 0 80.0352 10.7952 864 125.554 569.716 506.301
1422 0 84.0473 11.7672 989 120.941 569.493 505.048
1423 0 86.0399 11.5528 994 121.353 569.191 503.111
1424 0 88.1287 11.0066 970 122.841 570.018 502.426
1425 0 91.032 12.3034 1120 120.235 569.037 501.576
1426 0 92.0412 12.0598 1110 120.787 569.418 500.352
1427 0 96.0916 12.3944 1191 119.124 569.197 500.403
1428 0 96.0411 12.3072 1182 119.574 570.181 498.2
1429 0 99.0755 12.4955 1238 118.352 569.584 498.755
1430 0 100.025 11.6971 1170 122.61 570.286 497.451
1431 0 102.024 12.4677 1272 120.06 570.112 496.526
1432 0 103.048 12.1496 1252 120.33 570.42 495.571
1433 0 105.066 12.849 1350 119.781 570.158 494.324
1434 0 106.053 11.9752 1270 125.496 569.632 492.698
1435 0 109.077 12.4316 1356 124.277 569.03 491.974
1436 0 110.097 12.7524 1404 125.007 569.353 491.11
1437 0 111.068 12.7669 1418 127.146 569.654 489.274
1438 0 114.047 12.9508 1477 127.334 569.187 489.52
1439 0 117.107 13.176 1543 127.959 569.582 488.511
1440 0 119.097 12.4688 1485 132.205 569.834 487.5
1441 0 121.087 12.7429 1543 134.272 569.817 485.929
1442 0 122.093 12.8918 1574 137.307 570.33 482.574
1443 1 61.036 10.7641 657 133.3 570.601 513.473
1444 0 63.049 10.8804 686 132.093 569.905 513.637
1445 0 64.0344 11.6031 743 131.938 569.812 512.505
1446 0 65.0563 12.4661 811 131.746 569.455 512.001
1447 0 67.0483 11.9168 799 133.892 570.185 512.229
1448 0 67.0549 12.184 817 137.805 569.308 510.31
1449 0 70.0859 11.8854 833 139.227 569.732 511.322
1450 0 69.0831 12.2751 848 142.267 570.288 510.63
1451 0 74.09 12.4578 923 153.452 569.961 509.013
1452 0 73.0512 12.5802 919 142.072 571.226 507.34
1453 0 76.0492 12.15 924 144.319 570.664 506.742
1454 0 77.0595 13.0159 1003 142.321 570.958 506.197
1455 0 78.0903 12.3831 967 146.827 570.546 505.19
1456 0 79.1208 12.7653 1010 146.549 570.552 504.125
1457 0 83.1079 12.4778 1037 149.618 569.955 502.263
1458 0 86.0622 12.7582 1098 155.164 569.891 501.631
1459 0 86.1078 12.7747 1100 152.79 569.436 500.919
1460 0 88.0859 12.8624 1133 150.51 570.757 499.764
1461 0 90.0967 12.6753 1142 149.936 570.38 497.84
1462 1 45.0465 10.4781 472 150.415 571.328 520.744
1463 0 45.0095 10.7533 484 149.056 571.285 519.893
1464 0 47.0172 11.5277 542 136.958 571.146 520.629
1465 0 45.0435 11.0338 497 137.545 571.803 520.698
1466 0 46.0337 10.2534 472 138.867 570.282 520.138
1467 0 45.0681 10.6949 482 138.463 570.398 520.322
1468 0 48.0284 10.7436 516 136.368 570.374 518.971
1469 0 49.0245 10.9129 535 135.91 569.678 518.839
1470 0 50.0482 10.7896 540 135.331 569.693 518.783
1471 0 50.0783 10.4436 523 135.912 569.059 518.377
1472 0 53.0495 10.33 548 133.396 570.482 517.872
1473 0 53.0786 10.3808 551 134.59 569.628 517.24
1474 0 57.0292 10.3982 593 132.516 570.567 514.707
1475 0 57.0734 10.2149 583 131.693 569.539 514.196
1476 0 60.0715 10.887 654 128.275 569.972 513.297
1477 0 61.0648 10.3988 635 129.328 569.992 513.331
1478 1 31.0027 11.0635 343 129.163 570.297 526.041
1479 0 31.0061 10.1593 315 132.387 570.283 524.638
1480 0 33.0023 10.7265 354 128.681 570.588 523.929
1481 0 34.01 11.085 377 126.966 569.875 523.037
1482 0 32.0015 11.2182 359 125.07 569.571 525.811
1483 0 32.037 10.3006 330 129.448 569.636 526.148
1484 0 33.0139 10.4804 346 128.613 570.199 525.04
1485 0 33.0258 10.2344 338 130.352 569.234 524.985
1486 0 34.0521 10.3371 352 130.097 571.634 523.974
1487 0 35.0239 11.1353 390 125.646 570.895 524.944
1488 0 36.0027 10.6659 384 128.513 570.906 523.688
1489 0 38.026 12.1496 462 121.268 571.571 522.017
1490 0 41.0228 11.2133 460 121.776 571.283 521.172
1491 0 42.0323 11.848 498 121.361 571.287 519.022
1492 0 44.0243 11.8571 522 120.098 570.709 518.303
1493 0 45.0543 11.9412 538 119.571 571.249 517.414
1494 0 46.0639 11.9182 549 129.084 569.665 515.993
1495 0 48.1084 11.5365 555 129.665 569.762 515.486
1496 0 47.086 12.0418 567 128.915 570.619 516.929
1497 0 50.0389 12.2305 612 126.029 569.788 516.676
1498 0 51.0848 12.3129 629 123.881 569.134 515.72
1499 0 52.0841 12.4414 648 122.759 569.201 514.423
1500 0 52.0788 12.1163 631 124.964 569.559 511.623
1501 0 54.0816 11.6491 630 125.006 570.219 511.865
1502 0 56.031 11.8149 662 122.344 570.556 509.932
1503 0 57.034 12.0455 687 121.849 569.763 508.298
1504 0 58.0679 12.4165 721 119.681 570.645 507.734
1505 0 61.101 12.0456 736 118.279 569.469 508.948
1506 0 63.1117 12.2798 775 115.587 569.624 508.564
1507 0 65.1153 12.4241 809 114.768 569.335 507.227
1508 0 67.1768 12.0577 810 114.386 570.233 507.273
1509 0 69.1644 11.9715 828 113.733 570.581 507.243
1510 0 70.16 11.8729 833 113.155 570.484 505.911
1511 0 75.144 12.4827 938 108.232 569.727 506.296
1512 1 37.0489 10.3917 385 109.322 569.501 522.06
1513 0 40.0791 10.7787 432 106.845 569.569 521.322
1514 0 40.0441 10.8131 433 106.185 569.912 520.804
1515 0 42.0239 11.2079 471 102.493 570.284 521.229
1516 0 42.04 12.2502 515 98.435 569.891 520.711
1517 0 46.0377 12.6418 582 96.8144 570.443 519.361
1518 0 45.0634 11.9831 540 100.987 570.315 518.869
1519 0 47.0323 11.8004 555 100.75 570.259 517.775
1520 0 47.069 11.515 542 103.157 570.026 517.181
1521 0 49.0478 11.5194 565 104.598 569.904 516.494
1522 0 49.0183 11.6895 573 104.466 569.377 515.449
1523 0 54.0411 11.9168 644 99.8354 570.146 516.025
1524 0 53.0956 12.5434 666 101.093 569.176 515.383
1525 0 54.0241 12.2908 664 101.693 569.815 514.09
1526 0 57.0916 12.7865 730 100.734 570.384 513.374
1527 0 59.1723 12.6411 748 101.714 569.926 512.809
1528 0 61.0713 12.8866 787 101.33 570.596 511.426
1529 0 62.0495 13.038 809 100.956 570.686 511.492
1530 0 65.0441 13.0527 849 100.594 571.055 510.936
1531 0 65.0441 13.0681 850 142.378 571.065 510.9
1532 0 71.0554 13.3135 946 99.0624 571.372 510.318
1533 0 70.0398 13.4638 943 100.171 570.621 509.79
1534 0 73.0542 13.1957 964 101.651 570.417 508.117
1535 0 77.0325 13.7994 1063 101.993 568.967 505.427
1536 0 79.0645 13.6091 1076 102.048 569.646 505.06
1537 0 86.0443 15.2712 1314 97.1484 569.393 501.18
1538 0 87.0614 13.5766 1182 102.459 570.103 501.931
1539 1 42.0223 12.1602 511 111.714 569.973 521.141
1540 0 45.0698 12.7802 576 108.023 570.035 521.792
1541 0 45.0108 13.4412 605 109.345 570.416 520.45
1542 0 45.0108 13.4634 606 164 570.427 520.475
1543 0 51.0259 13.4638 687 111.099 570.792 518.764
1544 0 50.0102 13.4773 674 115.374 570.42 517.947
1545 0 52.0365 13.6058 708 114.63 570.335 515.486
1546 0 54.0137 13.8113 746 113.008 569.712 516.151
1547 0 56.0251 13.6903 767 114.205 570.068 516.138
1548 0 55.0048 13.7806 758 115.587 569.529 515.619
1549 0 59.019 13.555 800 113.974 569.636 512.03
1550 0 60.0208 13.462 808 114.005 569.252 511.342
1551 0 63.0285 13.6764 862 111.839 569.716 511.302
1552 0 64.0317 14.0087 897 110.764 569.81 510.592
1553 0 65.0266 13.3945 871 113.661 570.155 508.781
1554 0 66.0236 13.0862 864 115.513 570.103 507.608
1555 0 67.05 13.9746 937 112.899 569.63 506.839
1556 0 70.0335 13.6792 958 112.095 570.222 507.12
1557 0 75.0511 14.6034 1096 106.773 570.305 506.2
1558 0 76.0452 13.7418 1045 109.584 570.285 505.834
1559 0 79.0913 14.6034 1155 106.722 570.377 504.484
1560 0 83.0897 14.4422 1200 105.564 570.898 503.418
1561 0 83.0334 14.1148 1172 107.527 569.799 501.387
1562 0 87.0479 14.0727 1225 107.077 570.589 500.033
1563 0 90.0429 14.3154 1289 108.782 569.693 498.777
1564 0 94.0437 13.8127 1299 107.724 569.925 496.806
1565 0 96.0669 14.2193 1366 106.441 570.348 494.759
1566 0 99.1797 13.6117 1350 107.836 570.299 494.203
1567 1 52.0239 11.6293 605 108.927 571.008 517.578
1568 0 54.031 12.5113 676 106.759 570.91 515.383
1569 0 56.019 12.5493 703 106.893 570.999 514.404
1570 0 59.0126 13.4209 792 104.069 570.242 512.109
1571 0 60.0574 13.2873 798 103.652 569.952 512.226
1572 0 60.0258 13.2776 797 104.783 570.054 511.602
1573 0 65.0259 14.3174 931 99.7669 570.25 508.995
1574 0 64.0747 12.9848 832 105.552 569.731 508.718
1575 0 69.0164 13.3881 924 103.128 570.249 507.32
1576 0 70.0363 13.1646 922 105.418 570.64 506.672
1577 0 72.027 13.5088 973 104.541 570.49 505.193
1578 0 73.0193 13.6539 997 103.776 570.701 504.616
1579 0 76.026 13.3375 1014 104.396 570.313 502.653
1580 0 81.0507 13.5964 1102 102.227 570.789 501.265
1581 0 82.0233 13.167 1080 103.713 570.015 499.177
1582 0 86.0868 13.7652 1185 100.979 570.159 497.926
1583 0 89.0737 13.0903 1166 101.704 569.368 497.6
1584 0 92.0373 13.4619 1239 102.001 569.317 495.898
1585 1 49.0686 11.4126 560 99.1893 569.65 517.77
1586 0 49.0427 11.6021 569 100.917 569.935 516.671
1587 0 52.0297 11.8971 619 102.973 570.284 515.711
1588 0 54.0338 11.8814 642 103.134 569.822 514.391
1589 0 56.051 13.1844 739 101.853 570.418 511.788
1590 0 55.043 12.3903 682 108.507 570.157 512.025
1591 0 59.0303 12.6037 744 107.29 569.878 511.247
1592 0 60.0729 12.9676 779 105.041 569.086 511.426
1593 0 62.037 13.0729 811 106.811 569.334 509.486
1594 0 63.0522 12.7831 806 108.958 569.349 509.112
1595 0 67.0387 13.2759 890 106.169 569.638 508
1596 0 68.0693 13.1337 894 107.447 569.31 508.218
1597 0 72.0419 13.7836 993 105.233 569.07 505.449
1598 0 73.0132 13.1757 962 107.74 569.483 504.824
1599 0 73.0277 13.6113 994 107.077 569.542 503.936
1600 0 76.0364 13.2831 1010 108.098 570.181 502.617
1601 0 81.064 13.2118 1071 106.337 569.619 501.582
1602 0 82.0721 13.4394 1103 106.134 570.184 499.856
1603 0 86.0992 14.1465 1218 102.304 569.429 499.043
1604 0 88.1161 13.7886 1215 104.621 569.159 496.88
1605 0 89.1168 13.2186 1178 106.705 568.793 494.891
1606 0 94.1028 13.6978 1289 103.649 569.62 493.923
1607 0 96.0836 13.457 1293 102.623 569.492 491.834
1608 0 100.118 13.4841 1350 100.404 570.082 489.552
1609 1 53.058 10.8937 578 99 569.294 510.746
1610 0 52.0658 9.87212 514 99.1907 569.712 508.119
1611 0 54.0498 11.0269 596 94.3054 569.723 505.874
1612 0 58.0188 11.255 653 92.2358 569.031 510.158
1613 0 59.0352 11.4508 676 90.5902 568.879 510.726
1614 0 61.0229 11.2745 688 91.9419 569.169 509.174
1615 0 64.0522 11.7248 751 90.4061 569.009 508.675
1616 0 66.0237 11.3596 750 91.5133 569.967 507.816
1617 0 66.0359 11.2515 743 92.6178 569.661 506.178
1618 0 67.0404 10.9486 734 93.6226 569.594 505.82
1619 0 71.0478 11.5134 818 90.5098 570.071 505.867
1620 0 72.0469 11.0206 794 92.4912 569.293 503.111
1621 0 76.0299 12.1268 922 90.0217 568.992 501.972
1622 0 77.0394 11.241 866 91.9018 568.434 500.047
1623 0 80.1085 11.3596 910 91.922 568.42 498.285
1624 0 82.0314 11.5078 944 91.9269 569.857 497.477
1625 0 85.0424 11.3943 969 91.5872 569.058 494.828
1626 0 89.0499 11.3532 1011 90.1523 569.834 493.607
1627 0 92.0559 11.5473 1063 89.1919 570.006 492.804
1628 0 95.0517 11.0992 1055 90.5403 569.99 490.235
1629 0 97.0847 11.3406 1101 91.6385 569.241 488.8
1630 0 101.041 10.8768 1099 93.2348 569.391 489.283
1631 1 56.0086 10.7483 602 91.2475 568.493 510.296
1632 0 60.0267 11.4449 687 94.4192 568.623 507.09
1633 0 59.0339 10.621 627 86.7193 569.091 508.7
1634 0 62.0228 10.2543 636 87.0692 569.19 508.373
1635 0 65.0253 10.9342 711 84.9437 569.716 506.53
1636 0 67.0322 11.2632 755 84.6636 569.348 505.468
1637 0 68.0567 11.0643 753 86.0146 570.38 503.243
1638 0 70.0411 10.2368 717 87.0809 569.275 503.522
1639 0 74.0519 11.1003 822 86.1448 569.849 501.069
1640 0 76.096 11.5249 877 86.6408 569.81 500.82
1641 0 77.0277 11.3206 872 88.7351 568.912 499.633
1642 0 81.1387 11.5851 940 89.5298 569.027 497.794
1643 0 85.0701 11.9196 1014 96.43 568.812 497.232
1644 0 88.1229 11.8244 1042 96.3071 568.932 494.542
1645 0 89.0424 12.0392 1072 95.4711 568.754 494.139
1646 0 93.0255 11.3195 1053 95.7654 569.599 491.756
1647 0 96.0904 11.3539 1091 96.0394 569.59 490.936
1648 1 51.0205 9.34918 477 92.3983 570.059 514.382
1649 0 53.0234 9.5241 505 89.5782 569.79 513.208
1650 0 53.0327 10.0693 534 85.7584 570.122 512.695
1651 0 54.1022 10.5541 571 85.303 569.431 510.424
1652 0 54.028 9.80972 530 85.9057 569.234 513.109
1653 0 54.042 9.67767 523 87.3652 569.025 511.61
1654 0 57.0248 10.0658 574 86.9686 569.479 510.127
1655 0 59.0439 10.1958 602 87.4269 568.816 508.407
1656 0 60.0255 10.5622 634 86.295 568.984 507.361
1657 0 60.0396 9.87682 593 88.5868 568.715 507.693
1658 0 62.0196 10.4967 651 88.1628 568.653 506.571
1659 0 64.0595 10.0375 643 88.2706 570.04 508.244
1660 0 65.0283 10.3647 674 87.2952 569.736 507.886
1661 0 68.0188 10.056 684 88.0702 570.292 506.349
1662 0 71.03 10.5167 747 87.7523 569.969 501.616
1663 0 73.0404 10.4052 760 86.1697 570.025 502.35
1664 0 77.071 11.0547 852 85.3427 568.904 500.69
1665 0 77.0358 10.3718 799 88.0325 569.514 500.17
1666 0 82.0647 11.235 922 85.6302 568.375 499.152
1667 0 80.0798 9.86516 790 91.1203 568.618 495.429
1668 0 86.0284 10.822 931 88.0097 568.945 495.1
1669 0 89.0771 11.4171 1017 87.0384 569.184 494.003
1670 0 91.0878 10.5503 961 89.6556 568.745 491.602
1671 0 94.0777 10.4488 983 90.3204 568.517 491.237
1672 0 95.0803 10.5911 1007 91.7398 568.817 488.267
1673 0 98.0738 10.3086 1011 93.1503 569.007 488.866
1674 0 99.0588 10.5695 1047 93.7841 568.962 487.936
1675 0 104.046 11.0143 1146 91.0515 569.031 485.658
1676 0 107.094 11.0184 1180 90.7737 569.086 482.416
1677 0 108.085 10.2142 1104 93.4475 569.041 482.514
1678 0 113.074 10.5595 1194 91.4489 568.58 480.446
1679 0 118.19 10.9654 1296 91.0548 568.894 478.214
1680 1 61.0354 9.19138 561 94.2032 569.513 501.474
1681 0 59.0399 9.65449 570 92.786 569.333 499.795
1682 0 64.0483 10.1174 648 91.9938 570.651 498.714
1683 0 68.0231 10.7904 734 91.3283 570.035 500.629
1684 0 71.0246 10.5879 752 90.9734 568.922 499.799
1685 0 69.0171 9.31653 643 83.3764 570.151 503.198
1686 0 73.0228 9.53127 696 82.2486 570.234 501.221
1687 0 74.0734 8.41057 623 83.427 570.929 501.814
1688 0 78.0735 9.27331 724 82.4558 570.279 499.675
1689 0 81.0707 9.25118 750 82.2293 570.229 498.429
1690 0 83.1066 9.2652 770 81.6948 569.905 497.273
1691 0 88.0491 9.85814 868 79.2661 570.683 498.115
1692 0 89.1062 9.77485 871 80.3617 570.271 493.675
1693 0 93.1818 10.4312 972 78.4578 570.802 493.211
1694 0 95.1273 9.89201 941 79.1392 570.232 492.667
1695 0 98.1201 10.5993 1040 77.9596 571.089 489.638
1696 0 101.098 10.1288 1024 78.75 569.938 488.745
1697 0 104.177 9.9734 1039 79.4783 570.753 486.446
1698 0 107.116 9.92385 1063 79.5503 570.278 486.182
1699 0 108.112 9.24044 999 80.6526 570.496 483.179
1700 0 112.081 9.70728 1088 79.409 570.767 483.343
1701 0 117.16 9.7559 1143 78.5039 571.178 481.921
1702 0 122.113 10.4903 1281 83.1967 570.51 476.103
1703 0 126.108 10.951 1381 82.1513 569.808 475.866
1704 0 129.118 10.1535 1311 83.4188 570.341 471.963
1705 0 131.163 11.2379 1474 81.8487 570.705 470.586
1706 0 134.129 10.2811 1379 83.8869 569.74 466.924
1707 0 139.171 9.65716 1344 85.5558 569.537 467.158
1708 0 145.184 10.869 1578 83.4189 569.728 464.113
1709 0 149.326 11.0095 1644 83.719 569.814 461.105
1710 0 151.344 9.95744 1507 86.775 569.949 459.305
1711 0 157.279 10.8406 1705 85.2229 569.86 454.576
1712 0 158.225 10.3334 1635 87.8 570.445 449.924
1713 0 164.275 10.7807 1771 87.2428 569.676 448.537
1714 0 169.272 11.4608 1940 86.1495 570.568 450.088
1715 0 175.257 11.3662 1992 86.0763 570.021 447.074
1716 0 179.237 11.2086 2009 86.9617 570.226 442.46
1717 0 186.287 11.4608 2135 86.7485 569.552 442.434
1718 0 191.332 11.3416 2170 88.347 570.566 438.355
1719 0 195.311 11.8376 2312 88.0091 569.349 435.033
1720 0 201.361 11.318 2279 88.9991 570.656 434.097
1721 0 207.375 11.2935 2342 89.8356 570.067 425.305
1722 1 150.131 9.51167 1428 84.3831 570.763 461.665
1723 0 156.187 10.0328 1567 84.1404 570.546 458.549
1724 0 159.194 10.5908 1686 84.3897 570.349 454.195
1725 0 165.166 10.2745 1697 85.4932 569.76 452.672
1726 0 167.145 10.3802 1735 85.8813 569.941 445.588
1727 0 174.156 10.4446 1819 84.3211 569.702 442.044
1728 0 176.123 10.3053 1815 85.422 569.195 438.483
1729 0 181.152 10.3063 1867 86.7488 569.326 433.041
1730 1 193.238 11.1986 2164 85.4686 569.054 439.486
1731 0 200.185 10.825 2167 84.3669 568.961 435.213
1732 0 208.214 11.3825 2370 83.4131 569.552 435.429
1733 0 211.306 11.339 2396 85.6811 569.858 430.207
1734 1 151.22 10.4814 1585 87.6473 569.759 460.854
1735 0 153.241 10.7935 1654 87.0804 569.04 455.129
1736 0 157.242 10.7986 1698 86.3787 570.18 447.494
1737 0 162.183 10.5005 1703 82.7023 569.231 443.767
1738 0 168.241 10.8119 1819 81.1061 570.374 452.252
1739 0 173.154 11.048 1913 81.8887 570.501 445.257
1740 0 178.27 11.0451 1969 85.0259 570.871 440.93
1741 0 183.383 10.8353 1987 86.5234 569.832 435.563
1742 0 189.2 11.0042 2082 87.5917 570.723 433.835
1743 0 194.205 11.2922 2193 87.9881 569.777 431.83
1744 0 200.356 11.4097 2286 88.2441 570.497 427.772
1745 0 206.216 11.6334 2399 88.253 570.017 424.943
1746 0 211.325 11.9484 2525 88.3548 569.982 423.685
1747 0 216.289 11.8822 2570 89.8412 570.772 420.004
1748 0 222.318 11.9108 2648 91.3863 570.19 416.099
1749 0 230.332 12.1954 2809 91.2542 570.027 413.395
1750 0 236.312 12.8643 3040 90.5003 569.525 409.997
1751 0 242.423 12.8206 3108 91.7494 569.53 407.008
1752 0 250.303 12.9843 3250 92.5625 569.359 404.174
1753 0 255.364 13.2164 3375 93.6062 569.452 397.718
1754 0 264.368 13.5152 3573 92.4478 568.531 394.757
1755 0 270.368 12.7456 3446 95.0514 569.695 392.514
1756 0 280.31 12.6503 3546 95.1765 569.313 387.375
1757 0 290.331 13.1643 3822 95.3543 569.336 381.677
1758 0 298.27 13.6487 4071 93.8747 569.278 379.423
1759 1 236.229 9.93105 2346 94.1743 569.96 417.587
1760 0 244.258 11.2422 2746 93.551 569.774 410.776
1761 0 251.368 11.3101 2843 94.9849 570.133 406.128
1762 0 257.368 11.6759 3005 95.5757 569.188 401.456
1763 0 266.313 12.1098 3225 96.1529 569.726 395.25
1764 0 272.271 11.9734 3260 96.7721 569.221 392.393
1765 0 279.269 11.8595 3312 98.1911 569.76 387.238
1766 0 287.171 11.6795 3354 98.5623 568.358 381.084
1767 0 296.214 12.2412 3626 97.27 568.623 379.136
1768 0 302.255 11.4043 3447 101.024 568.692 371.728
1769 0 312.351 12.0922 3777 100.097 568.502 369.181
1770 0 319.305 12.759 4074 100.502 569.01 362.714
1771 0 326.26 14.3137 4670 95.5889 568.939 353.861
1772 0 335.409 14.2811 4790 96.3392 569.72 349.256
1773 0 342.363 14.3765 4922 97.4015 568.946 344.957
1774 0 351.333 14.7979 5199 99.1329 569.382 334.114
1775 1 57.0962 9.21253 526 75.3023 568.749 505.407
1776 0 56.063 8.65098 485 71.8804 569.082 506
1777 0 58.0266 8.06527 468 70.2137 567.688 503.759
1778 0 61.04 9.25623 565 68.8602 569.602 506.064
1779 0 64.0273 9.0274 578 69.3028 569.737 503.915
1780 0 66.0497 10.1742 672 68.2589 570.342 502.719
1781 0 67.1198 9.78846 657 69.3349 570.065 500.699
1782 0 70.0803 10.2311 717 69.3724 570.459 500.782
1783 0 71.0481 9.61321 683 71.7028 568.922 499.704
1784 0 77.1562 11.8072 911 65.3392 570.066 493.492
1785 0 74.1096 9.41848 698 72.4513 569.698 495.948
1786 0 410.005 14.3803 5896 102.218 570.334 296.857
1787 0 411.964 14.5668 6001 101.042 569.844 297.001
1788 0 411.713 14.753 6074 100.263 569.96 298.477
1789 0 89.0813 11.4278 1018 68.6739 569.849 489.761
1790 0 88.1205 10.0544 886 73.7257 569.313 492.299
1791 0 85.0276 7.11534 605 79.0116 568.307 490.197
1792 1 48.0541 8.13667 391 77.6266 569.877 513.269
1793 0 50.0383 8.91318 446 76.2803 569.89 512.105
1794 0 56.087 11.8566 665 68.5383 568.45 514.024
1795 0 60.187 12.3449 743 68.3284 569.164 512.634
1796 0 58.2047 11.786 686 73.9504 569.459 511.79
1797 0 63.1551 13.6806 864 60.1435 569.138 511.315
1798 0 63.1387 12.7814 807 66.9777 569.476 509.188
1799 0 63.1314 13.1155 828 63.779 569.025 509.986
1800 0 65.0701 12.7247 828 64.9275 568.11 509.568
1801 0 61.1341 10.7142 655 71.2015 569.127 510.919
1802 0 63.0861 10.9533 691 70.5355 568.946 510.316
1803 0 64.1016 10.8578 696 70.9066 568.92 510.295
1804 0 67.1149 11.5325 774 69.6421 568.835 508.612
1805 0 71.0325 12.3042 874 70.2746 570.343 505.839
1806 0 72.0807 12.2363 882 70.9036 570.73 505.373
1807 0 73.0712 12.5768 919 70.6757 570.744 504.333
1808 0 75.0944 12.3711 929 71.4876 570.135 502.973
1809 0 76.093 12.6556 963 71.7944 570.641 502.583
1810 0 78.0482 14.1836 1107 69.2294 570.08 503.195
1811 0 80.0916 12.211 978 71.6575 570.319 500.236
1812 0 81.0486 12.2519 993 71.2941 569.374 499.048
1813 0 85.0869 12.9632 1103 70.1641 569.522 497.772
1814 0 87.1166 12.7989 1115 70.7821 569.764 498.15
1815 0 86.0875 12.4292 1070 71.8953 569.291 495.828
1816 0 89.0605 12.7666 1137 71.1064 569.827 494.509
1817 0 93.1143 13.2847 1237 71.4188 569.929 493.972
1818 0 97.1017 12.9658 1259 75.8999 569.782 491.66
1819 0 99.1433 12.6282 1252 76.6054 569.814 490.441
1820 0 102.15 13.0788 1336 75.0269 570.125 488.891
1821 0 104.127 12.1679 1267 78.4167 570.26 487.907
1822 0 106.165 12.1979 1295 79.0819 569.467 485.406
1823 0 111.175 12.8806 1432 77.3994 569.689 482.399
1824 0 112.184 12.8004 1436 78.0216 569.246 479.765
1825 1 59.0935 11.4564 677 76.709 569.354 505.461
1826 0 60.0607 11.8713 713 77.1094 569.157 506.599
1827 0 63.0304 11.8356 746 77.8338 568.493 505.701
1828 0 62.0306 12.0908 750 79.2373 568.661 504.229
1829 0 66.0768 12.2433 809 78.7614 569.384 504.737
1830 0 68.0522 12.461 848 79.0507 569.578 503.82
1831 0 69.0378 12.7611 881 79.3008 569.534 502.016
1832 0 72.0928 12.8584 927 79.4304 569.195 502.72
1833 0 73.0523 13.3603 976 79.4129 569.878 500.877
1834 0 74.0312 13.035 965 81.2207 569.96 500.105
1835 0 78.142 13.2323 1034 80.6915 569.725 500.021
1836 0 80.0685 13.0014 1041 85.6657 569.444 496.789
1837 0 82.0845 13.7663 1130 84.8832 569.342 496.402
1838 0 84.0808 13.2848 1117 86.3733 569.689 495.098
1839 0 87.0484 13.4523 1171 86.7814 569.668 493.672
1840 0 89.105 13.6132 1213 87.9406 569.472 491.814
1841 0 93.0816 13.7944 1284 87.6978 569.806 491.984
1842 0 94.177 13.2729 1250 86.4864 569.504 490.165
1843 0 96.1345 13.5123 1299 85.7421 569.714 489.373
1844 0 100.087 14.0578 1407 84.9147 570.048 486.077
1845 0 102.215 13.0607 1335 87.2285 570.143 486.518
1846 1 57.142 11.3577 649 86.6441 570.132 508.079
1847 0 60.054 12.1224 728 84.2431 569.975 507.283
1848 0 62.144 13.0503 811 81.7448 569.742 506.205
1849 0 63.1128 12.85 811 80.6732 569.938 506.771
1850 0 63.0311 12.2955 775 80.5497 569.293 507.639
1851 0 66.0275 12.101 799 80.4618 569.298 505.038
1852 0 67.0213 12.7571 855 79.5088 569.426 505.011
1853 0 69.0274 12.7486 880 79.8432 569.843 502.732
1854 0 71.0486 12.5407 891 80.0404 569.489 501.889
1855 0 74.022 12.2666 908 80.5055 570.039 501.253
1856 0 74.03 12.5355 928 81.2974 570.003 499.036
1857 0 76.0535 12.5569 955 82.3194 570.498 499.073
1858 0 80.0853 12.4867 1000 82.52 570.724 497.049
1859 0 84.0574 12.9911 1092 80.9881 570.133 495.916
1860 0 85.0215 13.8436 1177 82.554 570.6 494.963
1861 0 87.0682 13.2425 1153 82.1275 570.016 493.731
1862 0 91.053 13.5635 1235 80.9506 570.962 492.137
1863 0 92.1312 12.8512 1184 84.1258 570.287 489.268
1864 0 95.075 12.8741 1224 84.1046 570.047 487.801
1865 0 97.1016 12.523 1216 84.537 570.712 486.358
1866 0 102.075 13.108 1338 83.8184 570.543 484.786
1867 0 103.073 12.6609 1305 85.5103 570.77 482.012
1868 0 108.111 13.1254 1419 83.0289 571.192 479.157
1869 0 110.088 12.926 1423 82.3001 570.968 477.33
1870 1 59.0718 10.902 644 81.5838 570.78 501.211
1871 0 62.0318 11.3974 707 78.8939 571.273 501.089
1872 0 67.1162 11.4279 767 80.5541 570.465 500.297
1873 0 68.1091 11.9955 817 81.5104 570.449 504.009
1874 0 69.073 12.161 840 81.8476 570.433 501.989
1875 0 72.0812 12.3611 891 82.1672 570.736 501.304
1876 0 73.062 12.5373 916 83.321 570.09 499.772
1877 0 77.0788 12.6364 974 82.5267 570.073 498.651
1878 0 79.0736 12.5073 989 83.8584 569.752 496.827
1879 0 82.0933 12.9121 1060 83.8028 570.729 494.758
1880 0 85.1143 13.0648 1112 83.9218 570.184 491.691
1881 0 87.0592 12.8763 1121 84.5549 569.878 490.762
1882 0 89.1077 12.7486 1136 84.8926 570.077 490.097
1883 0 91.0971 13.3045 1212 84.4381 570.44 489.448
1884 0 94.076 13.3509 1256 85.7659 569.641 487.714
1885 0 97.1004 12.8218 1245 88.0779 570.132 486.231
1886 0 99.0539 13.4775 1335 88.0427 570.22 484.54
1887 0 101.08 13.4645 1361 88.1536 569.642 483.062
1888 0 104.094 12.6328 1315 88.4289 570.322 483.262
1889 0 107.07 13.1409 1407 88.7392 570.509 482.505
1890 0 110.079 12.5637 1383 89.3044 570.369 478.184
1891 0 114.101 12.7693 1457 89.8161 570.935 477.612
1892 1 64.0218 11.2306 719 85.4395 570.609 506.157
1893 0 65.0152 11.5819 753 85.6029 571.219 506.681
1894 0 67.0387 11.829 793 83.0277 570.677 506.034
1895 0 71.0666 12.3124 875 83.0537 571.193 504.088
1896 0 72.0586 12.2678 884 84.9785 570.381 503.528
1897 0 75.0485 12.7917 960 85.2094 571.142 502.972
1898 0 77.0397 12.6169 972 87.0432 570.082 501.43
1899 0 81.0873 12.8503 1042 94.7217 570.285 499.616
1900 0 82.0526 12.9064 1059 95.932 570.581 498.837
1901 0 85.039 13.1234 1116 96.5278 570.7 497.817
1902 0 87.0906 13.1472 1145 96.8804 570.273 497.134
1903 0 89.1103 13.5113 1204 96.1429 570.692 496.134
1904 0 91.1008 13.5454 1234 97.7942 570.295 493.379
1905 0 95.0931 12.798 1217 98.392 570.489 494.827
1906 0 96.0596 13.4292 1290 97.4899 569.86 493.202
1907 0 98.0735 13.1432 1289 98.5687 569.955 491.414
1908 0 103.077 13.5142 1393 96.2312 569.847 490.945
1909 0 106.061 13.1151 1391 96.8728 569.892 488.759
1910 0 110.061 13.3926 1474 96.4932 570.015 485.961
1911 0 113.07 13.3458 1509 95.1776 569.976 484.267
1912 0 118.145 13.6612 1614 94.7317 570.239 481.949
1913 1 66.0638 12.2609 810 94.4383 569.431 508.411
1914 0 66.0665 12.8204 847 95.6564 569.22 509.057
1915 0 69.0404 13.369 923 96.6479 569.131 506.683
1916 0 71.0566 13.2289 940 96.3553 569.036 505.903
1917 0 72.0315 13.6052 980 96.8602 569.506 503.448
1918 0 73.0298 13.6246 995 93.8774 569.986 504.444
1919 0 75.0704 12.7747 959 97.1105 569.432 503.509
1920 0 78.0706 13.5518 1058 96.6749 570.585 501.924
1921 0 83.0804 13.7698 1144 96.9851 570.169 500.027
1922 0 86.0638 14.4311 1242 96.3446 570.491 499.159
1923 0 89.1843 14.442 1288 98.7244 569.475 497.18
1924 0 90.0973 13.7962 1243 103.276 570.134 494.415
1925 0 96.1187 13.9515 1341 102.033 569.377 494.847
1926 0 97.0562 13.724 1332 99.6276 570.025 495.961
1927 0 99.0605 13.9612 1383 167.587 571.025 494.764
1928 0 103.07 13.3792 1379 100.364 569.748 490.756
1929 0 107.067 13.4216 1437 99.3104 569.141 489.683
1930 1 63.0497 12.4505 785 103.408 569.2 510.6
1931 0 64.1266 12.3973 795 101.742 569.399 510.517
1932 0 67.0433 13.1408 881 101.551 568.908 510.174
1933 0 68.0453 13.5351 921 101.453 569.033 509.181
1934 0 71.0431 12.6402 898 103.341 569.295 507.79
1935 0 74.0452 13.2487 981 100.061 569.639 507.191
1936 0 75.0463 13.1119 984 101.342 568.64 504.375
1937 0 80.098 13.5334 1084 98.6578 568.581 504.606
1938 0 82.1396 13.4771 1107 100.411 568.914 504.171
1939 0 83.0867 13.5641 1127 100.913 569.257 501.562
1940 0 84.074 12.8339 1079 103.555 569.48 501.492
1941 0 88.0556 13.5937 1197 102.637 567.999 499.998
1942 0 92.1038 13.8322 1274 103.211 568.652 499.309
1943 0 94.0965 13.9856 1316 103.578 567.702 497.647
1944 0 98.0428 13.6981 1343 105.451 567.806 495.918
1945 0 100.11 13.675 1369 106.255 567.546 495.803
1946 0 102.047 13.386 1366 107.455 568.514 493.866
1947 0 104.146 13.2795 1383 108.162 568.986 491.121
1948 0 109.132 13.3142 1453 107.766 568.846 488.444
1949 0 113.157 13.5741 1536 105.773 568.766 489.798
1950 0 113.066 13.6203 1540 107.499 569.158 485.545
1951 0 119.139 13.6815 1630 106.385 568.832 484.812
1952 0 123.082 12.9913 1599 106.099 569.101 483.204
1953 0 125.107 13.4844 1687 104.023 568.592 481.201
1954 0 130.065 13.0627 1699 105.084 568.572 478.182
1955 0 135.075 13.7923 1863 101.826 567.845 477.821
1956 1 69.0413 11.8045 815 97.746 568.876 509.79
1957 0 72.0518 12.4077 894 98.6152 567.941 507.104
1958 0 75.0706 13.5472 1017 98.9302 569.083 505.007
1959 0 78.066 13.0274 1017 102.524 568.656 504.29
1960 0 79.0689 13.2037 1044 103.784 569.056 503.255
1961 0 80.0558 13.3657 1070 106.125 568.776 502.183
1962 0 84.0816 13.4274 1129 106.01 568.804 500.371
1963 0 88.0894 13.6566 1203 105.767 568.282 497.605
1964 0 90.1174 13.2272 1192 107.539 569.293 495.909
1965 0 93.1169 12.9944 1210 106.576 568.236 494.386
1966 0 96.0964 13.1743 1266 105.653 567.887 492.995
1967 0 98.1058 13.0675 1282 106.358 567.431 492.27
1968 0 101.127 12.9441 1309 107.006 567.862 490.564
1969 0 103.145 12.5358 1293 108.879 567.67 489.715
1970 0 106.222 12.5021 1328 109.45 568.123 486.637
1971 0 111.127 12.9222 1436 107.937 568.692 484.771
1972 0 112.129 12.9761 1455 108.966 567.809 483.787
1973 0 117.238 12.9906 1523 107.139 568.63 480.833
1974 0 120.237 13.6397 1640 105.246 568.037 478.524
1975 0 122.135 13.3049 1625 107.13 567.911 476.691
1976 0 128.161 13.2412 1697 106.913 567.795 476.126
1977 0 130.214 13.0093 1694 109.073 568.176 473.179
1978 0 136.214 13.0016 1771 109.435 567.639 470.477
1979 0 140.177 13.2333 1855 108.648 568.611 468.653
1980 0 144.184 13.5452 1953 109.168 567.806 465.552
1981 0 148.296 13.0684 1938 110.367 568.016 463.729
1982 0 153.251 12.92 1980 110.953 568.242 462.844
1983 0 159.271 13.4362 2140 109.665 568.15 458.607
1984 0 162.235 13.2401 2148 111.297 568.858 457.564
1985 0 167.163 13.107 2191 110.777 568.481 455.477
1986 0 172.144 13.6398 2348 109.457 568.498 453.661
1987 0 180.204 13.973 2518 107.904 568.712 452.652
1988 0 185.137 14.0491 2601 107.346 568.65 447.809
1989 0 191.207 14.1156 2699 105.698 568.437 444.563
1990 1 92.1314 12.1674 1121 101.271 568.734 495.085
1991 0 94.105 12.6667 1192 99.9522 568.022 493.211
1992 0 97.1414 12.5693 1221 100.947 567.898 491.26
1993 0 100.109 12.9658 1298 99.0894 567.062 491.955
1994 0 102.147 12.717 1299 99.1447 568.188 489.938
1995 0 107.149 12.6273 1353 98.6179 568.133 488.304
1996 0 111.068 12.6049 1400 98.4207 568.023 485.797
1997 0 114.135 13.1161 1497 97.8818 568.246 483.945
1998 0 116.16 12.457 1447 100.108 568.909 482.62
1999 0 121.134 12.9196 1565 99 568.609 479.866
2000 0 123.155 12.4721 1536 101.33 567.911 478.423
2001 0 127.16 13.1016 1666 100.416 568.556 474.397
2002 0 133.142 13.0537 1738 100.501 567.865 472.541
2003 0 135.359 13.4236 1817 100.942 567.189 469.085
2004 0 142.395 15.0497 2143 96.9305 566.714 464.548
2005 0 144.462 13.3669 1931 102.425 567.71 464.546
2006 0 147.284 13.2941 1958 105.016 567.601 463.417
2007 0 151.46 13.5811 2057 106.221 568.001 460.034
2008 0 157.295 13.7258 2159 106.394 567.986 458.58
2009 0 161.205 13.8333 2230 107.483 568.147 456.137
2010 0 164.22 13.3053 2185 108.997 567.648 455.063
2011 0 170.231 13.84 2356 107.603 568.098 455.077
2012 0 178.231 14.1221 2517 106.617 566.979 451.561
2013 0 182.096 13.8938 2530 107.505 567.734 449.033
2014 0 187.101 13.4099 2509 109.2 567.555 445.468
2015 0 194.118 13.6051 2641 108.782 568.727 442.272
2016 0 200.094 13.5286 2707 109.878 567.609 439.283
2017 0 206.173 13.3529 2753 110.689 568.915 434.454
2018 0 214.273 13.7255 2941 110.897 568.216 431.656
2019 0 221.171 14.378 3180 110.703 568.279 428.113
2020 0 230.195 14.618 3365 109.736 567.716 422.635
2022 0 174.257 12.2233 2130 114.414 567.203 454.71
2023 0 178.199 13.0416 2324 114.767 567.539 449.604
2024 0 187.121 14.0551 2630 109.287 567.613 447.872
2025 0 194.212 14.3812 2793 109.305 567.336 443.296
2026 0 199.245 14.4345 2876 110.288 567.938 440.437
2027 0 203.195 13.5731 2758 114.483 567.664 437.226
2028 0 210.283 14.3045 3008 113.399 568.346 433.642
2029 0 217.33 14.6919 3193 112.654 567.559 430.926
2030 0 222.229 14.1386 3142 114.688 568.27 426.797
2031 0 228.305 13.9638 3188 115.232 567.909 421.516
2032 0 237.256 13.7868 3271 116.667 568.006 418.588
2033 0 247.17 14.6984 3633 114.119 567.495 414.541
2034 1 64.1431 9.75943 626 86.845 567.185 509.89
2035 0 66.1339 10.4787 693 87.6811 568.006 508.994
2036 0 69.1978 10.7373 743 88.2705 567.114 508.078
2037 0 71.0807 11.0719 787 90.2414 568.905 506.766
2038 0 74.0735 10.4491 774 90.1525 568.867 504.702
2039 0 77.0554 10.5898 816 89.7855 568.552 503.74
2040 0 78.1498 10.9661 857 89.8273 568.583 500.559
2041 0 82.0987 10.9502 899 89.5673 568.881 499.786
2042 0 83.1594 10.2213 850 91.7 568.385 499.04
2043 0 87.1172 10.5834 922 91.2777 568.351 497.706
2044 0 87.129 10.2147 890 93.3079 567.408 495.637
2045 0 91.1023 10.3181 940 93.6074 568.178 496.271
2046 0 94.1616 10.397 979 94.8498 567.645 492.964
2047 0 95.2008 10.1785 969 95.9752 568.105 491.244
2048 0 100.204 10.5485 1057 94.6206 568.027 489.244
2049 0 103.089 11.0196 1136 94.2949 568.341 488.827
2050 0 105.142 11.3276 1191 93.6902 568.259 489.569
2051 0 108.136 10.496 1135 96.9348 568.248 486.737
2052 0 109.079 11.047 1205 96.917 568.688 484.442
2053 0 116.15 11.3302 1316 96.2986 568.236 482.571
2054 0 118.152 11.4852 1357 96.9138 568.214 482.406
2055 0 121.106 11.5436 1398 97.9478 567.835 480.622
2056 0 124.147 11.5427 1433 99.0733 567.754 478.195
2057 0 126.129 10.6478 1343 102.56 567.226 475.776
2058 0 134.172 13.9597 1873 92.0609 568.087 466.504
2059 0 135.121 13.0106 1758 96.8618 567.001 469.204
2060 0 139.129 15.1154 2103 90.6448 568.14 469.435
2061 0 143.101 15.1501 2168 90.7952 567.446 468.328
2062 0 145.122 15.2631 2215 92.5688 567.634 465.433
2063 0 150.172 15.5821 2340 92.1226 567.568 463.204
2064 0 153.132 15.0851 2310 94.2775 568.05 462.045
2065 0 157.14 15.8267 2487 93.7169 567.591 460.799
2066 0 160.276 15.9475 2556 93.2449 568.091 459.904
2067 0 164.186 16.2864 2674 92.8325 567.234 454.941
2068 0 169.251 16.1417 2732 93.1343 568.295 455.739
2069 0 172.158 15.5671 2680 96.253 566.83 453.118
2070 0 178.197 16.0384 2858 95.1102 568.056 451.054
2071 0 182.236 15.5732 2838 96.8721 567.121 448.998
2072 0 189.246 17.1576 3247 92.5337 567.488 445.532
2073 0 191.245 15.6658 2996 98.8101 567.811 440.413
2074 0 197.244 16.3351 3222 97.3461 567.979 439.525
2075 0 203.286 16.2776 3309 98.0668 567.353 439.284
2076 0 208.248 16.7013 3478 98.1176 567.65 432.476
2077 0 213.204 16.4444 3506 99.9769 567.055 432.708
2078 0 212.203 13.1289 2786 110.375 567.573 439.229
2079 0 211.142 12.2524 2587 113.196 567.404 440.537
2080 0 230.4 16.302 3756 103.793 567.932 420.65
2081 0 234.19 16.2005 3794 104.693 567.613 418.035
2082 0 241.278 16.2385 3918 104.825 567.77 417.176
2083 0 247.333 15.9865 3954 106.687 568.025 413.815
2084 0 253.265 15.9083 4029 106.491 568.234 408.69
2085 0 261.244 15.7056 4103 103.575 567.71 399.725
2086 0 265.345 14.5735 3867 107.336 567.765 395.294
2087 0 273.206 15.1973 4152 105.674 566.941 394.279
2088 0 279.262 15.5016 4329 106.254 567.608 390.76
2089 0 285.355 15.4019 4395 106.048 567.523 387.501
2090 0 289.287 15.0715 4360 108.549 568.022 381.456
2091 0 298.233 15.0453 4487 109.312 567.865 377.366
2092 0 304.23 15.0183 4569 109.112 568.448 374.054
2093 0 315.241 16.1591 5094 106.503 567.749 369.53
2094 0 320.279 15.4365 4944 108.198 568.203 367.711
2095 0 327.29 15.6986 5138 108.357 568.079 361.443
2096 0 333.242 15.0251 5007 110.808 568.642 359.068
2097 0 342.249 15.3368 5249 111.757 567.595 353.646
2098 0 349.271 15.9904 5585 111.076 568.852 353.559
2099 0 358.287 15.8476 5678 112.226 567.42 351.82
2100 0 365.207 15.3557 5608 115.019 567.877 348.332
2101 0 375.319 15.9384 5982 113.803 567.834 343.192
2102 0 384.241 15.9301 6121 114.284 568.333 337.343
2103 0 395.303 16.3065 6446 113.74 568.699 335.16
2104 0 403.384 15.9947 6452 117.11 568.378 325.922
2105 0 409.323 16.8131 6882 116.671 568.266 318.762
2106 0 409.344 16.6462 6814 118.353 568.395 316.676
2107 0 409.467 16.7999 6879 118.729 568.888 317.029
2108 0 406.454 16.0584 6527 120.368 569.274 312.2
2109 0 404.489 16.3935 6631 121.558 569.15 310.891
2110 0 403.568 16.5053 6661 121.675 569.053 308.545
2111 0 404.59 16.8368 6812 120.951 569.089 308.975
2112 0 395.859 15.8516 6275 125.788 568.17 302.359
