time division length width area intensity CMx CMy
0 0 65.0306 12.1943 793 82.884 428.097 499.375
1 0 68.0245 12.5837 856 80.5561 428.914 498.734
2 0 69.0474 12.2814 848 81.6828 428.979 498.634
3 0 71.0847 12.4921 888 80.3851 428.596 497.528
4 0 72.0514 12.3384 889 79.8054 428.821 496.045
5 0 72.0514 12.3245 888 130.268 428.815 496.079
6 0 76.0485 11.9135 906 80.628 428.7 495.337
7 0 79.0448 13.0053 1028 78.4942 428.708 493.742
8 0 81.0596 13.0028 1054 78.2875 428.787 492.387
9 0 83.0434 12.945 1075 77.8865 427.774 492.246
10 0 84.0401 12.2679 1031 79.0621 429.364 492.322
11 0 88.0499 12.6746 1116 78.1658 427.841 489.942
12 0 91.0975 12.9531 1180 77.0983 428.47 489.222
13 0 92.0556 12.286 1131 78.0018 428.408 485.552
14 0 95.0995 11.8823 1130 78.3363 428.251 487.227
15 0 99.1228 12.3584 1225 77.3926 428.512 483.731
16 0 102.081 12.8231 1309 76.5393 428.163 483.718
17 0 104.063 12.1657 1266 77.97 427.804 481.536
18 0 107.086 12.3732 1325 77.5781 427.82 480.379
19 0 111.113 12.7258 1414 76.413 427.011 479.679
20 0 115.083 12.3477 1421 79.6967 427.025 477.048
21 1 61.0989 11.6532 712 77.1517 427.235 505.833
22 0 62.0166 11.6098 720 79.8972 427.742 504.094
23 0 66.0704 12.2748 811 78.0148 427.073 502.46
24 0 66.0457 12.4156 820 78.9195 427.813 499.937
25 0 70.065 12.5598 880 75.908 427.106 500.995
26 0 73.1059 13.0359 953 77.1584 427.391 499.545
27 0 75.0281 13.2617 995 78.7648 426.98 497.482
28 0 77.0862 13.3746 1031 81.0417 426.638 495.679
29 0 80.0878 12.8983 1033 81.7619 427.112 493.227
30 0 83.1071 13.5247 1124 81.2883 426.131 493.577
31 0 87.1191 13.4069 1168 82.1764 426.295 492.55
32 0 89.1131 13.87 1236 82.6375 425.688 490.028
33 0 92.1016 13.876 1278 84.3975 426.7 487.044
34 0 95.1266 13.7921 1312 85.7317 425.865 487.268
35 0 97.1399 13.3519 1297 88.9391 426.424 484.131
36 0 103.122 13.9446 1438 87.7274 426.026 483.09
37 1 46.0503 11.14 513 87.8012 426 512.273
38 0 45.0163 11.1515 502 89.4024 425.532 510.299
39 0 47.0861 11.8931 560 89.1214 426.273 509.3
40 0 50.0198 11.6954 585 87.9197 425.561 507.807
41 0 50.0592 12.1057 606 84.7409 425.404 509.429
42 0 50.0592 12.1656 609 134.094 426.373 509.504
43 0 53.0178 12.4864 662 85.7704 425.858 508.447
44 0 52.0565 11.7564 612 88.6454 426.474 508.031
45 0 55.0302 12.2115 672 88.4792 426.229 505.75
46 0 58.07 12.2611 712 89.2022 426.392 506.402
47 0 59.0098 12.7775 754 89.4443 425.568 503.131
48 0 61.0254 12.2736 749 90.3218 425.937 503.864
49 0 64.0504 12.8649 824 89.8325 425.416 501.985
50 0 66.0404 13.0223 860 90.4709 426.434 500.028
51 0 68.0567 13.1361 894 89.9687 425.454 498.98
52 0 69.0561 13.3515 922 90.308 425.192 498.851
53 0 72.0831 13.3735 964 90.4191 425.143 498.027
54 0 75.0518 13.4973 1013 90.1431 425.754 497.372
55 0 75.08 13.5855 1020 91.0588 426.228 496.655
56 0 79.0679 13.343 1055 90.3621 427.016 495.786
57 0 81.0939 13.3179 1080 90.5194 426.627 494.115
58 0 84.0385 13.2677 1115 97.3426 426.138 494.917
59 0 88.071 13.1712 1160 90.6888 425.759 493.219
60 0 89.0814 13.6841 1219 91.6891 426.785 491.475
61 0 92.092 13.4648 1240 93.5887 426.929 489.956
62 0 95.0508 13.9294 1324 92.1949 426.179 489.019
63 0 99.0986 13.5118 1339 94.0276 425.389 487.494
64 0 102.107 13.8287 1412 93.2812 426.228 486.629
65 1 55.093 11.889 655 95.9756 426.298 508.71
66 0 56.0963 12.4785 700 94.0214 426.611 508.633
67 0 58.0983 12.5993 732 94.9795 426.298 506.115
68 0 59.1462 13.1538 778 93.1697 426.625 505.244
69 0 61.0467 12.6461 772 90.5829 427.551 506.797
70 0 63.0353 13.1831 831 88.5186 427.815 505.836
71 0 65.0129 13.1666 856 88.5818 427.804 504.072
72 0 66.0935 13.1329 868 89.432 427.096 502.55
73 0 69.0688 13.1608 909 88.8944 426.952 501.226
74 0 70.0186 13.0108 911 89.8606 427.714 500.463
75 0 73.0191 12.8186 936 90.1506 427.907 499.667
76 0 77.0714 13.3253 1027 88.5501 427.058 496.435
77 0 78.0754 12.8209 1001 91.6953 427.531 495.581
78 0 81.0392 13.2405 1073 90.6636 427.779 494.074
79 0 83.0609 13.5202 1123 88.9626 428.182 493.075
80 0 87.0918 12.8255 1117 89.1101 427.886 491.801
81 0 88.0375 13.1648 1159 89.4409 428.491 489.827
82 0 91.0676 13.3308 1214 88.5692 427.501 487.946
83 0 94.0913 13.5188 1272 88.5417 427.965 485.285
84 0 98.0723 13.5206 1326 88.1938 427.699 483.768
85 0 101.073 12.9114 1305 88.21 427.295 482.757
86 0 106.073 13.519 1434 85.8989 427.334 481.72
87 0 108.124 13.4383 1453 86.6442 427.198 477.939
88 0 112.084 13.0794 1466 84.8711 427.732 476.054
89 0 112.048 12.4322 1393 86.2082 427.944 473.577
90 0 118.082 12.5676 1484 88.6813 427.831 473.005
91 0 123.072 12.7893 1574 87.6715 427.095 471.053
92 1 64.0249 12.1203 776 83.6314 427.966 500.119
93 0 66.0094 13.0284 860 81.6395 427.762 501.095
94 0 66.0931 13.0573 863 82.8946 427.518 499.119
95 0 68.0172 12.8203 872 83.6697 426.899 498.132
96 0 73.0296 12.7756 933 83.1061 426.481 498.048
97 0 74.0255 12.8334 950 83.7284 425.928 495.995
98 0 76.1326 13.1087 998 82.0822 426.775 494.363
99 0 77.0228 13.2299 1019 82.6968 427.372 491.037
100 0 80.0268 13.9328 1115 82.783 426.313 490.541
101 0 84.0406 13.4578 1131 82.8603 427.649 489.924
102 0 86.0248 13.9727 1202 82.5724 426.803 487.959
103 0 87.035 13.6037 1184 85.0372 427.664 486.364
104 0 90.0518 13.6588 1230 85.5041 427.363 487.031
105 0 94.0572 14.1191 1328 84.9066 427.996 484.383
106 0 94.0599 14.108 1327 148.579 428.992 484.35
107 0 99.1365 14.0715 1395 84.7828 426.906 480.92
108 0 99.068 13.1728 1305 87.6268 426.254 478.051
109 0 104.044 13.9364 1450 86.1124 426.891 477.555
110 0 108.107 13.5607 1466 86.5082 427.374 476.257
111 0 111.123 14.0745 1564 83.8408 427.281 472.175
112 0 115.074 13.7564 1583 84.3626 427.32 471.111
113 0 117.106 13.5348 1585 85.9161 427.707 468.131
114 0 125.094 13.6537 1708 85.7927 427.07 466.242
115 1 65.0207 10.8888 708 83.7302 426.113 501.758
116 0 68.0881 11.9551 814 84.6929 426.231 501.419
117 0 69.0743 11.8423 818 85.4841 425.57 501.106
118 0 74.0614 12.2466 907 84.5094 426.378 498.937
119 0 76.0451 12.6109 959 84.0344 425.925 497.674
120 0 77.0909 12.7123 980 85.4745 426.798 496.73
121 0 80.1002 12.5093 1002 86.007 426.763 495.502
122 0 83.0379 12.705 1055 86.6228 426.815 493.58
123 0 84.0538 12.1589 1022 93.6037 426.843 492.219
124 0 89.1387 13.0695 1165 92.0712 427.501 491.109
125 0 90.0697 12.9233 1164 93.7552 427.06 490.183
126 0 94.1126 13.0801 1231 92.9399 426.94 487.483
127 0 97.0788 13.041 1266 91.6722 427.092 487.319
128 0 100.111 12.9157 1293 91.8337 426.419 484.856
129 0 102.059 12.5319 1279 93.9359 426.303 483.886
130 0 105.075 12.9622 1362 91.7085 426.932 482.395
131 0 109.074 12.7345 1389 91.9928 426.936 480.308
132 0 112.074 13.0271 1460 91.3041 427.334 478.426
133 0 115.08 12.6868 1460 91.9781 426.805 476.309
134 0 120.067 13.4425 1614 87.8792 427.214 475.517
135 0 124.047 13.3337 1654 87.3748 427.041 473.022
136 0 127.069 13.4573 1710 86.662 427.333 471.03
137 0 130.094 12.9675 1687 88.4867 426.721 469.709
138 0 134.085 13.3125 1785 88.056 426.939 467.138
139 0 140.13 13.0022 1822 88.8875 426.677 466.2
140 0 143.193 13.7437 1968 88.091 426.78 462.675
141 0 150.161 13.8051 2073 87.2441 426.694 460.885
142 0 152.192 13.8181 2103 87.8792 427.17 458.551
143 0 159.216 14.0376 2235 87.038 426.03 456.294
144 0 162.159 13.7272 2226 88.1114 425.719 452.564
145 0 169.217 13.2492 2242 88.2832 425.597 450.988
146 0 174.162 13.275 2312 87.9533 426.169 448.067
147 0 179.209 13.7326 2461 86.6412 425.939 443.718
148 0 181.163 12.3922 2245 91.0018 426.052 440.994
149 0 187.33 12.9024 2417 90.1179 426.32 438.292
150 0 195.162 13.0712 2551 89.6052 425.925 437.078
151 0 200.166 12.8793 2578 89.6734 425.852 434.251
152 0 207.197 13.3255 2761 89.7218 425.46 429.33
153 0 213.279 13.5269 2885 89.2471 425.574 426.57
154 0 221.223 12.9417 2863 89.1718 425.229 422.118
155 0 228.178 13.0644 2981 88.9151 424.578 416.332
156 0 236.185 12.8332 3031 89.4078 425.333 414.177
157 1 174.193 11.0567 1926 88.9694 424.781 443.683
158 0 183.203 12.4016 2272 86.1884 425.72 441.771
159 0 189.201 13.2716 2511 85.3955 425.929 439.791
160 0 195.24 14.1928 2771 83.3367 426.316 434.704
161 0 200.186 13.2027 2643 86.4661 425.529 433.975
162 0 206.246 13.0912 2700 88.6359 425.031 429.212
163 0 212.198 12.281 2606 90.3327 425.332 428.266
164 0 221.42 12.9934 2877 89.1515 425.401 423.293
165 0 230.257 13.2374 3048 89.3596 425.173 419.271
166 1 55.0475 10.3547 570 76.4719 424.656 507.486
167 0 58.0508 11.042 641 75.9984 425.323 505.799
168 0 56.0152 9.74735 546 73.1337 427.02 507.68
169 0 59.0331 9.68948 572 73.2203 427.087 508.241
170 0 60.0444 9.82607 590 73.1712 427.317 507.015
171 0 63.0908 10.049 634 72.2571 426.845 504.926
172 0 63.0351 8.88394 560 73.5964 425.988 503.802
173 0 66.0865 9.71454 642 71.1371 425.31 502.737
174 0 68.094 9.31067 634 71.0347 425.464 501.36
175 0 70.0293 9.59598 672 70.8557 425.812 499.851
176 0 71.07 9.32883 663 70.6531 426.537 500.439
177 0 75.0461 8.82125 662 71.6601 426.468 499.308
178 0 78.1303 9.98332 780 69.9218 426.595 495.794
179 0 83.0502 10.7164 890 69.4169 426.09 495.165
180 0 85.0355 10.1017 859 69.6356 425.164 493.625
181 1 42.0158 8.6634 364 70.6758 424.56 515.03
182 0 45.0272 10.1272 456 67.0943 424.154 513.353
183 0 46.0254 9.49475 437 66.9657 425.238 513.552
184 0 49.0379 11.5421 566 63.9452 426.161 512.678
185 0 52.0872 10.5976 552 75.7609 425.705 509.895
186 0 52.1258 10.5322 549 77.3242 426.015 509.28
187 0 54.0912 10.0571 544 76.6746 426.13 508.993
188 0 56.0551 10.2399 574 76.9059 426.282 506.617
189 0 59.0832 10.646 629 75.469 425.858 506.811
190 0 59.1216 10.4869 620 76.4129 425.445 504.826
191 0 60.0678 10.4715 629 76.3927 425.296 504.332
192 0 62.0963 11.0957 689 74.3875 425.084 505.819
193 0 62.1328 10.0913 627 76.7368 426.155 503.139
194 0 63.2089 10.8213 684 76.1374 425.795 503.374
195 0 66.1103 10.8304 716 76.3212 426.325 502.404
196 0 67.1573 11.5996 779 74.8614 425.915 502.216
197 0 69.0639 11.9599 826 73.2506 425.976 502.297
198 0 69.1657 12.0869 836 73.8971 425.914 500.706
199 0 74.0645 11.8545 878 73.1481 425.151 499.794
200 0 75.0665 12.056 905 73.4552 424.796 498.613
201 0 76.1073 11.9437 909 73 425.134 498.658
202 0 76.1073 11.878 904 150.107 425.136 498.556
203 0 82.174 12.2666 1008 91.4494 425.689 495.038
204 0 84.0822 11.346 954 91.9402 425.313 494.439
205 0 86.047 12.2375 1053 88.905 425.425 492.74
206 0 90.0785 12.4558 1122 86.6132 426.111 491.179
207 1 45.0248 11.0384 497 79.7586 424.028 513.998
208 0 46.093 10.2836 474 80.3903 424.8 513.35
209 0 46.0359 11.1652 514 81.0837 424.484 512.002
210 0 47.0339 11.3748 535 74.8 424.763 512.028
211 0 49.0762 10.8403 532 74.9925 424.904 511.964
212 0 50.035 10.8324 542 75.7362 425.009 511.732
213 0 53.0346 11.6339 617 72.8752 425.653 509.919
214 0 51.0563 11.2621 575 74.793 425.125 510.797
215 0 53.0622 11.1567 592 74.0236 425.064 509.946
216 0 55.0902 11.5629 637 72.9529 424.741 509.863
217 0 56.077 10.6104 595 74.1983 424.696 508.822
218 0 57.0505 10.5696 603 72.7927 424.294 508.917
219 0 60.0956 10.7828 648 71.1235 424.255 507.12
220 0 63.0555 11.6405 734 69.6376 424.894 504.62
221 0 63.0339 11.1051 700 70.57 425.247 503.883
222 0 66.1346 12.0965 800 67.9188 425.224 503.236
223 0 68.0327 11.4798 781 68.4917 425.666 502.168
224 0 69.0983 11.1291 769 69.4057 425.156 500.923
225 0 71.0387 10.7125 761 69.866 424.957 500.576
226 0 75.092 11.8521 890 67.3303 424.226 499.508
227 0 76.034 11.8894 904 67.7666 424.972 497.843
228 0 78.109 11.6632 911 69.0626 424.593 496.109
229 0 80.0814 12.1751 975 69.3077 425.208 495.908
230 0 84.2056 12.4932 1052 68.924 425.078 494.71
231 0 86.0738 11.9665 1030 71.699 425.061 493.713
232 0 89.0905 12.1113 1079 71.5236 425.949 492.415
233 0 93.0934 12.3317 1148 72.7256 425.348 490.672
234 0 95.1303 11.8154 1124 74.7749 425.326 489.737
235 0 98.0808 12.1023 1187 75.9671 425.308 487.884
236 0 99.1232 11.8136 1171 78.7874 424.711 486.014
237 0 103.06 11.5176 1187 79.1002 425.186 485.602
238 0 107.122 12.5278 1342 79.3055 424.131 483.718
239 1 53.0909 11.0942 589 79.3922 424.604 511.318
240 0 54.0276 12.1975 659 79.1882 424.675 509.668
241 0 57.0526 12.3395 704 79.1918 425.209 508.959
242 0 60.0699 12.0027 721 80.8627 424.852 508.128
243 0 60.0374 12.5588 754 81.6326 424.397 506.643
244 0 63.0641 13.0344 822 81.6241 424.543 506.499
245 0 63.0427 12.7215 802 85.0499 424.807 506.373
246 0 67.0894 12.6846 851 85.2115 425.055 504.848
247 0 69.1118 12.7764 883 86.2344 424.758 505.07
248 0 72.0994 13.1763 950 95.4642 424.807 501.968
249 0 73.0736 13.3154 973 95.7924 424.533 501.423
250 0 76.0419 13.0191 990 97.599 424.352 500.617
251 0 78.0891 13.2925 1038 97.711 423.953 499.092
252 0 80.0584 13.0655 1046 100.304 424.587 497.747
253 0 83.1245 13.7625 1144 94.9091 425.151 496.688
254 0 85.1333 13.2263 1126 99.3108 425.876 494.496
255 0 87.142 12.9444 1128 99.9424 424.644 493.439
256 0 90.2478 12.6984 1146 102.74 425.344 492.794
257 0 94.2496 12.9656 1222 102.718 425.4 490.494
258 0 97.1028 13.8204 1342 100.595 424.849 490.519
259 0 100.129 13.7123 1373 102.154 424.851 486.899
260 0 102.131 13.1498 1343 104.568 424.949 486.331
261 1 54.0186 11.7922 637 102.325 424.323 510.987
262 0 56.0387 12.5806 705 101.377 423.719 509.79
263 0 55.0456 12.6441 696 103.29 424.279 508.48
264 0 59.0699 12.4598 736 102.721 423.832 507.902
265 0 59.0569 12.3779 731 104.04 423.773 505.811
266 0 61.0689 12.2321 747 105.406 424.703 503.676
267 0 64.0175 12.7465 816 102.605 424.237 503.102
268 0 67.0232 12.9955 871 102.311 424.638 501.791
269 0 69.0434 12.8035 884 103.779 424.322 500.819
270 0 71.0483 13.1882 937 103.308 424.287 499.819
271 0 73.0244 12.9683 947 105.416 424.091 498.461
272 0 75.0789 12.387 930 107.078 423.557 497.297
273 0 78.1307 12.7735 998 105.574 423.565 495.96
274 0 82.1154 12.9695 1065 104.454 424.21 493.153
275 0 85.1532 13.1997 1124 103.114 423.696 492.076
276 0 87.1575 12.8503 1120 104.399 423.924 490.355
277 0 89.1332 12.543 1118 104.492 424.186 489.527
278 0 92.1709 13.0084 1199 102.885 423.9 489.002
279 0 94.0853 12.6268 1188 104.585 424.698 485.156
280 0 98.1327 12.5137 1228 104.513 424.111 485.919
281 0 100.112 12.3762 1239 104.137 424.09 483.105
282 0 103.164 12.2911 1268 103.677 423.661 480.92
283 1 54.06 10.6548 576 101.358 423.477 508.302
284 0 54.0633 11.3756 615 102.732 422.824 505.78
285 0 57.0096 12.0506 687 99.6507 422.515 505.691
286 0 56.043 11.0272 618 93.699 423.183 501.285
287 0 57.0817 11.5273 658 95.6429 423.201 505.398
288 0 60.0308 11.8106 709 94.4838 424.226 505.638
289 0 62.0585 11.892 738 94.6504 424.507 504.045
290 0 64.0142 11.5756 741 94.637 424.659 502.777
291 0 63.0208 11.758 741 96.004 423.97 502.696
292 0 66.0187 11.6634 770 97.5909 424.66 501.087
293 0 69.0616 11.6852 807 96.5985 424.411 500.861
294 0 71.029 12.0514 856 96.3096 424.081 498.711
295 0 73.0394 11.9525 873 98.8671 423.165 497.064
296 0 74.0324 12.0758 894 99.0078 423.105 497.229
297 0 77.0518 11.2132 864 100.757 424.66 495.608
298 0 81.0605 11.658 945 98.3714 424.945 496.308
299 0 81.0534 10.9927 891 101.677 424.675 494.565
300 0 85.0367 12.0654 1026 100.781 424.394 492.585
301 0 86.0924 11.6967 1007 102.223 424.816 492.168
302 0 89.1081 11.4131 1017 103.581 424.337 491.935
303 0 93.1522 12.2488 1141 104.388 425.013 489.844
304 0 95.2175 12.1511 1157 105.358 423.654 488.597
305 0 97.1539 11.6001 1127 107.275 424.242 486.847
306 0 100.152 12.6807 1270 105.544 424.44 484.911
307 0 103.098 11.8528 1222 109.342 424.879 485.192
308 0 105.213 12.546 1320 108.54 425.267 483.353
309 0 107.102 11.9606 1281 110.491 424.939 481.385
310 0 112.123 12.2098 1369 107.07 425.027 479.482
311 0 117.201 12.1927 1429 107.101 424.61 478.798
312 1 66.0474 11.1435 736 102.304 424.613 504.333
313 0 69.0236 10.8948 752 101.201 423.945 503.944
314 0 68.018 10.3061 701 93.4308 423.668 505.184
315 0 70.0864 10.4157 730 92.5274 423.836 502.992
316 0 68.0256 10.9665 746 98.0107 424.489 504.374
317 0 69.0404 10.0521 694 99.4222 424.48 502.307
318 0 72.046 10.7848 777 96.2986 423.952 503.351
319 0 74.0486 10.0205 742 97.8005 424.465 501.838
320 0 77.067 10.7958 832 95.28 424.157 501.542
321 0 81.0666 11.102 900 93.21 423.808 499.372
322 0 81.0652 10.3497 839 95.8522 423.349 498.944
323 0 83.0723 10.1959 847 96.3235 422.268 498.201
324 0 88.0824 10.8648 957 93.6583 422.287 498.295
325 0 87.0839 11.2994 984 97.2846 423.142 496.861
326 0 89.0938 10.9435 975 96.7549 423.476 496.345
327 0 96.0286 11.8402 1137 93.6878 422.927 492.023
328 1 51.0092 10.155 518 92.888 423.17 517.015
329 0 51.0298 10.2097 521 92.1593 423.115 516.925
330 0 51.0584 10.204 521 94.1593 423.242 514.66
331 0 56.0378 11.9562 670 88.3702 422.49 512.851
332 0 56.0252 11.5127 645 89.7256 422.135 512.354
333 0 58.0649 10.9877 638 90.569 422.577 509.768
334 0 60.0305 11.5941 696 89.931 422.477 509.79
335 0 60.0623 11.205 673 94.7682 422.826 510.325
336 0 59.0377 12.5174 739 99.8809 422.372 510.058
337 0 62.0109 11.885 737 98.574 422.033 508.775
338 0 62.0593 11.6663 724 101.086 422.92 507.767
339 0 66.0658 12.1091 800 99.3412 422.171 506.155
340 0 67.0348 11.7551 788 100.145 422.574 505.957
341 0 67.0095 11.9983 804 101.816 421.735 505.534
342 0 70.0305 12.466 873 102.989 421.251 505.868
343 0 71.0588 12.75 906 102.991 421.829 504.7
344 0 73.0612 12.5648 918 102.597 421.707 503.721
345 0 74.0798 12.5405 929 104.575 420.748 502.17
346 0 75.0367 12.7005 953 105.835 420.656 501.518
347 0 81.0132 13.109 1062 103.508 420.772 500.845
348 0 82.0574 13.0762 1073 106.973 419.782 499.113
349 0 84.0301 12.7811 1074 107.024 420.29 497.874
350 0 88.0662 12.9675 1142 106.273 420.092 497.671
351 0 90.0464 13.5375 1219 105.019 420.738 495.258
352 0 90.0797 12.9774 1169 109.135 420.974 492.498
353 0 93.081 13.311 1239 109.386 420.598 490.802
354 0 98.133 13.6753 1342 108.274 421.353 488.431
355 0 102.131 13.0616 1334 110.558 420.588 486.014
356 1 54.055 11.3033 611 106.769 420.82 511.309
357 0 55.1374 11.8976 656 105.808 422.476 511.569
358 0 58.0166 12.3585 717 104.52 421.01 510.833
359 0 55.0398 12.1185 667 97.1979 420.75 512.882
360 0 58.0522 11.9548 694 96.0965 420.713 512.115
361 0 58.0249 11.9432 693 97.342 421.494 509.805
362 0 59.0208 12.4194 733 94.5416 421.692 509.413
363 0 64.026 12.3387 790 93.3722 421.889 509.168
364 0 64.0279 12.6976 813 95.2792 421.106 506.715
365 0 66.0234 12.3593 816 95.2929 422.529 507.103
366 0 68.0266 13.3918 911 93.1153 422.732 507.279
367 0 68.0576 13.2535 902 95.0843 422.799 504.962
368 0 70.036 12.0795 846 97.5047 422.287 505.305
369 0 72.0247 12.3152 887 96.7756 422.477 504.018
370 0 72.0525 13.0599 941 95.7024 421.903 503.19
371 0 73.0306 11.5979 847 98.8843 421.02 501.406
372 0 75.0678 12.522 940 96.5692 422.294 499.999
373 0 78.069 12.489 975 96.8226 422.07 496.709
374 0 81.0618 13.1134 1063 93.5945 422.173 496.222
375 0 82.0543 12.8452 1054 94.499 422.832 494.283
376 0 84.0212 12.3659 1039 94.9673 422.641 493.231
377 0 86.0314 11.9143 1025 93.0702 422.918 488.39
378 0 86.0314 11.9608 1029 131.59 422.937 488.297
379 0 89.053 11.8693 1057 92.0104 422.098 487.254
380 0 88.0324 11.7116 1031 93.3463 421.714 483.618
381 0 91.081 11.4733 1045 92.9885 422.306 480.991
382 0 93.0759 11.5927 1079 91.5338 422.107 479.628
383 1 45.0513 8.81218 397 87.5139 422.736 503.209
384 0 49.0438 9.58327 470 82.6213 423.121 501.64
385 0 56.0332 11.7787 660 84.2727 422.9 505.258
386 0 56.0517 11.8284 663 82.6953 423.353 508.069
387 0 59.0665 11.0384 652 83.8006 422.949 508.114
388 0 59.0623 11.4963 679 83.2828 423.049 506.01
389 0 60.0286 11.0447 663 83.5249 422.605 505.575
390 0 63.0857 11.4923 725 82.9669 422.956 503.389
391 0 65.0934 11.3068 736 83.2364 423.414 501.451
392 0 66.0782 10.7902 713 84.791 423.662 500.712
393 0 68.08 10.6786 727 85.5089 423.707 499.084
394 0 71.1197 10.8549 772 84.8536 423.196 496.996
395 0 73.098 11.1494 815 84.9485 423.325 496.178
396 0 74.1258 10.9544 812 85.6773 423.425 494.062
397 0 76.1747 10.7253 817 85.9339 423.452 493.661
398 0 79.2577 10.939 867 85.9008 423.465 493.123
399 0 77.0935 10.4289 804 88.2848 422.724 490.779
400 0 83.1052 10.1438 843 87.5077 423.208 486.289
401 0 86.1745 10.5832 912 87.3553 422.055 485.879
402 0 89.1511 9.99427 891 88.9506 423.013 484.421
403 0 88.174 9.5493 842 91.6948 423.802 483.331
404 1 45.0834 8.5841 387 93.2506 423.819 509.01
405 0 46.1764 8.14269 376 95.7686 423.125 507.388
406 0 48.0896 8.50496 409 94.8729 423.645 506.523
407 0 50.0475 9.01144 451 95.0887 423.827 503.007
408 0 53.0622 8.21677 436 96.8349 422.553 501.592
409 1 25.0027 5.83938 146 99 422.411 517.966
410 0 23.0047 5.82489 134 101.649 422.022 517.187
411 1 64.0655 11.7692 754 91.0756 423.107 504.447
412 0 67.1057 11.8023 792 90.8295 423.261 503.58
413 0 68.1921 11.321 772 92.3834 422.978 501.348
414 0 71.1021 11.4765 816 92.1593 422.936 500.744
415 0 71.0843 11.5497 821 92.9038 423.001 500.178
416 0 74.071 11.0435 818 93.2139 422.615 499.467
417 0 78.1501 11.4011 891 91.1605 422.579 499.81
418 0 80.1112 11.9958 961 91.307 422.205 497.152
419 0 83.1037 11.5398 959 92.0334 422.88 496.201
420 0 85.1055 11.1744 951 93.7897 423.198 495.694
421 0 88.1219 11.5522 1018 93.8173 423.176 493.856
422 0 89.0849 11.6069 1034 94.9594 422.398 491.677
423 0 93.1749 11.3228 1055 94.3005 422.667 492.866
424 1 49.0729 10.5353 517 91.6035 422.54 513.561
425 0 50.0609 10.3674 519 91.4143 422.79 512.776
426 0 52.0481 11.2396 585 88.3983 421.759 512.046
427 0 52.0542 10.8925 567 87.97 422.041 512.233
428 0 55.0614 11.2602 620 88.9306 421.694 510.534
429 0 57.0592 12.1628 694 86.3991 420.938 509.298
430 0 56.0563 11.6133 651 89.576 422.567 508.347
431 0 62.0871 10.9846 682 90.9018 422.122 508.934
432 0 62.0722 11.9699 743 89.2019 421.988 507.398
433 0 60.0834 11.8835 714 92.7927 422.514 507.074
434 0 63.0911 11.951 754 93.3236 422.477 506.107
435 0 66.0707 12.3958 819 92.2796 422.453 504.833
436 0 68.1671 12.8214 874 90.96 421.728 504.246
437 0 68.1229 12.1985 831 92.0542 421.998 503.298
438 0 72.1513 12.4738 900 92.5144 421.309 501.512
439 0 71.0974 12.0398 856 94.3446 421.647 500.645
440 0 75.149 12.0427 905 94.3315 421.594 500.246
441 0 77.1511 11.7691 908 95.2621 422.63 499.05
442 0 79.1228 12.0572 954 94.4203 422.926 497.903
443 0 79.0984 11.5299 912 96.3169 422.258 497.904
444 0 82.0629 11.2962 927 97.4552 422.72 495.963
445 0 83.2058 11.73 976 95.6342 422.112 494.615
446 0 87.2616 11.8494 1034 95.4749 422.532 493.908
447 0 87.2629 11.8149 1031 143.267 423.524 494.023
448 0 94.288 12.2179 1152 95.4314 423.089 488.26
449 0 96.305 12.097 1165 95.2996 422.698 488.698
450 0 99.3051 12.2753 1219 94.8376 423.382 487.783
451 0 102.259 12.1066 1238 95.6058 422.827 483.988
452 0 104.222 11.2452 1172 96.9275 422.814 484.5
453 0 110.222 12.747 1405 92.6036 423.219 480.252
454 0 112.307 12.5459 1409 97.5983 422.578 473.441
455 0 113.209 12.022 1361 99.1073 422.199 471.053
456 0 118.267 12.5225 1481 96.8548 422.851 469.891
457 1 134.219 17.1287 2299 79.4389 423.318 459.883
458 0 136.263 17.4076 2372 79.4262 423.145 458.425
459 0 137.319 16.3051 2239 84.7075 423.317 459.654
460 0 139.299 15.1186 2106 89.934 422.982 457.798
461 0 138.226 12.7834 1767 97.9372 423.46 458.17
462 0 144.309 12.9029 1862 96.9404 422.757 455.678
463 0 150.267 14.0816 2116 93.1026 423.021 452.513
464 0 154.248 13.0245 2009 95.5465 422.475 451.985
465 0 161.292 13.5345 2183 94.6262 422.767 452.025
466 0 166.221 13.5964 2260 95.1766 423.172 449.871
467 0 172.227 13.2151 2276 96.4064 422.819 450.121
468 1 97.1396 10.0989 981 96.0255 423.758 486.761
469 0 98.1893 10.5001 1031 92.3356 423.79 483.044
470 0 100.148 10.4745 1049 87.7159 423.339 477.701
471 0 101.169 11.0014 1113 88.0476 422.768 476.81
472 0 102.128 10.526 1075 87.8009 422.49 475.029
473 0 106.266 11.1042 1180 86.7924 422.556 474.263
474 0 109.21 10.9056 1191 87.0445 423.073 470.071
475 0 114.119 10.6906 1220 87.2812 422.633 469.96
476 0 115.114 10.8848 1253 88.4765 423.143 466.342
477 0 124.196 12.44 1545 92.0285 423 473.68
478 0 129.299 12.7379 1647 93.0474 423.103 470.913
479 1 73.0716 9.92177 725 87.9531 423.171 496.85
480 0 75.1327 10.7676 809 91.848 422.828 497.612
481 0 79.1639 12.3162 975 90.7005 423.38 497.014
482 0 81.1535 12.2607 995 91.1417 422.128 495.034
483 0 84.1067 12.8052 1077 90.0947 421.402 495.342
484 0 85.1026 12.291 1046 86.4971 420.949 495.985
485 0 87.1304 11.8214 1030 80.5427 421.405 494.51
486 0 90.0249 11.1636 1005 81.4945 421.6 494.391
487 0 94.1044 11.5829 1090 79.7991 421.925 489.795
488 0 96.1339 10.7454 1033 81.9826 421.468 487.601
489 0 102.122 11.6723 1192 80.0319 421.43 486.429
490 1 54.0453 10.6022 573 85.2077 421.407 506.695
491 0 56.0348 10.8682 609 82.3284 422.053 508.507
492 0 58.2104 11.3554 661 90.236 420.997 505.091
493 0 61.1396 12.496 764 87.3102 421.034 504.555
494 0 62.1354 11.9739 744 88.2809 420.484 503.914
495 0 65.0737 12.1093 788 87.2221 420.783 503.888
496 0 66.1538 12.2593 811 88.0345 420.896 502.681
497 0 68.0287 11.2159 763 90.253 421.71 503.328
498 0 69.0876 11.4492 791 90.0872 421.616 499.325
499 0 72.1024 12.5377 904 87.8484 422.41 499.031
500 0 75.0903 12.4117 932 89.103 421.696 499.591
501 0 77.064 12.6129 972 89.6944 422.428 497.684
502 0 77.1484 11.8084 911 93.3546 421.572 497.099
503 0 81.1788 12.0105 975 92.6462 421.644 495.152
504 0 83.1327 12.0049 998 92.6683 421.293 494.827
505 0 85.1375 12.1803 1037 92.0039 421.648 493.14
506 0 91.2052 12.0717 1101 90.3006 421.638 491.657
507 1 48.2617 10.7331 518 88.971 421.492 512.093
508 0 51.2519 11.5118 590 82.3508 421.644 511.092
509 0 50.2479 11.5826 582 79.8402 421.433 509.909
510 0 52.0279 11.8783 618 76.2314 420.733 511.492
511 0 51.0232 10.9754 560 81.6982 421.393 512.673
512 0 53.0291 10.8242 574 82.9686 421.218 513.51
513 0 53.0486 10.4998 557 85.1813 421.056 513.321
514 0 56.0392 10.7068 600 83.945 421.152 513.387
515 0 56.0473 11.2405 630 84.3476 421.217 512.352
516 0 58.06 11.5226 669 84.7668 421.486 511.148
517 0 59.0568 11.4466 676 86.0592 421.206 512.038
518 0 61.0629 11.3653 694 86.7277 422.108 510.195
519 0 63.0673 10.9883 693 87.5195 420.693 509.996
520 0 65.0314 11.4252 743 87.3136 421.624 508.882
521 0 68.0525 12.0054 817 85.9596 420.879 508.155
522 0 69.1052 11.6923 808 86.5223 420.332 505.99
523 0 73.1569 11.4138 835 86.1832 419.904 505.11
524 0 76.154 11.503 876 87.629 420.185 502.632
525 0 78.1364 11.4927 898 87.8129 420.786 503.414
526 0 81.0863 12.0242 975 87.4174 420.33 501.494
527 0 83.0643 11.774 978 88.3783 421.503 501.143
528 0 86.0955 11.6731 1005 88.4119 420.196 499.861
529 0 91.1223 12.1046 1103 86.6809 420.094 497.612
530 0 93.0877 11.5805 1078 88.1688 419.763 497.892
531 0 95.0907 10.9685 1043 90.0959 420.058 495.686
532 1 47.0201 11.1867 526 90.8384 419.981 516.637
533 0 51.0755 11.0816 566 87.0477 420.078 516.242
534 0 50.0342 12.3515 618 86.0631 420.18 514.99
535 0 54.0584 11.8206 639 82.3631 420.854 515.638
536 0 55.1107 12.2299 674 90.7849 421.892 514.941
537 0 55.1141 12.084 666 89.6246 421.23 513.928
538 0 54.1098 11.5691 626 85.2859 421.288 515.423
539 0 56.0693 11.5214 646 84.8824 420.221 514.774
540 0 58.0387 11.2683 654 85.8211 420.316 514.216
541 0 58.0783 11.1229 646 85.3359 420.297 513.517
542 0 61.0914 11.671 713 84.216 420.564 512.373
543 0 64.0951 12.1226 777 82.8327 420.793 512.163
544 0 63.0919 11.3327 715 84.5538 419.978 510.902
545 0 66.129 11.4473 757 83.646 420.991 510.86
546 0 69.1183 11.1837 773 83.5511 420.937 508.42
547 0 72.1084 11.2747 813 82.8721 420.651 508.69
548 0 75.103 12.1034 909 80.8955 420.991 506.582
549 0 74.1498 11.1396 826 84.3959 420.734 504.378
550 0 78.1158 10.3308 807 84.5291 420.537 505.638
551 0 80.1439 11.1549 894 82.6398 420.404 503.66
552 0 82.1652 11.0144 905 82.5381 419.491 502.724
553 0 84.118 11.2699 948 81.0443 420.018 500.534
554 1 45.0407 11.2787 508 83.1909 419.994 518.388
555 0 44.0936 12.0652 532 84.1429 420.62 517.585
556 0 48.1284 12.4459 599 81.2187 421.329 517.574
557 0 44.0533 11.4861 506 84.0178 421.47 519.326
558 0 46.0149 11.5615 532 82.5376 421.169 519.117
559 0 48.1004 9.66728 465 86.2581 421.211 519.323
560 0 50.0303 12.4325 622 81.1624 421.055 517.15
561 0 51.0488 11.5184 588 83.5068 420.776 516.988
562 0 53.0321 11.7853 625 83.552 421.09 514.478
563 0 52.0334 11.9923 624 84.8381 420.202 514.854
564 0 54.0344 11.7888 637 85.5573 421.229 513.961
565 0 54.0481 12.2854 664 85.7319 420.669 513.883
566 0 58.026 12.1497 705 85.3348 421.479 512.05
567 0 60.0296 12.4272 746 86.504 420.816 511.571
568 0 63.1847 12.1232 766 87.3551 421.278 506.474
569 0 65.1455 13.1705 858 86.6177 420.519 505.098
570 0 66.1057 13.2969 879 88.3015 420.536 503.324
571 0 67.046 12.6182 846 93.0437 420.1 494.331
572 0 70.0776 13.0141 912 92.443 420.225 496.98
573 0 70.025 13.4381 941 93.9129 420.55 506.316
574 0 74.0466 13.6131 1008 94.7966 419.761 505.314
575 0 76.1226 13.163 1002 98.6637 420.854 503.519
576 0 78.0828 14.1645 1106 96.9168 420.335 501.566
577 0 81.0275 13.8471 1122 102.194 420.169 501.983
578 0 81.0398 13.9191 1128 104.845 419.742 500.676
579 0 83.0565 13.9544 1159 105.418 419.85 498.548
580 0 88.0689 14.6476 1290 101.536 419.729 494.258
581 0 89.0332 14.3093 1274 104.282 419.701 496.633
582 0 91.1009 14.3906 1311 104.67 420.65 491.363
583 0 95.1965 14.4228 1373 103.025 420.749 487.639
584 0 97.0751 14.2158 1380 105.12 420.612 488.457
585 0 101.144 14.7809 1495 104.32 420.528 486.618
586 0 104.142 14.5955 1520 104.896 419.85 484.814
587 0 106.19 14.4176 1531 107.496 419.888 482.344
588 0 111.188 14.381 1599 109.121 419.783 479.87
589 1 61.0572 11.8741 725 107.532 419.934 506.789
590 0 64.156 12.8905 827 110.519 419.538 507.788
591 0 63.055 12.6715 799 106.876 420.019 503.173
592 0 67.047 12.4987 838 100.066 420.453 502.746
593 0 68.0747 12.3981 844 102.198 420.861 501.968
594 0 71.0779 12.5918 895 102.026 420.684 500.827
595 0 72.0363 12.7713 920 103.674 420.459 498.645
596 0 78.0494 15.1058 1179 93.4377 420.434 494.217
597 0 84.0627 15.8453 1332 91.4572 420.26 493.309
598 0 82.0889 12.5108 1027 104.499 419.405 496.365
599 0 83.0412 13.3789 1111 116.538 419.841 500.581
600 0 86.0347 13.7968 1187 114.479 420.276 497.748
601 0 89.0236 13.3672 1190 118.048 420.118 494.806
602 0 90.0246 13.363 1203 117.001 420.49 494.18
603 0 92.0867 13.6828 1260 113.533 419.927 490.867
604 0 94.0514 13.1311 1235 117.388 419.372 490.196
605 0 96.1338 13.1483 1264 115.81 418.953 488.859
606 1 53.1212 10.3348 549 112.526 420.056 509.403
607 0 55.0504 11.4622 631 109.353 419.296 508.704
608 0 55.0326 12.0656 664 110.58 419.768 506.944
609 0 57.0402 11.9214 680 111.246 419.203 508.319
610 0 61.0761 12.247 748 110.17 420.214 507.32
611 0 62.0348 11.8321 734 110.966 420.505 505.614
612 0 65.0666 11.9262 776 112.245 420.116 504.898
613 0 67.1105 12.0249 807 113.322 420.102 504.27
614 0 69.1403 11.9756 828 115.588 418.952 503.768
615 0 75.0518 14.1636 1063 105.498 419.734 499.797
616 0 74.0558 12.3826 917 116.578 419.219 501.368
617 0 76.0764 12.9606 986 113.918 419.725 500.813
618 0 79.0292 12.8687 1017 114.151 419.139 497.958
619 0 80.0674 12.3771 991 115.74 419.411 495.453
620 0 84.1147 12.4354 1046 114.086 420.153 494.034
621 1 41.0191 8.99582 369 102.97 420.425 516.648
622 0 43.0189 9.7864 421 103.014 420.827 514.815
623 0 46.0235 10.8206 498 101.056 420.311 514.293
624 0 50.0152 12.4962 625 104.314 418.682 517.226
625 0 51.0183 12.7797 652 103.34 419.554 516.459
626 0 52.0627 12.216 636 105.461 419.947 515.8
627 0 53.0408 12.2359 649 106.083 420.08 514.569
628 0 55.0844 11.8727 654 106.642 420.56 514.515
629 0 58.0411 12.405 720 101.619 420.418 512.847
630 0 60.0704 13.0181 782 98.2711 420.587 511.946
631 0 62.0322 11.8164 733 101.211 420.057 511.145
632 0 64.064 12.5031 801 97.6667 420.024 510.623
633 0 64.0664 12.6744 812 96.415 420.369 509.03
634 0 69.0564 12.5839 869 96.0495 420.705 506.85
635 0 70.0209 12.8819 902 95.449 420.6 506.549
636 0 71.1 11.6174 826 98.3753 420.599 505.136
637 0 74.0363 12.5344 928 94.0496 420.98 506.772
638 0 75.1046 12.9553 973 93.89 420.744 503.828
639 0 79.0497 12.3846 979 94.9295 420.91 501.434
640 0 83.0923 12.1552 1010 95.4475 420.95 500.699
641 1 46.0524 11.4869 529 102.902 421.136 519.461
642 0 45.0375 11.6125 523 107.465 421.971 518.447
643 0 47.0616 12.1968 574 104.159 420.742 517.969
644 0 49.0798 12.5917 618 101.18 421.231 515.828
645 0 50.0479 12.2283 612 91.2288 420.757 517.145
646 0 52.0458 13.123 683 89.8653 420.811 516.316
647 0 52.069 12.0609 628 93.992 421.016 515.166
648 0 53.0406 12.1228 643 95.1058 421.261 514.323
649 0 56.0433 12.4547 698 94.7135 421.544 513.749
650 0 57.0526 12.9705 740 92.0095 421.432 512.278
651 0 58.1052 12.4774 725 94.0814 421.681 510.841
652 0 58.0836 12.3098 715 95.7888 420.776 510.599
653 0 62.0526 12.296 763 93.1717 421.195 509.974
654 0 64.0675 12.4556 798 91.9637 420.734 509.226
655 0 66.0701 12.9862 858 90.2005 420.779 508.076
656 0 67.0931 12.7137 853 91.0352 420.498 507.267
657 0 70.0737 12.2728 860 91.2535 421.008 505.859
658 0 72.1518 12.4044 895 91.3095 420.959 505.274
659 0 76.1535 12.6061 960 90.2167 420.776 503.42
660 0 77.1333 12.1478 937 104.891 421.436 502.274
661 0 81.0695 12.3104 998 102.823 422.053 500.783
662 0 81.0707 11.6812 947 105.653 421.954 498.561
663 0 85.1193 11.666 993 104.396 421.166 496.702
664 0 89.1447 12.003 1070 102.224 422.007 495.168
665 1 49.1405 10.9685 539 103.505 420.696 513.432
666 0 47.1236 11.4592 540 98.1574 420.502 511.837
667 0 51.0372 12.246 625 97.3632 420.574 514.112
668 0 55.0496 12.2253 673 99.4324 421.398 511.764
669 0 56.0629 12.4325 697 98.3974 421.172 510.756
670 0 59.07 11.3933 673 99.8039 421.831 510.691
671 0 60.0759 12.4676 749 97.243 422.24 508.804
672 0 62.122 12.5076 777 96.2947 422.055 509.461
673 0 64.0704 12.4394 797 95.9962 421.842 507.26
674 0 63.0773 12.4768 787 96.5718 421.632 506.83
675 0 66.0881 11.8932 786 97.2774 421.648 505.394
676 0 69.1078 12.097 836 96.7787 421.309 504.054
677 0 71.0994 12.1801 866 97.4942 421.612 502.657
678 0 73.1346 12.5249 916 96.238 421.379 502.754
679 0 76.1028 12.2597 933 95.1983 421.922 503.459
680 0 76.1127 12.6523 963 95.8681 421.316 500.54
681 0 79.1055 11.6932 925 97.8768 421.856 498.637
682 0 82.1298 11.8471 973 97.3823 421.854 497.456
683 0 86.1188 12.5292 1079 94.7433 421.792 497.182
684 0 88.1291 12.2548 1080 95.8565 421.769 496.385
685 1 47.1519 10.9646 517 95.5474 420.911 517.567
686 0 46.043 11.4458 527 95.6736 421.118 516.505
687 0 47.0788 10.9604 516 97.0581 421.748 517.289
688 0 48.069 11.858 570 94.7368 421.112 515.744
689 0 52.0661 12.0232 626 93.4473 421.543 515.016
690 0 53.1011 12.3538 656 93.6326 421.62 513.57
691 0 56.0554 13.5402 759 94.8314 421.79 514.202
692 0 58.0638 12.8479 746 96.4102 421.842 511.902
693 0 60.0391 13.3746 803 94.68 421.522 511.91
694 0 61.0286 13.0103 794 96.4748 420.748 510.647
695 0 62.039 13.153 816 96.7022 421.217 510.341
696 0 66.0265 13.1614 869 96.4062 420.923 509.885
697 0 66.0226 13.1773 870 97.0264 420.749 508.008
698 0 69.0359 12.8339 886 98.1716 420.226 506.884
699 0 72.066 12.8216 924 97.7381 420.147 506.934
700 0 73.0379 12.7194 929 98.9925 420.658 504.371
701 0 79.0336 13.5132 1068 95.6461 420.257 502.259
702 0 82.0715 13.1958 1083 96.5605 420.843 502.749
703 0 83.0643 13.1705 1094 98.0539 420.515 500.951
704 0 88.0832 13.4078 1181 96.5758 420.688 499.819
705 1 44.0344 10.6508 469 103.412 420.955 519.441
706 0 48.0882 11.7493 565 99.9097 421.193 517.432
707 0 48.0808 13.3733 643 98.9549 421.187 516.49
708 0 49.1158 12.7861 628 98.7293 421.624 517.167
709 0 50.0916 12.5769 630 100.819 421.559 516.516
710 0 51.0199 13.0145 664 99.1898 421.863 517.649
711 0 53.013 12.8836 683 99.9868 421.987 517.089
712 0 54.0188 12.3476 667 99.2894 421.547 515.727
713 0 57.0221 13.0476 744 96.0659 421.849 516.504
714 0 57.0945 13.0485 745 95.6832 421.801 515.785
715 0 58.0328 13.1477 763 95.4377 421.026 514.834
716 0 62.0337 13.4282 833 93.473 420.958 514.004
717 0 62.0333 12.8157 795 95.6541 420.88 511.468
718 0 64.0884 12.7792 819 94.7827 421.672 511.338
719 0 66.0242 13.0558 862 94.3585 422.204 511.498
720 0 68.0525 13.0488 888 94.33 422.105 509.02
721 0 71.0345 13.233 940 94.5074 421.027 508.371
722 0 72.05 13.2131 952 94.7952 422.262 508.003
723 0 75.0724 13.2272 993 94.2578 420.573 505.822
724 0 78.0778 13.1407 1026 93.8489 420.899 504.964
725 0 81.0508 13.5471 1098 92.1676 419.948 504.623
726 0 85.0759 15.1042 1285 87.7774 420.157 500.501
727 0 88.051 15.5137 1366 86.0717 420.606 497.969
728 0 86.0612 12.8513 1106 95.4014 420.366 500.795
729 0 88.0623 12.775 1125 93.9387 420.37 500.485
730 0 91.0673 13.0343 1187 93.2359 419.938 499.073
731 0 95.1333 13.9278 1325 91.074 420.935 497.87
732 0 96.0481 12.879 1237 92.2991 420.16 496.002
733 1 50.035 10.0929 505 89.4475 419.923 520.147
734 0 53.1183 10.599 563 86.5204 419.551 518.7
735 0 55.0662 11.9856 660 85.3985 419.686 514.55
736 0 56.1324 11.1878 628 87.9124 420.151 513.132
737 0 58.0782 11.7428 682 87.2669 420.526 512.113
738 0 65.1444 14.7058 958 82.4478 421.372 511.292
739 0 66.1783 14.2645 944 85.4576 420.933 510.13
740 0 66.046 13.7026 905 88.7061 420.494 508.608
741 0 66.0784 13.0602 863 91.6941 419.968 508.742
742 0 73.0857 14.9003 1089 83.7456 419.41 504.25
743 0 76.0805 15.4047 1172 82.8123 420.256 502.907
744 0 81.0945 16.3759 1328 77.4616 419.886 499.183
745 0 83.0764 16.5029 1371 78.7287 420.006 498.841
746 0 83.0714 15.9863 1328 82.6258 419.58 498.404
747 0 81.0912 13.2813 1077 94.3482 419.704 487.823
748 0 84.1397 13.2993 1119 95.5844 420.016 487.198
749 0 85.0851 13.6687 1163 95.0576 420.16 486.92
750 0 89.1021 13.8493 1234 94.4976 420.661 487.811
751 0 91.0661 13.4298 1223 96.2388 419.597 488.361
752 0 94.1621 13.3918 1261 96.7074 420.03 488.612
753 0 96.1198 13.5664 1304 96.7239 419.763 486.826
754 0 99.1299 13.3663 1325 96.8143 419.518 487.382
755 1 113.214 16.7912 1901 80.4776 420.655 481.791
756 0 112.136 16.5425 1855 82.8491 420.983 478.377
757 1 55.0456 10.791 594 95.862 422.251 511.737
758 0 59.0604 11.8523 700 92.3571 421.984 510.634
759 0 62.0584 12.5849 781 90.8515 422.246 508.849
760 0 62.0313 12.1068 751 97.3688 421.703 507.668
761 0 67.0427 12.768 856 94.4743 421.81 506.297
762 0 69.0835 12.7382 880 95.158 421.347 504.056
763 0 71.056 12.652 899 95.6585 420.962 503.611
764 0 73.0363 12.4048 906 96.1402 421.623 502.295
765 0 79.0807 14.9341 1181 87.5487 421.87 499.243
766 0 88.1129 15.605 1375 80.3011 422.179 492.669
767 0 90.1226 16.3222 1471 79.2447 421.881 491.411
768 0 90.1004 14.95 1347 84.8382 422.28 493.05
769 0 85.1419 13.5656 1155 93.019 422.527 494.552
770 0 90.1395 13.2461 1194 92.0988 421.626 495.209
771 0 93.0561 13.7874 1283 88.6719 421.538 493.911
772 0 93.0922 11.8807 1106 86.1221 420.994 493.662
773 0 97.176 12.5957 1224 84.3203 420.712 492.942
774 0 101.07 12.3677 1250 85.4176 421.506 491.838
775 1 51.0321 10.7383 548 85.9106 422.078 513.794
776 0 56.049 10.9369 613 90.5204 421.416 508.201
777 0 52.0308 9.99408 520 84.3385 421.34 506.529
778 0 52.0308 10.3016 536 127.888 421.319 507.205
779 0 58.0202 10.8411 629 82.9952 420.766 505.758
780 0 60.0286 11.5778 695 83.3928 420.954 505.466
781 0 59.1058 10.6927 632 86.7927 419.29 501.093
782 0 61.1407 10.6966 654 87.9358 419.572 494.324
783 0 66.147 11.4442 757 84.4914 419.978 495.634
784 0 68.1517 10.9608 747 84.0482 419.815 497.347
785 0 69.1507 11.4243 790 84.9405 420.909 492.027
786 0 70.2212 11.1505 783 85.2503 420.668 493.552
787 0 73.1422 11.6349 851 84.7662 421.925 491.427
788 0 76.041 11.1124 845 84.9432 421.317 495.45
789 0 80.1942 11.1604 895 82.8536 422.169 492.401
790 0 81.1741 10.73 871 84.2767 421.831 491.752
791 0 83.2041 11.622 967 83.8128 422.002 491.372
792 0 88.2928 11.6204 1026 84.8713 421.639 491.107
793 0 89.0254 11.6821 1040 88.5144 421.769 493.301
794 0 92.1122 12.3219 1135 88.4969 421.907 490.333
795 0 94.0853 11.7659 1107 90.3288 422.552 487.823
796 0 97.1219 12.2629 1191 90.1184 421.903 483.793
797 0 100.082 12.2599 1227 90.0359 422.24 485.039
798 0 103.145 12.5067 1290 90.231 422.35 482.399
799 0 105.11 11.7401 1234 92.2293 422.278 481.272
800 0 107.204 12.0332 1290 92.0527 421.517 481.057
801 0 113.138 12.9311 1463 90.5017 421.271 478.073
802 0 117.288 12.5759 1475 90.7173 421.054 477.136
803 0 119.208 12.5831 1500 92.2087 420.645 474.928
804 0 125.234 12.9278 1619 91.5127 421.355 473.815
805 0 129.427 12.2927 1591 93.5757 421.893 471.59
806 1 69.2167 10.7488 744 86.7849 421.983 502.933
807 0 71.2024 11.0951 790 88.4266 421.849 503.099
808 0 74.1492 12.4209 921 88.1422 421.244 501.649
809 0 76.1562 12.2643 934 79.9936 421.502 501.761
810 0 79.11 11.3766 900 83.6689 421.612 502.654
811 0 82.0251 11.9598 981 82.8308 421.527 500.959
812 0 83.095 12.0946 1005 83.4498 421.953 499.577
813 0 86.0521 11.8649 1021 85.8864 421.314 499.538
814 0 87.0483 12.269 1068 87.0365 421.983 497.462
815 0 89.0316 11.7599 1047 88.5396 422.01 498.096
816 0 93.0997 11.3319 1055 92.6758 422.168 496.389
817 0 96.0656 11.794 1133 91.947 422.342 497.157
818 0 95.0703 11.8123 1123 92.7818 421.773 494.871
819 0 99.052 12.1552 1204 92.0839 422.033 493.127
820 0 104.107 11.7571 1224 91.8472 421.354 490.423
821 0 106.078 12.1515 1289 92.1552 421.102 488.35
822 0 110.103 11.9252 1313 92.441 420.948 486.315
823 0 114.128 12.3107 1405 91.0648 420.661 485.561
824 0 116.162 11.6303 1351 93.4093 420.508 482.271
825 0 118.295 11.894 1407 92.5245 420.861 482.792
826 0 121.251 11.9834 1453 92.903 420.694 481.968
827 0 124.083 11.7582 1459 93.364 420.62 481.355
828 0 127.144 11.7426 1493 93.9337 420.516 476.062
829 0 133.213 12.4687 1661 91.9663 420.751 474.792
830 0 135.234 11.9866 1621 93.6878 420.81 474.418
831 0 139.226 12.4186 1729 93.0393 420.733 469.454
832 0 145.22 13.2764 1928 90.5705 420.586 462.8
833 0 145.241 12.3037 1787 94.2893 420.052 462.504
834 0 150.369 11.8375 1780 96.359 420.836 458.96
835 0 153.281 11.704 1794 98.9565 420.151 460.138
836 0 158.262 12.5488 1986 97.9985 420.844 456.137
837 0 163.392 12.3874 2024 99.0292 419.824 452.912
838 0 167.273 12.1119 2026 100.337 419.581 450.244
839 0 171.31 11.4529 1962 102.006 419.077 450.617
840 0 177.271 12.3145 2183 100.71 419.541 447.551
841 0 181.272 11.9213 2161 102.515 419.614 445.199
842 0 187.302 11.8952 2228 103.199 419.929 441.522
843 0 193.191 12.366 2389 102.806 419.958 436.377
844 0 200.255 12.4392 2491 100.255 420.255 432.866
845 1 52.1388 10.2227 533 86.2345 420.522 510.34
846 0 54.2113 10.8833 590 84.1424 419.642 508.547
847 0 54.1326 10.8622 588 82.4099 419.973 508.233
848 0 58.2576 11.4148 665 80.2376 419.202 507.943
849 0 60.2252 11.1083 669 80.1002 420.218 506.072
850 0 62.1827 11.0803 689 79.3106 419.852 506.157
851 0 63.1265 11.3265 715 78.9902 420.474 505.639
852 0 64.1891 10.6872 686 81.0918 420.528 504.641
853 0 67.1844 10.7317 721 81.3523 420.147 505.071
854 0 70.167 11.1306 781 80.6632 419.688 502.62
855 0 71.2264 10.8668 774 80.9612 419.929 501.329
856 0 75.3253 10.5675 796 80.0427 419.039 501.515
857 0 81.2059 9.54364 775 82.4245 419.055 500.272
858 0 80.2052 10.9719 880 81.9443 418.761 497.023
859 1 43.0459 10.7095 461 81.987 418.232 516.501
860 0 44.0692 11.4366 504 79.4504 418.931 515.474
861 0 41.0954 10.3905 427 76.4098 420.478 520.712
862 0 44.0158 10.4054 458 76.6878 420.937 519.965
863 0 44.051 8.85337 390 80.3308 420.9 519.82
864 0 45.0467 10.2116 460 78.6283 420.537 518.209
865 0 46.0417 9.90406 456 81.4671 420.018 517.461
866 0 50.0385 10.8516 543 79.2486 420.689 515.696
867 0 51.0119 10.6446 543 80.2615 419.878 515.558
868 0 50.0257 10.0948 505 82.1168 419.719 513.85
869 0 55.0326 10.6301 585 79.8137 420.417 513.773
870 0 55.0549 11.0617 609 79.7143 419.916 513.713
871 0 56.0346 10.2615 575 82.0226 420.13 512.266
872 0 57.0629 11.093 633 80.1548 420.487 512.627
873 0 59.0799 11.0867 655 79.4733 420.571 511.907
874 0 60.0477 11.9405 717 79.9944 421.006 511.225
875 0 61.0164 11.3576 693 81.6609 421.065 511.078
876 0 63.0492 11.2611 710 81.6831 420.863 510.003
877 0 65.0241 10.9498 712 83.5 419.885 508.083
878 0 67.0482 10.9473 734 83.0831 419.836 507.781
879 0 69.0362 11.1825 772 82.1503 419.899 508.744
880 0 72.0614 11.3792 820 82.0683 419.902 506.083
881 0 74.0316 11.8193 875 82.112 420.297 505.513
882 0 76.0734 11.226 854 83.8384 420.663 505.197
883 0 76.0405 11.9279 907 84.6329 421.206 501.094
884 0 81.0641 11.9782 971 84.967 421.369 501.481
885 0 85.0534 11.9572 1017 82.6618 420.042 495.383
886 0 86.0582 12.0035 1033 82.727 421.183 495.968
887 0 97.148 14.5963 1418 75.1269 419.475 484.871
888 0 95.2474 14.2891 1361 78.6378 418.853 485.309
889 1 48.1846 10.9371 527 84.907 418.664 510.854
890 0 50.1249 11.611 582 83.4192 419.134 509.56
891 0 49.1284 11.4598 563 137.879 419.099 509.861
892 0 51.0889 10.609 542 81.6273 419.485 509.273
893 0 51.0153 10.4675 534 83.6816 420.517 514.294
894 0 53.0666 10.4774 556 87.009 419.671 515.439
895 0 57.0888 11.2632 643 84.5754 419.162 511.742
896 0 58.1646 11.158 649 85.624 418.496 510.753
897 0 60.0977 12.0304 723 84.4149 419.535 510.16
898 0 62.0735 11.6958 726 86.3912 418.912 506.798
899 0 64.0904 11.8427 759 87.4032 418.813 505.875
900 0 65.1761 12.3205 803 88.1992 418.864 503.568
901 0 67.125 12.2309 821 89.391 419.347 503.248
902 0 70.1166 12.5933 883 88.2673 420.499 501.997
903 0 73.0878 12.5465 917 95.0523 419.791 497.263
904 0 72.1444 12.2393 883 96.3998 420.928 495.3
905 0 76.0699 13.3036 1012 91.4486 420.705 498.661
906 0 79.0548 12.8392 1015 91.7448 420.544 498.068
907 0 80.014 13.1102 1049 90.5767 420.467 495.847
908 0 83.0664 12.5321 1041 90.9039 420.658 495.233
909 0 86.0454 11.831 1018 91.3654 421.345 493.953
910 0 88.0414 12.426 1094 89.8126 421.602 493.43
911 0 92.068 12.5234 1153 88.3998 421.64 491.441
912 1 50.0431 10.5509 528 84.447 420.456 513.358
913 0 51.0314 10.5425 538 86.0874 421.18 512.019
914 0 52.0222 11.1107 578 86.635 420.874 512.08
915 0 55.0304 11.8117 650 88.0569 421.006 510.128
916 0 53.0171 10.374 550 80.84 420.82 504.084
917 0 53.0853 10.323 548 80.3394 420.628 504.989
918 0 54.0856 10.8717 588 80.449 421.177 503.039
919 0 57.0213 10.4172 594 79.8771 420.95 503.554
920 0 59.0851 10.7641 636 79.8239 421.074 502.571
921 0 61.0258 10.0449 613 76.2072 421.339 505.191
922 0 63.0566 10.5778 667 81.2444 421.739 508.571
923 0 67.0563 11.7066 785 79.9822 420.413 507.957
924 0 70.1628 11.4448 803 78.2179 420.913 505.283
925 0 70.0714 10.789 756 80.9537 419.843 505.599
926 0 73.0784 10.824 791 80.9823 419.86 504.689
927 0 75.0826 11.1744 839 80.7104 420.785 504.116
928 0 80.0853 12.0247 963 77.8588 419.925 503.213
929 0 83.2123 11.5368 960 78.3323 420.302 503.25
930 0 87.0571 11.7394 1022 79.9951 420.024 499.658
931 0 90.1579 12.223 1102 80.3158 419.987 499.714
932 1 47.0772 10.9395 515 82.3981 419.45 520.664
933 0 47.0524 11.264 530 84.1792 418.862 519.757
934 0 50.0781 11.3822 570 83.3421 418.689 518.853
935 0 51.0728 11.7283 599 82.2922 418.923 518.005
936 0 53.0639 11.4013 605 76.3355 418.187 516.152
937 0 54.0654 12.7993 692 80.5347 418.253 517.049
938 0 53.0753 12.0583 640 84.825 417.931 517.017
939 0 56.0473 12.0791 677 84.3708 418.331 515.854
940 0 58.1385 12.539 729 82.6763 418.35 515.853
941 0 61.0613 12.9051 788 81.2462 418.091 515.31
942 0 64.0614 12.8158 821 81.8672 418.093 514.666
943 0 63.0614 13.5424 854 82.3302 416.802 513.486
944 0 64.0666 13.4392 861 83.9164 417.066 511.596
945 0 68.0645 12.9142 879 84.248 417.462 511.638
946 0 70.0586 13.503 946 83.3837 417.071 510.141
947 0 73.1202 13.088 957 84.4817 417.753 507.612
948 0 73.0746 12.9594 947 86.7318 417.664 506.107
949 0 77.0542 12.9779 1000 85.698 418.317 505.179
950 0 80.0362 13.2315 1059 91.7299 417.873 503.62
951 0 81.047 13.6587 1107 92.8356 418.942 505.838
952 0 84.0721 13.0959 1101 96.3406 418.623 504.21
953 0 86.1081 12.9721 1117 99.1773 417.534 500.996
954 0 90.1066 14.0389 1265 97.0806 418.259 500.302
955 0 88.0822 12.1023 1066 93.4437 417.441 501.307
956 0 93.0624 12.2928 1144 93.1731 418.059 496.496
957 0 95.1848 12.3549 1176 94.6794 418.787 495.016
958 0 96.0839 11.8542 1139 95.6005 419.378 492.743
959 1 53.0483 10.5941 562 90.516 418.217 510.187
960 0 51.039 9.69847 495 90.8525 419.453 505.848
961 0 59.0266 11.0459 652 94.4264 418.158 512.311
962 0 59.063 10.5311 622 85.1061 419.706 513.633
963 0 62.0413 11.2022 695 83.3712 419.168 514.388
964 0 63.0231 11.5355 727 82.1417 420.056 512.884
965 0 65.017 11.5047 748 81.7861 420.223 512.357
966 0 67.0892 10.3593 695 84.518 419.953 510.073
967 0 70.1038 11.4972 806 82.0161 419.798 507.542
968 0 72.0602 11.8235 852 81.6185 421.433 507.453
969 0 72.0602 11.9067 858 135.037 423.416 507.554
970 0 77.0176 11.7116 902 81.7849 420.326 504.037
971 0 77.0737 10.6651 822 84.4246 420.937 503.084
972 0 81.0477 11.4747 930 82.2086 421.255 501.202
973 0 83.0993 11.4682 953 82.3211 420.395 499.288
974 0 85.0794 11.4364 973 83.0298 419.698 499.178
975 0 89.0765 11.7315 1045 83.5129 419.584 497.83
976 0 90.1277 11.7944 1063 84.0583 420.072 496.056
977 0 96.0499 11.9521 1148 82.7526 420.607 493.254
978 0 99.0951 11.9078 1180 84.0144 420.628 492.242
979 0 100.145 10.9641 1098 92.1466 421.288 486.196
980 0 103.166 11.1955 1155 94.032 421.932 483.596
981 1 55.0668 9.47939 522 86.5651 420.034 511.257
982 0 58.0395 10.8547 630 80.0429 420.443 511.13
983 0 60.1259 11.3928 685 80.7022 419.493 509.658
984 0 59.0728 10.394 614 77.9349 420.52 506.427
985 0 62.1262 10.5752 657 77.4916 420.97 502.956
986 0 64.0506 10.5073 673 78.5305 420.214 503.679
987 0 65.0446 9.99315 650 79.8815 421.886 503.037
988 0 67.101 10.134 680 79.6441 421.579 500.375
989 0 67.0686 10.3625 695 78.9209 420.915 496.399
990 0 71.0641 10.5257 748 79.7634 420.715 496.119
991 0 73.0685 10.0864 737 86.3894 420 496.102
992 0 75.0657 10.4708 786 89.6718 419.963 494.529
993 0 76.0396 10.1657 773 81.3325 420.521 492.126
994 0 79.1233 10.5658 836 80.8708 420.227 489.055
995 0 79.167 10.1936 807 82.2615 420.558 487.98
996 0 84.0666 10.4322 877 81.1015 421.538 487.976
997 0 85.0864 10.5187 895 81.7609 421.328 487.273
998 0 88.1635 10.696 943 82.018 421.55 484.624
999 0 91.1095 10.6795 973 83.3823 421.442 484.792
1000 0 96.1056 10.374 997 86.1354 420.923 481.928
1001 0 104.281 13.6362 1422 78.5654 419.598 478.421
1002 0 106.122 11.8637 1259 82.973 420.379 478.987
1003 1 55.0875 10.7465 592 76.5456 420.152 508.4
1004 0 57.0965 10.4735 598 78.9548 420.701 508.589
1005 0 57.039 9.15163 522 75.9981 422.736 507.718
1006 0 53.0535 8.84013 469 76.8913 421.812 504.516
1007 0 58.0873 8.96926 521 75.6699 422.822 503.159
1008 0 61.0719 8.35082 510 76.3647 422.292 501.861
1009 0 60.048 9.10937 547 76.2706 422.676 500.452
1010 0 66.0685 9.24797 611 76.0818 421.854 498.971
1011 0 65.1432 9.44073 615 76.3496 421.32 496.184
1012 0 70.0589 9.94876 697 76.2525 420.329 494.676
1013 0 72.1291 9.6355 695 77.4317 420.583 493.531
1014 0 75.147 10.007 752 77.8152 420.483 492.734
1015 0 80.1194 10.2347 820 77.1024 420.51 493.894
1016 0 83.1097 10.9013 906 77.4393 421.943 488.76
1017 0 86.0959 10.6393 916 81.5797 421.037 490.455
1018 0 87.16 10.062 877 84.0274 422.239 487.396
1019 0 91.1288 10.5675 963 80.5472 422.368 487.025
1020 0 94.1466 10.4518 984 80.9929 422.413 485.239
1021 0 96.167 10.5962 1019 82.945 422.184 482.326
1022 0 101.177 10.7139 1084 81.7232 422.404 482.315
1023 1 52.0814 9.13954 476 74.2017 422.975 507.628
1024 0 56.0511 9.90167 555 75.9081 422.677 505.034
1025 0 57.0786 10.2315 584 72.4161 421.933 503.546
1026 0 60.0551 10.6402 639 72.2457 422.23 503.51
1027 0 61.0704 9.95572 608 73.3816 421.965 504.229
1028 0 63.0777 10.4316 658 71.579 421.365 501.983
1029 0 65.057 10.9135 710 70.7549 421.448 501.43
1030 0 66.0538 10.8245 715 72.2252 421.434 499.876
1031 0 65.0176 10.1357 659 75.6206 423.005 499.096
1032 0 70.0449 11.1928 784 74.0523 422.347 499.217
1033 0 73.0655 10.5659 772 83.7552 422.339 496.347
1034 0 74.054 10.2628 760 84.5579 422.762 494.689
1035 0 76.1457 10.0859 768 83.2135 421.716 494.176
1036 0 81.0811 11.026 894 82.5917 422.248 492.942
1037 0 84.0487 11.2435 945 78.4772 421.944 493.606
1038 0 89.0608 12.295 1095 76.4886 421.149 493.473
1039 0 91.1338 12.6078 1149 77.1323 421.505 491.149
1040 0 93.1715 11.5915 1080 80.1232 421.456 489.969
1041 1 49.0838 10.0644 494 76.6538 421.769 513.405
1042 0 50.0519 10.2893 515 78.9728 421.784 511.489
1043 0 54.0546 12.5429 678 84.0339 421.839 513.218
1044 0 57.0458 12.5163 714 83.4272 421.234 515.549
1045 0 57.0237 11.9424 681 85.2217 420.746 513.906
1046 0 59.0651 12.0206 710 84.7563 420.862 513.369
1047 0 60.0758 12.0348 723 85.0733 420.169 512.527
1048 0 61.046 12.5152 764 84.2068 420.423 513.25
1049 0 63.1121 12.4857 788 84.019 421.184 510.494
1050 0 64.0697 12.3615 792 84.4066 421.635 508.865
1051 0 68.0288 13.2003 898 80.7472 420.57 508.509
1052 0 69.0326 12.82 885 81.5559 421.444 508.06
1053 0 71.0339 12.7404 905 81.979 422.004 507.341
1054 0 71.0599 12.6372 898 86.5045 421.723 506.697
1055 0 72.0738 12.7092 916 86.94 421.54 504.329
1056 0 74.0452 12.7625 945 87.8233 421.962 505.21
1057 0 78.076 13.2691 1036 80.2181 422.341 505.063
1058 0 79.0695 12.9127 1021 89.05 421.084 504.313
1059 0 81.049 12.622 1023 90.5298 421.09 504.331
1060 0 85.0485 13.651 1161 88.7864 420.695 500.287
1061 0 84.0656 12.0858 1016 94.2136 420.406 501.996
1062 0 89.0645 12.5078 1114 93.6562 421.183 501.425
1063 0 91.1055 12.48 1137 94.6262 420.548 500.746
1064 0 92.0943 11.8248 1089 98.6226 421.09 498.831
1065 0 95.0894 12.3883 1178 97.983 421.152 497.479
1066 0 99.142 12.2249 1212 98.9918 421.125 494.959
1067 0 102.118 12.3288 1259 99.606 420.883 494.893
1068 1 59.1489 11.4626 678 100.196 421.044 513.667
1069 0 59.0963 12.2004 721 101.166 421.318 511.287
1070 0 62.0754 12.3559 767 101.695 420.935 511.525
1071 0 63.093 12.965 818 101.152 420.867 512.914
1072 0 64.0746 12.6415 810 102.268 421.588 511.925
1073 0 66.036 13.1444 868 98.8537 422.106 509.374
1074 0 67.0264 13.4723 903 99.0011 421.616 508.596
1075 0 71.0752 13.5209 961 96.8689 421.864 507.621
1076 0 72.0566 13.2396 954 97.3847 422.413 506.212
1077 0 75.143 13.135 987 98.1469 422.948 506.262
1078 0 79.0635 13.7737 1089 95.4187 421.465 504.754
1079 0 82.0848 13.7784 1131 94.855 421.755 503.878
1080 0 85.094 13.5262 1151 95.8141 421.335 502.574
1081 0 88.075 13.92 1226 95.3475 421.914 501.108
1082 0 90.134 13.5687 1223 96.5732 421.385 498.178
1083 0 92.1667 13.3888 1234 96.3193 421.391 496.873
1084 0 93.1049 13.1465 1224 96.6993 421.342 495.076
1085 0 98.0634 13.1446 1289 97.4756 422.203 494.725
1086 0 102.131 13.7666 1406 94.6024 422.206 492.708
1087 1 55.0571 11.0613 609 103.156 422.747 516.353
1088 0 55.1331 11.8985 656 102.585 421.663 516.338
1089 0 57.0953 12.4529 711 113.57 421.108 515.62
1090 0 59.0202 12.6058 744 112.737 419.106 513.706
1091 0 61.0317 12.6819 774 114.162 419.151 512.589
1092 0 63.085 12.1741 768 114.966 420.027 511.987
1093 0 63.0252 11.9 750 116.745 420.647 510.504
1094 0 67.0657 12.2268 820 114.298 420.632 508.741
1095 0 69.0641 12.1916 842 114.666 420.734 508.33
1096 0 70.0361 11.951 837 115.989 419.613 508.736
1097 0 73.0476 12.7451 931 114.074 420.119 507.915
1098 0 73.0227 12.2565 895 116.048 419.684 506.597
1099 0 78.0515 12.9146 1008 112.266 421.2 507.337
1100 0 78.0287 12.8542 1003 113.158 421.037 505.179
1101 0 82.133 13.1616 1081 111.337 420.197 502.222
1102 0 84.0232 12.0562 1013 114.733 421.163 501.359
1103 0 85.0375 12.3828 1053 114.476 420.172 499.974
1104 0 89.0829 12.5277 1116 114.676 420.779 498.452
1105 0 91.0551 13.069 1190 113.382 420.51 498.971
1106 0 93.0706 12.8934 1200 113.719 420.809 496.542
1107 0 95.1374 12.8446 1222 115.232 421.381 494.865
1108 0 99.1259 12.9633 1285 114.385 420.614 493.994
1109 1 52.0352 10.8004 562 112.996 421.196 516.879
1110 0 55.075 12.0744 665 108.072 420.08 517.155
1111 0 58.0873 12.6534 735 104.776 420.834 515.683
1112 0 58.0361 11.9408 693 107.378 420.788 514.045
1113 0 59.1093 12.7729 755 105.858 420.894 514.029
1114 0 59.1093 12.7391 753 133.078 420.875 514.073
1115 0 62.0815 12.3869 769 105.492 421.537 512.352
1116 0 64.0227 12.3706 792 106.503 420.874 510.989
1117 0 65.0798 12.8919 839 106.132 421.055 510.828
1118 0 69.084 12.9987 898 105.285 420.316 510.551
1119 0 69.1271 13.0918 905 106.36 419.947 509.523
1120 0 71.0996 13.1224 933 106.368 420.703 508.212
1121 0 75.1265 13.5239 1016 104.505 421.09 507.363
1122 0 77.1841 13.3318 1029 104.619 421.135 505.528
1123 0 80.2192 13.6252 1093 104.788 420.648 505.889
1124 0 82.2492 12.9971 1069 108.92 421.452 502.518
1125 0 82.2332 13.4617 1107 109.051 420.43 501.875
1126 0 84.2655 12.9828 1094 111.602 421.507 499.951
1127 0 88.2983 13.4997 1192 110.275 420.654 498.998
1128 0 91.2011 13.9033 1268 110.11 420.972 497.516
1129 0 92.221 13.6954 1263 110.946 420.553 494.88
1130 0 94.1043 13.4744 1268 109.841 420.685 491.118
1131 0 97.177 13.46 1308 110.789 420.241 487.528
1132 0 100.116 13.4544 1347 111.202 420.741 478.804
1133 0 101.094 13.344 1349 113.875 420.221 466.759
1134 0 106.186 12.8642 1366 115.206 420.856 466.051
1135 1 55.111 11.0141 607 119.122 420.552 490.153
1136 0 54.0834 10.6687 577 119.612 421.204 495.731
1137 0 56.0415 11.8484 664 117.898 420.459 497.97
1138 0 57.0444 12.1309 692 113.53 421.029 507.347
1139 0 61.0632 12.1022 739 114.563 419.723 504.114
1140 0 64.016 12.0751 773 114.872 420.154 492.816
1141 0 66.0496 12.4755 824 114.478 419.803 490.422
1142 0 69.0854 12.2457 846 113.669 418.866 487.599
1143 0 69.0588 12.3808 855 116.301 419.752 484.214
1144 0 71.051 12.2729 872 117.927 419.565 484.477
1145 0 76.0863 12.4201 945 115.022 419.919 486.237
1146 0 74.0796 12.5271 928 117.915 420.041 489.253
1147 0 78.0832 12.0128 938 118.005 419.978 487.923
1148 0 80.063 12.8149 1026 115.997 420.046 493.019
1149 0 83.0578 12.7261 1057 102.305 419.767 496.763
1150 0 84.0794 12.7855 1075 102.159 419.446 493.472
1151 0 87.1219 13.3835 1166 100.653 419.304 490.599
1152 0 88.0721 12.4444 1096 101.891 418.975 490.286
1153 0 92.1568 12.8802 1187 100.004 418.728 489.784
1154 0 95.1686 12.9454 1232 98.2118 418.959 487.959
1155 0 98.1446 13.4394 1319 96.8446 418.431 486.28
1156 0 98.0844 13.2641 1301 97.5058 419.613 484.659
1157 0 101.158 13.2961 1345 97.4305 419.262 484.36
1158 0 105.231 13.1616 1385 97.6123 419.474 480.447
1159 0 108.128 12.9661 1402 98.6063 419.652 479.371
1160 0 115.187 13.1178 1511 98.685 419.553 477.118
1161 0 117.2 12.9266 1515 97.9723 419.738 475.563
1162 0 121.114 12.8309 1554 96.61 419.214 473.906
1163 0 124.084 13.3538 1657 94.9415 418.98 471.674
1164 1 62.0369 10.2358 635 94.5213 418.6 501.844
1165 0 65.0171 10.7049 696 93.8793 419.307 501.884
1166 0 69.0613 11.4826 793 90.2749 418.886 502.182
1167 0 72.0871 10.6122 765 92.7242 419.32 501.936
1168 0 74.0889 11.2702 835 93.1186 419.052 500.638
1169 0 76.034 11.4686 872 94.0092 419.321 499.58
1170 0 79.0797 11.4189 903 95.3333 419.605 497.911
1171 0 83.0628 10.9796 912 96.1458 420.076 499.132
1172 0 84.1021 10.8677 914 98.9628 419.606 496.6
1173 0 86.1163 11.4612 987 100.021 419.879 494.718
1174 0 89.0716 11.6423 1037 100.426 419.836 493.022
1175 0 91.1524 12.2761 1119 100.734 419.581 491.981
1176 0 93.0507 11.4024 1061 104.267 418.99 490.692
1177 0 97.0913 11.9681 1162 103.347 418.302 488.284
1178 0 100.099 12.2179 1223 103.953 418.547 487.001
1179 0 104.228 12.4631 1299 103.209 419.48 485.584
1180 0 106.099 13.1481 1395 102.143 418.733 484.437
1181 0 108.071 12.6676 1369 102.769 420.705 482.598
1182 0 114.067 12.5891 1436 102.393 420.24 481.568
1183 0 115.114 12.6571 1457 103.513 419.338 479.645
1184 0 119.093 12.6624 1508 103.001 420.009 478.285
1185 0 124.094 12.837 1593 103.375 418.852 475.084
1186 0 126.117 12.9007 1627 103.316 418.928 473.588
1187 0 131.164 13.3497 1751 103.045 417.998 470.939
1188 0 137.176 13.326 1828 103.316 418.589 468.768
1189 1 76.0823 10.1075 769 102.423 418.168 501.576
1190 0 81.0851 11.5064 933 102.564 419.08 499.701
1191 0 84.1505 12.3232 1037 107.355 419.527 500.894
1192 0 88.1023 11.6683 1028 110.758 418.331 499.91
1193 0 89.0706 12.114 1079 108.016 418.483 498.943
1194 0 93.1296 11.339 1056 101.457 419.05 499.636
1195 0 93.0522 11.3055 1052 101.98 418.877 498.252
1196 0 97.1406 11.4062 1108 99.7301 419.12 498.552
1197 0 99.1715 11.0717 1098 99.0638 419.902 495.84
1198 0 103.117 10.4832 1081 99.8205 419.068 494.086
1199 0 107.111 10.9419 1172 95.3797 418.882 492.94
1200 0 110.068 9.85755 1085 97.635 419.807 490.67
1201 0 115.152 10.2387 1179 96.8609 420.107 489.474
1202 1 63.0667 10.0687 635 95.3213 420.279 513.55
1203 0 65.0624 11.0202 717 94.0628 418.211 512.94
1204 0 68.0436 10.9783 747 91.4592 419.008 510.635
1205 0 69.0512 11.7015 808 90.5458 419.004 510.236
1206 0 72.0153 11.6086 836 91.2356 418.895 510.987
1207 0 74.0464 12.1275 898 90.3452 418.664 510.542
1208 0 75.0807 11.6941 878 92.049 418.206 509.358
1209 0 79.0464 12.5749 994 91.1046 418.644 507.946
1210 0 81.1397 11.5357 936 88.6325 418.177 504.522
1211 0 82.1952 11.2902 928 88.8782 419.246 501.943
1212 0 85.2006 11.6079 989 88.6603 419.584 500.379
1213 0 88.1441 11.7648 1037 90.1688 420.482 500.194
1214 0 90.0773 11.4901 1035 93.1227 419.965 500.544
1215 0 91.1394 11.6305 1060 95.1651 419.705 495.762
1216 0 97.0638 11.9612 1161 94.4005 419.12 496.028
1217 0 99.2731 11.8159 1173 96.7775 419.43 489.459
1218 0 104.408 12.8917 1346 104.17 419.531 490.498
1219 0 106.391 12.6891 1350 103.942 419.47 487.388
1220 1 55.2082 11.7555 649 106.804 419.955 512.753
1221 0 57.2494 12.3495 707 104.117 420.532 512.543
1222 0 59.1854 12.1483 719 103.606 419.264 511.314
1223 0 59.2019 12.3814 733 103.487 419.385 512.622
1224 0 58.0744 10.7793 626 93.2812 420.395 516.741
1225 0 58.0823 10.4507 607 93.9852 419.639 515.964
1226 0 61.1532 9.82778 601 93.2512 420.306 515.499
1227 0 63.0892 10.4614 660 91.7045 419.761 513.73
1228 0 66.1374 11.1435 737 90.1262 420.09 512.425
1229 0 68.0677 10.2986 701 90.3638 420.05 511.581
1230 0 68.1202 10.32 703 89.5633 420.822 510.088
1231 0 71.1465 10.9071 776 88.5335 420.277 509.594
1232 0 78.0889 12.4217 970 83.5258 420.898 504.535
1233 0 76.0796 11.3697 865 87.5445 421.346 505.316
1234 0 81.1311 11.7957 957 85.8433 420.964 502.771
1235 0 83.0678 11.3522 943 88.5557 419.985 502.14
1236 0 84.1365 11.3387 954 89.3732 420.258 502.428
1237 0 87.1224 11.7191 1021 89.4652 420.757 500.366
1238 0 90.1385 11.2715 1016 89.7362 419.942 497.387
1239 0 93.1588 11.8507 1104 88.7971 421.256 496.832
1240 0 94.1123 11.465 1079 90.7822 421.449 494.318
1241 0 97.1874 11.3183 1100 92.8991 421.315 489.909
1242 0 100.296 11.815 1185 92.4152 420.208 488.221
1243 0 102.305 11.1627 1142 94.3161 421.378 487.371
1244 0 106.373 11.3563 1208 93.0902 420.38 484.387
1245 0 109.249 11.2587 1230 93.0537 420.902 482.277
1246 0 111.29 11.3128 1259 93.1048 419.575 481.992
1247 0 115.269 11.7811 1358 91.6856 419.672 480.716
1248 0 117.25 11.565 1356 98.059 419.336 476.053
1249 0 123.237 11.7254 1445 93.4713 420.156 475.052
1250 0 128.355 11.8577 1522 94.3423 420.032 475.601
1251 0 129.443 12.183 1577 95.5466 420.788 473.256
1252 0 135.364 11.8717 1607 97.0753 421.185 470.176
1253 0 140.281 12.9455 1816 95.6035 421.122 470.878
1254 0 145.345 12.9897 1888 97.5418 421.208 469.751
1255 0 148.43 13.2655 1969 98.2219 421.266 467.632
1256 0 154.374 13.8883 2144 97.5107 419.672 464.921
1257 0 159.32 13.9594 2224 98.4258 420.352 463.847
1258 0 163.306 12.4919 2040 103.651 420.373 461.313
1259 0 169.422 13.0621 2213 103.159 419.632 458.072
1260 0 175.423 13.0542 2290 104.16 420.382 455.652
1261 0 178.411 12.488 2228 106.228 419.96 451.987
1262 0 184.358 13.3708 2465 103.399 420.495 449.377
1263 0 191.298 13.3091 2546 102.064 420.215 450.009
1264 0 197.4 13.465 2658 102.194 420.494 447.486
1265 0 202.289 13.0951 2649 104.006 419.888 438.755
1266 0 209.366 12.8722 2695 105.236 419.571 439.886
1267 0 215.473 13.2174 2848 104.725 419.365 435.629
1268 0 221.31 12.8688 2848 105.281 419.439 432.13
1269 0 229.363 13.2977 3050 104.662 419.046 428.261
1270 0 239.326 14.4239 3452 99.9818 419.84 421.191
1271 1 182.23 12.4019 2260 104.503 419.677 452.056
1272 0 187.214 13.6635 2558 101.639 419.586 449.99
1273 0 193.163 13.6672 2640 101.354 420.699 446.435
1274 0 197.196 12.9516 2554 103.531 420.177 444.433
1275 0 205.167 13.2478 2718 103.117 420.242 438.127
1276 0 213.112 12.8008 2728 103.619 419.848 434.534
1277 0 220.164 12.9903 2860 101.517 420.186 430.048
1278 1 62.0861 11.3391 704 90.0639 419.804 512.037
1279 0 64.0875 12.0928 775 89.329 420.426 511.881
1280 0 65.0788 11.8933 774 90.3475 419.687 508.47
1281 0 68.0756 12.6036 858 89.3042 419.991 507.658
1282 0 69.1029 12.0545 833 93.0384 420.341 508
1283 0 72.1427 12.1565 877 94.1095 420.48 507.075
1284 0 72.1411 12.1706 878 147.782 420.489 507.144
1285 0 75.1357 12.2711 922 96.8742 420.852 505.039
1286 0 78.1007 12.3558 965 96.1617 421.368 504.06
1287 0 82.1254 12.9558 1064 94.0611 420.873 502.682
1288 0 82.112 11.9471 981 97.8043 421.387 502.169
1289 0 86.1007 12.9151 1112 95.5126 421.424 500.205
1290 0 88.2035 12.9473 1142 96.2583 421.07 500.728
1291 0 87.131 11.6262 1013 89.1283 421.372 500.056
1292 0 91.1036 11.3826 1037 88.4282 420.281 499.222
1293 0 94.1673 12.0955 1139 87.5364 421.244 496.973
1294 0 98.2061 11.9748 1176 87.3776 420.347 496.233
1295 0 101.223 12.2107 1236 86.5777 420.532 494.586
1296 0 103.212 11.9075 1229 86.7901 420.216 492.673
1297 0 107.143 12.2266 1310 85.2046 420.999 490.584
1298 0 113.092 11.8576 1341 85.0022 420.383 489.154
1299 0 113.093 11.884 1344 132.077 419.381 489.12
1300 0 121.171 12.503 1515 83.7472 420.815 483.039
1301 1 68.1869 11.1165 758 92.8417 419.703 508.505
1302 0 68.1418 10.5222 717 92.4198 420.04 508.003
1303 0 71.1126 10.5748 752 88.2939 419.32 507.306
1304 0 74.0607 11.9632 886 80.6885 419.746 505.137
1305 0 74.184 11.9298 885 86.0689 419.192 506.081
1306 0 76.1306 12.3735 942 83.6858 419.838 504.608
1307 0 80.0702 12.3517 989 82.2144 419.884 503.213
1308 0 82.1304 12.6141 1036 84.3909 419.87 501.624
1309 0 83.1719 12.2878 1022 85.5978 420.502 500.461
1310 0 86.3621 12.5402 1083 84.012 420.241 499.061
1311 0 88.1836 12.4967 1102 84.225 420.347 497.433
1312 0 89.2501 12.2353 1092 84.7738 419.505 496.805
1313 0 95.3082 13.1363 1252 82.0687 419.705 496.319
1314 0 100.262 14.7514 1479 77.1264 419.729 491.306
1315 0 102.306 13.9973 1432 78.0663 419.409 491.585
1316 0 102.38 13.0006 1331 82.3223 419.476 489.986
1317 0 106.365 13.2468 1409 80.9631 420.263 485.553
1318 0 109.514 13.286 1455 80.6282 419.229 483.845
1319 0 110.319 12.7449 1406 82.3115 419.481 481.401
1320 0 113.306 13.159 1491 82.2804 419.252 479.36
1321 0 115.409 13.4565 1553 81.6858 420.286 476.577
1322 0 118.507 13.265 1572 84.8174 419.457 475.767
1323 0 122.354 13.0686 1599 86.9612 419.212 474.361
1324 0 125.445 13.3126 1670 86.9383 420.689 473.742
1325 0 128.526 13.4836 1733 88.7467 420.876 470.465
1326 0 130.479 12.6917 1656 91.3883 419.897 468.89
1327 0 132.292 13.7347 1817 89.2471 421.533 466.668
1328 0 137.401 13.4352 1846 88.8174 420.148 466.053
1329 0 141.41 13.132 1857 90.3872 419.108 464.268
1330 0 146.256 14.0233 2051 87.5651 419.475 462.691
1331 0 149.355 13.7927 2060 87.5286 419.064 461.639
1332 0 155.357 13.6653 2123 86.3585 419.451 460.096
1333 0 158.398 13.5482 2146 88.1855 419.665 458.168
1334 0 163.244 13.8627 2263 88.1936 420.187 454.154
1335 0 167.135 13.4263 2244 90.3846 419.234 451.077
1336 0 173.269 13.9552 2418 86.6088 420.138 448.907
1337 0 176.272 13.5415 2387 87.9975 419.62 445.781
1338 0 184.181 14.2795 2630 87.103 419.752 441.45
1339 0 189.343 13.7422 2602 91.3317 418.626 438.929
1340 0 195.272 13.6118 2658 92.8138 419.422 436.062
1341 0 201.27 13.6334 2744 95.3743 419.238 431.506
1342 0 207.381 13.6223 2825 97.3965 418.86 428.256
1343 0 212.312 13.3012 2824 97.7302 418.645 425.375
1344 0 220.321 12.9039 2843 98.0876 419.22 423.791
1345 1 161.144 10.7605 1734 98.1378 419.747 454.537
1346 0 167.161 11.5518 1931 96.8933 419.199 446.746
1347 0 173.202 11.501 1992 98.8429 420.079 443.154
1348 0 177.36 11.908 2112 97.8011 419.929 438.658
1349 0 188.206 12.6829 2387 95.8312 419.795 436.704
1350 1 197.401 12.9027 2547 94.4535 418.909 435.971
1351 0 202.302 13.0251 2635 96.0528 419.339 429.14
1352 0 208.348 13.319 2775 95.3878 419.071 426.148
1353 0 214.325 12.8916 2763 96.662 418.611 426.147
1354 0 222.32 12.7789 2841 96.6565 418.735 420.548
1355 0 231.399 13.1893 3052 94.9833 418.731 418.246
1356 0 238.401 13.0201 3104 96.3508 418.359 412.526
1357 0 247.475 13.266 3283 97.8599 417.882 405.995
1358 0 255.361 13.2048 3372 99.1112 419.255 403.894
1359 1 190.256 12.0837 2299 99.1422 418.892 437.632
1360 0 195.361 12.802 2501 99.2767 418.853 433.551
1361 0 201.245 12.855 2587 99.1237 418.258 429.981
1362 0 207.294 13.1021 2716 98.7441 419.279 427.732
1363 0 215.28 13.4151 2888 98.4013 418.86 424.489
1364 0 221.34 13.3189 2948 98.924 418.919 421.597
1365 0 225.202 13.2903 2993 99.6973 419.574 419.362
1366 0 234.373 13.0646 3062 100.084 418.769 417.259
1367 0 240.289 13.6461 3279 97.3153 418.929 413.493
1368 0 248.331 13.5585 3367 96.4526 418.306 411.393
1369 0 254.299 13.3819 3403 96.9077 418.265 403.217
1370 1 266.351 13.685 3645 96.1336 418.116 401.585
1371 0 272.412 14.0889 3838 95.1665 418.972 397.485
1372 0 283.508 13.34 3782 98.9371 418.52 391.603
1373 0 294.438 13.6327 4014 98.6059 419.069 389.025
1374 0 301.443 15.0642 4541 97.303 418.663 379.746
1375 0 312.534 15.9726 4992 95.2808 418.745 372.627
1376 1 249.394 12.3339 3076 104.304 418.376 407.496
1377 0 258.347 12.909 3335 95.4336 418.259 406.709
1378 0 256.244 12.8745 3299 103.614 419.048 401.689
1379 0 261.345 12.5925 3291 101.03 419.073 400.444
1380 0 261.271 12.7875 3341 104.575 418.417 399.762
1381 0 266.324 13.048 3475 107.223 418.419 398.73
1382 0 274.29 13.1029 3594 106.266 417.817 396.208
1383 0 283.332 12.7589 3615 104.654 417.453 391.501
1384 0 292.365 12.4536 3641 103.526 417.469 386.236
1385 0 303.331 13.1408 3986 98.0835 417.945 381.452
1386 1 325.364 20.2481 6588 76.5533 418.115 352.615
1387 1 83.2059 10.2276 851 81.2867 418.63 494.532
1388 0 85.3313 10.7932 921 79.076 418.822 493.94
1389 0 88.2424 10.8791 960 78.5167 417.686 490.956
1390 0 89.4808 10.8403 970 79.4784 417.668 491.311
1391 0 91.2492 11.7919 1076 78.8736 417.781 488.935
1392 0 95.2963 11.522 1098 79.0474 418.993 489.198
1393 0 97.395 11.1915 1090 81.3826 418.096 487.368
1394 0 99.3042 11.0972 1102 82.5508 418.671 486.188
1395 0 101.424 11.9695 1214 81.4654 418.915 482.993
1396 0 101.317 10.3042 1044 86.9607 418.97 483.408
1397 0 104.204 10.7577 1121 87.2105 419.095 483.434
1398 0 106.325 10.6654 1134 89.0926 418.696 481.729
1399 0 110.211 11.2148 1236 89.2079 418.938 478.575
1400 0 112.301 10.8993 1224 91.531 417.698 477.019
1401 0 121.278 13.6134 1651 85.255 418.259 469.427
1402 0 123.178 13.1436 1619 88.383 418.094 470.342
1403 0 125.167 13.1424 1645 91.4231 417.588 469.018
1404 0 129.2 14.1021 1822 89.3908 417.795 467.426
1405 0 131.134 12.8418 1684 94.9501 417.895 465.331
1406 0 130.14 11.672 1519 100.464 418.915 467.443
1407 0 132.2 11.4447 1513 102.633 418.156 466.122
1408 0 136.169 12.5285 1706 101.642 418.321 463.787
1409 0 140.118 12.9962 1821 101.7 418.129 460.141
1410 0 140.157 11.8867 1666 107.525 417.848 459.405
1411 0 146.137 12.3172 1800 106.901 417.646 455.119
1412 0 149.168 11.772 1756 108.795 418.305 454.61
1413 0 154.208 12.2043 1882 109.304 417.731 452.612
1414 0 159.238 12.6854 2020 109.509 417.169 452.12
1415 0 162.281 12.7988 2077 111.802 418.092 448.109
1416 0 164.217 12.7088 2087 113.597 417.135 445.423
1417 0 172.253 13.2306 2279 111.388 417.815 440.514
1418 1 18.0394 3.93584 71 69.4648 415.704 522.845
1419 0 16.0107 3.87242 62 67.7581 415.984 522.79
1420 0 17.0205 4.3477 74 66.2432 416.473 523.77
1421 0 27.0981 7.23298 196 63.1429 417.23 526.924
1422 0 30.1991 8.34462 252 68.5357 418.929 530.19
1423 0 31.0678 9.1413 284 69.4577 418.426 531.599
1424 0 32.0483 7.70713 247 72.2348 419.162 532.255
1425 0 33.056 9.7108 321 69.3302 418.262 531.623
1426 0 30.0255 8.79251 264 74.3258 418.53 531.102
1427 0 34.0561 9.13198 311 72.7749 418.338 531.26
1428 0 34.0335 9.81385 334 71.4042 419.422 530.97
1429 0 34.0111 9.08526 309 73.9062 418.783 531.434
1430 0 35.1118 9.85425 346 73.1387 419.066 532.199
1431 0 36.048 9.70927 350 72.4257 419.297 531.831
1432 0 35.0257 9.76425 342 72.6082 419.538 531.134
1433 0 33.07 10.5534 349 72.4212 419.261 531.057
1434 0 35.0207 10.4224 365 72.0082 418.797 530.049
1435 0 34.0411 10.076 343 72.8542 418.259 531.082
1436 0 35.0245 10.3927 364 72.4286 418.577 529.069
1437 0 36.0331 9.46352 341 72.9883 418.601 530.44
1438 0 34.0693 9.71548 331 72.9819 418.366 530.64
1439 0 36.0324 9.57472 345 72.6609 418.759 529.777
1440 0 36.0667 9.87059 356 71.6039 418.927 530.545
1441 0 36.0269 10.8252 390 69.8897 419.033 529.508
1442 0 33.0274 10.5064 347 72.3718 419.548 529.3
1443 0 37.0315 10.8286 401 69.1496 419.347 528.895
1444 0 35.0791 9.83492 345 71.7768 418.652 528.69
1445 0 36.0545 9.54111 344 71.4128 418.599 528.622
1446 0 35.0835 9.77667 343 71.2332 418.566 528.513
1447 0 35.0251 10.1356 355 69.8254 419.099 528.203
1448 0 36.0362 9.18522 331 70.8399 418.402 528.163
1449 0 32.0211 10.2745 329 71.4438 418.79 528.979
1450 0 36.0583 9.06864 327 70.5107 419.058 529.303
1451 0 34.041 10.0173 341 69.4839 417.666 528.742
1452 0 33.0488 10.0155 331 68.8701 419.199 528.994
1453 0 35.0252 10.8208 379 66.2902 418.654 528.198
1454 0 34.0126 10.3785 353 66.7224 418.87 529.34
1455 0 36.0233 9.43834 340 67.85 418.424 528.935
1456 0 33.0452 9.89555 327 68.0153 418.471 528.67
1457 0 33.185 8.88957 295 69.1898 416.888 525.288
1458 0 32.0229 9.14971 293 69.5051 418.034 529.178
1459 0 33.0579 7.92548 262 70.813 417.576 529.947
1460 0 32.0139 8.4963 272 69.1802 420.176 529.324
1461 1 45.0334 9.3042 419 57.7232 420.928 523.561
1462 0 42.0703 11.0054 463 55.0994 421.197 523.076
1463 0 36.162 10.5636 382 61.1309 420.838 523.751
1464 0 32.032 8.3042 266 68.5489 420.06 529.165
1465 0 32.0593 8.32831 267 67.6779 421.712 527.322
1466 0 31.0611 8.08084 251 67.6653 419.526 528.374
1467 0 29.0044 6.79207 197 68.1523 420.599 527.239
1468 0 28.022 7.45843 209 66.0191 420.856 527.579
1469 0 31.0699 8.6579 269 64.145 420.19 527.48
1470 0 30.0491 7.92038 238 65.5084 420.147 527.155
1471 0 28.0544 7.2003 202 66.099 419.648 527.827
1472 1 10.0001 1.39999 14 60.7143 419.929 516.571
1473 1 27.0125 6.33039 171 65.7485 419.708 529.38
1474 0 29.0061 7.44671 216 63.2778 420.25 526.482
1475 0 32.0979 8.13138 261 60.3946 420.153 519.751
1476 1 48.1431 10.6973 515 47.2194 420.291 517.864
1477 0 47.0512 9.2665 436 48.6606 420.339 523.108
1478 0 36.0538 11.9821 432 48.4537 420.324 523.396
1479 0 46.1697 12.1292 560 43.1 420.154 518.859
1480 0 51.1047 9.23594 472 46.4661 420.203 520.68
1481 0 43.0964 11.4627 494 46.336 419.67 520.526
1482 0 44.0723 12.4341 548 44.2208 419.314 519.803
1483 0 43.074 10.6096 457 47.5536 419.543 523.387
1484 0 43.0595 11.8673 511 45.5029 420.025 521.233
1485 0 39.1534 11.5954 454 47.4449 419.042 521.218
1486 0 41.2367 10.7186 442 47.9661 421.452 520.061
1487 0 40.031 11.1164 445 47.1618 420.67 520.58
1488 0 40.0814 10.6284 426 47.4484 420.716 520.411
1489 0 38.1533 9.8812 377 48.5889 421.475 521.061
1490 1 0 0 0 -nan -nan -nan
1491 1 38.0727 9.79706 373 49.9786 421.45 519.981
1492 0 38.0831 9.63682 367 49.4768 420.981 519.441
1493 0 35.1207 10.5636 371 49.7871 421.434 519.224
