time division length width area intensity CMx CMy
0 0 40.03 12.3158 493 142.345 91.0892 504.134
1 0 39.0371 13.3719 522 137.115 91.5402 503.697
2 0 40.0435 13.2106 529 133.017 91.0284 503.414
3 0 43.0182 13.1572 566 131.018 91.1873 502.853
4 0 44.0089 13.9744 615 129.906 91.5756 501.872
5 0 43.0293 12.1313 522 121.619 92.1571 502.987
6 0 43.0463 12.8466 553 119.259 91.9964 502.928
7 0 44.022 13.1979 581 117.015 92.3649 502.728
8 0 45.024 12.7266 573 117.216 92.5934 502.037
9 0 46.0403 12.1633 560 117.1 91.8804 502.232
10 0 49.0421 12.9684 636 111.802 91.2201 502.52
11 0 50.0367 12.6907 635 110.861 91.7874 500.387
12 0 50.0132 13.0366 652 109.672 91.819 501.594
13 0 53.0088 12.696 673 107.597 91.1649 500.45
14 0 54.0188 13.1991 713 107.011 90.4039 499.614
15 0 55.0651 13.0573 719 105.656 91.3157 498.317
16 0 58.0724 13.001 755 104.003 91.204 497.694
17 0 60.0741 12.5179 752 103.689 91.0346 496.827
18 0 62.0713 12.6306 784 103.281 90.912 497.157
19 0 63.0846 12.2692 774 103.685 90.6318 496.5
20 0 65.1103 13.0701 851 101.325 90.4242 496.029
21 0 67.0537 12.3483 828 102.554 89.4444 494.617
22 0 69.0108 12.8676 888 100.818 89.5709 495.055
23 0 73.0439 13.2249 966 99.6605 89.7598 492.398
24 0 74.0373 12.9124 956 100.809 89.6506 489.629
25 0 78.0178 13.3688 1043 99.1898 89.9588 490.432
26 0 80.1093 12.7576 1022 100.742 89.7965 490.747
27 0 84.0778 13.4162 1128 99.9433 90.1152 487.241
28 0 86.0697 13.2451 1140 100.418 89.9465 485.66
29 0 88.0495 13.3561 1176 99.7568 90.0136 485.055
30 0 91.1019 13.1391 1197 100.367 89.9524 484.785
31 0 93.1244 13.3692 1245 101.259 89.388 482.437
32 0 98.0923 13.5688 1331 100.03 89.1773 480.04
33 0 102.109 13.368 1365 101.654 89.2667 477.344
34 0 105.104 14.0338 1475 100.361 89.1505 475.106
35 0 110.074 14.1905 1562 99.6741 89.3355 472.59
36 0 113.153 13.8132 1563 100.513 88.8759 471.974
37 1 62.0917 12.4976 776 103.978 89.0451 495.956
38 0 65.0795 12.3234 802 105.021 89.0873 493.711
39 0 69.0694 12.9001 891 99.1785 89.7003 493.732
40 0 70.0742 12.7151 891 96.092 89.7452 492.649
41 0 73.0905 12.8608 940 94.5681 89.2096 491.081
42 0 75.0695 12.5484 942 95.6603 89.397 490.008
43 0 80.088 12.686 1016 107.47 88.9606 488.568
44 0 82.2543 12.4249 1022 107.422 88.819 486.083
45 0 85.1078 12.9483 1102 103.498 89.5045 486.681
46 0 87.138 12.7728 1113 102.565 88.8589 484.659
47 0 91.15 12.4849 1138 101.384 89.6529 481.866
48 0 93.1 12.6638 1179 98.4334 89.3435 481.283
49 0 97.126 12.7566 1239 96.0993 89.4358 480.31
50 0 100.124 12.3946 1241 96.3457 89.639 477.956
51 0 104.152 12.3377 1285 93.8039 89.8078 474.847
52 0 106.158 11.9915 1273 94.1367 89.2145 476.015
53 1 198.23 12.4754 2473 97.3336 89.3554 431.378
54 0 204.225 12.6282 2579 95.9038 89.1047 426.873
55 0 211.431 13.0634 2762 94.1781 89.891 423.242
56 0 216.308 12.3759 2677 94.226 89.635 419.746
57 0 223.239 12.4709 2784 92.704 90.333 419.393
58 0 230.364 12.5801 2898 91.8123 90.8799 417.363
59 0 237.369 12.3141 2923 91.9808 89.7147 410.833
60 0 245.382 12.0873 2966 93.2121 90.2326 409.389
61 0 249.43 12.4684 3110 98.1794 91.0431 407.593
62 0 253.336 13.0459 3305 97.2775 90.053 408.463
63 0 255.395 12.9329 3303 98.4345 89.7569 406.658
64 0 261.421 13.243 3462 97.411 89.7574 407.349
65 0 264.465 13.5595 3586 100.683 90.6046 400.187
66 0 268.481 12.7979 3436 103.066 90.5835 402.585
67 0 275.458 13.8243 3808 103.21 90.296 399.134
68 0 281.521 14.2014 3998 104.26 90.1546 395.446
69 0 287.45 14.1972 4081 104.668 90.6207 393.089
70 0 292.425 14.5028 4241 106.548 90.7046 387.428
71 0 298.472 13.9644 4168 108.612 91.1267 388.6
72 0 308.476 13.7645 4246 108.869 90.7482 382.113
73 1 98.3225 12.4793 1227 89.2649 90.599 476.372
74 0 101.416 12.3748 1255 90.0064 90.0064 473.801
75 0 103.373 13.224 1367 89.2173 90.6452 472.345
76 0 104.291 13.0597 1362 89.7335 89.9838 470.982
77 0 110.538 12.213 1350 91.5652 90.3096 469.907
78 0 112.652 12.3566 1392 91.3348 90.602 469.565
79 0 114.391 12.3786 1416 91.9753 90.4068 467.544
80 0 121.189 13.1118 1589 90.5249 91.1806 467.129
81 0 126.151 13.0955 1652 92.1895 90.9818 464.288
82 0 129.128 13.1652 1700 92.7159 91.0165 461.833
83 0 132.156 13.2721 1754 92.8016 90.5827 459.338
84 0 136.233 13.2714 1808 94.0514 90.9889 457.109
85 0 139.148 13.1945 1836 93.5136 90.8464 455.474
86 0 143.185 12.8226 1836 91.97 90.9232 456.99
87 0 147.237 12.6395 1861 92.4299 91.569 454.402
88 0 153.203 13.3091 2039 90.7906 91.4198 451.262
89 0 156.196 12.9133 2017 92.3917 90.6133 449.939
90 0 163.147 12.1118 1976 93.1301 91.2014 446.187
91 0 168.247 12.5708 2115 92.9546 90.6804 442.887
92 0 174.12 12.7843 2226 92.2767 90.9443 439.046
93 1 128.168 11.3679 1457 96.9334 90.8737 461.889
94 0 132.153 12.2888 1624 95.8442 91.1201 458.241
95 0 137.24 12.6129 1731 96.0376 90.8036 457.859
96 0 140.144 13.2435 1856 95.6659 90.882 453.058
97 0 142.257 12.4141 1766 97.5866 90.3539 457.39
98 0 146.164 12.007 1755 98.7721 90.5624 453.661
99 0 152.209 12.1149 1844 97.2294 89.9837 452.025
100 0 154.14 12.002 1850 97.8811 90.0892 450.634
101 0 159.318 11.6936 1863 98.0682 90.0188 447.528
102 0 165.253 11.8183 1953 98.128 89.7184 445.396
103 0 171.383 11.8215 2026 98.1688 90.0676 440.744
104 0 175.288 12.3568 2166 96.891 90.0476 441.014
105 0 181.297 11.9417 2165 98.3991 90.2887 435.903
106 0 188.31 11.9165 2244 98.7848 89.8939 432.085
107 0 194.361 12.1064 2353 98.3697 89.932 430.432
108 0 199.422 11.8242 2358 99.9483 89.9737 427.016
109 0 206.306 11.8465 2444 100.129 89.4669 425.101
110 0 214.472 12.5751 2697 98.5525 89.8053 418.692
111 0 223.365 13.0728 2920 97.1873 89.1688 416.645
112 1 182.39 11.6947 2133 100.908 89.8439 432.85
113 0 188.393 11.9962 2260 102.154 89.6504 429.445
114 0 195.425 12.9615 2533 100.968 89.8693 426.849
115 0 201.345 13.4496 2708 100.616 89.0358 424.63
116 0 207.546 12.9947 2697 103.408 89.7523 420.908
117 0 211.443 12.6228 2669 104.794 89.7939 421.186
118 0 216.322 12.241 2648 106.906 89.571 417.625
119 0 224.278 12.9304 2900 108.001 89.5524 412.883
120 0 230.387 13.4469 3098 106.65 88.9558 411.619
121 0 239.263 13.1571 3148 106.439 88.7513 407.056
122 0 245.402 12.8239 3147 108.935 89.0775 402.227
123 0 251.469 12.9678 3261 107.216 90.0531 399.432
124 0 259.398 13.1535 3412 107.79 90.7998 395.792
125 0 266.535 13.5929 3623 105.045 90.3439 388.442
126 0 272.298 13.1327 3576 108.234 90.3045 380.269
127 0 283.278 13.7286 3889 106.795 90.0923 374.943
128 0 291.372 13.8345 4031 107.032 89.7849 367.8
129 1 310.437 16.8472 5230 95.2078 89.6491 351.167
130 1 63.0515 8.56443 540 77.9759 89.6611 484.339
131 0 68.1412 11.3001 770 87.9442 89.9753 491.682
132 0 67.0652 10.5271 706 87.5878 91.0751 491.722
133 0 70.1137 10.5685 741 87.0594 91.2456 491.367
134 0 73.1249 10.8992 797 86.7139 91.3074 491.163
135 0 74.1097 11.2131 831 86.8544 91.4946 489.946
136 0 76.2114 11.0482 842 89.1164 91.5653 488.793
137 0 80.1524 11.4033 914 88.2681 91.0339 487.427
138 0 81.1169 11.1074 901 92.2486 90.4617 486.007
139 0 83.1074 11.3468 943 91.7667 89.9915 484.433
140 0 87.1324 11.7637 1025 89.7707 89.3727 483.57
141 0 88.2254 11.0739 977 92.433 89.8332 484.815
142 0 91.1704 10.7601 981 94.2864 89.8818 484.734
143 0 93.1831 10.8174 1008 98.1587 89.8502 482.45
144 0 97.2135 11.305 1099 98.2175 90.1356 481.238
145 0 100.254 12.0194 1205 98.0324 89.7577 478.384
146 1 54.1545 10.5624 572 101.362 90.4878 501.143
147 0 56.0701 10.9327 613 96 89.9396 499.873
148 0 56.2263 11.4715 645 96.5984 90.293 498.309
149 0 59.224 12.2079 723 96.2434 90.0332 497.331
150 0 59.155 12.0362 712 97.9396 90.0112 498.5
151 0 60.2208 11.8398 713 99.2118 89.1515 496.95
152 0 63.2003 12.6107 797 96.7992 89.1757 496.974
153 0 66.2148 12.2178 809 97.8764 89.2732 495.717
154 0 66.2358 12.38 820 95.8939 89.3244 494.312
155 0 67.061 9.51373 638 85.9718 88.7759 498.379
156 0 63.1102 10.1885 643 86.7356 89.1633 496.485
157 0 64.0792 9.81598 629 88.5215 89.3037 496.504
158 0 65.0379 10.2709 668 89.5704 88.7919 495.763
159 0 69.0278 10.4451 721 82.9917 89.5381 493.954
160 0 70.0906 10.5578 740 85.5892 89.5581 492.997
161 0 72.1308 10.2175 737 85.5685 89.4627 491.748
162 0 76.0564 11.2811 858 82.6958 89.2214 490.276
163 0 77.0209 10.8931 839 83.907 89.6079 489.626
164 0 77.0651 10.3289 796 84.1935 89.608 488.45
165 0 80.0771 11.5264 923 81.6826 89.5915 486.038
166 0 83.083 11.5788 962 81.3295 89.3035 482.886
167 0 83.052 11.3423 942 82.4607 89.3514 482.367
168 0 88.0957 11.6351 1025 80.9376 89.6556 481.1
169 0 89.0389 11.6017 1033 82.0436 90.2914 479.06
170 0 92.1439 11.0805 1021 86.3232 89.6885 475.882
171 0 96.1037 11.1338 1070 86.1234 90.3131 474.944
172 0 97.0599 11.3229 1099 83.5387 89.9955 474.992
173 0 100.085 11.6201 1163 82.5615 89.9132 473.695
174 0 102.071 11.0609 1129 82.566 90.0266 471.539
175 0 105.136 10.6529 1120 82.1134 89.3982 469.996
176 0 109.254 10.7547 1175 81.8706 89.3728 466.584
177 0 109.159 11.5244 1258 81.0779 89.5159 461.085
178 0 113.2 11.4753 1299 81.0454 89.7598 461.376
179 0 114.146 11.7656 1343 81.0745 89.9382 457.225
180 0 117.182 10.7867 1264 81.2128 90.5356 454.685
181 0 121.237 11.3415 1375 79.8633 90.7898 456.592
182 0 127.258 12.0307 1531 78.0503 89.8472 454.275
183 0 129.252 11.0636 1430 80.2035 90.4161 451.008
184 0 134.184 11.8568 1591 78.5745 89.621 447.705
185 0 140.225 12.2803 1722 78.583 89.9611 447.946
186 0 142.175 12.3299 1753 79.2681 89.5938 444.149
187 0 146.137 11.7219 1713 80.9515 89.6783 443.637
188 0 152.197 12.2802 1869 80.7747 90.0465 442.505
189 0 156.179 11.8902 1857 82.7038 90.5918 439.757
190 0 162.132 12.2739 1990 82.4291 90.1246 436.939
191 0 167.148 12.2108 2041 83.4302 89.8466 436.293
192 0 173.144 12.8506 2225 83.0229 89.0894 432.817
193 0 178.131 12.4178 2212 84.1031 88.6013 431.078
194 1 82.1151 9.73025 799 77.5319 88.3304 482.005
195 0 84.0897 11.0953 933 77.582 88.4812 479.551
196 0 86.1558 11.1426 960 79.1312 88.1406 477.16
197 0 89.1399 11.3417 1011 80.9832 88.55 476.756
198 0 95.0879 12.3044 1170 78.9581 89.0026 477.361
199 0 98.0822 11.4394 1122 81.1586 88.6578 474.671
200 0 102.155 11.6686 1192 80.4941 88.8876 473.885
201 0 104.256 11.5005 1199 82.0133 88.1326 469.687
202 0 108.238 11.1144 1203 105.41 87.8803 466.324
203 0 111.209 11.6087 1291 102.808 87.9179 464.223
204 0 115.16 11.5752 1333 102.319 88.3293 463.951
205 1 56.1235 9.30091 522 90.7395 87.9943 499.052
206 0 55.0401 9.84737 542 90.8321 89.262 497.581
207 0 58.108 11.1 645 90.3705 88.8047 496.016
208 0 59.1407 11.3289 670 90.709 88.5433 494.763
209 0 61.0767 10.9698 670 91.2403 88.1104 494.334
210 0 64.0291 11.3542 727 89.5309 87.8776 493.521
211 0 62.0204 10.158 630 95 87.8254 496.16
212 0 65.0546 10.299 670 94.4418 88.5179 495.693
213 0 66.0186 10.1789 672 96.0402 88.0521 493.424
214 0 69.0167 11.0118 760 94.9474 88.3816 493.176
215 0 70.0185 11.0399 773 96.1669 88.3558 491.004
216 0 74.1139 11.7252 869 93.9954 88.2762 489.778
217 0 75.0786 11.0817 832 95.8642 89.2476 490.084
218 0 75.0928 11.0796 832 144.082 91.25 490.029
219 0 77.1006 11.3488 875 97.9497 88.0183 487.361
220 0 81.0489 12.0051 973 96.2169 87.8972 485.29
221 0 84.0733 11.6208 977 95.8117 87.8946 484.756
222 0 87.0937 11.9297 1039 96.4716 87.4187 482.383
223 0 87.0374 12.0178 1046 99.3987 87.6491 481.161
224 0 91.0613 11.7613 1071 101.427 88.0663 479.674
225 0 92.0613 12.0681 1111 102.406 87.9865 477.12
226 0 98.1352 12.6153 1238 100.235 88.1195 476.117
227 0 101.098 12.2555 1239 100.563 87.2357 474.619
228 0 103.192 12.9176 1333 100.452 87.7607 474.321
229 0 108.101 12.3773 1338 101.278 87.6771 472.512
230 0 111.122 12.7607 1418 100.226 87.9549 470.832
231 0 114.118 13.5211 1543 99.6727 87.8166 468.89
232 0 119.063 13.0099 1549 102.18 87.8025 467.023
233 0 123.194 12.7441 1570 104.288 88.0363 465.015
234 1 64.0962 11.3267 726 98.2218 88.3182 494.676
235 0 67.0335 11.6211 779 98.9474 87.9949 493.321
236 0 69.0631 12.2062 843 97.949 88.503 491.641
237 0 66.0653 10.5804 699 101.555 87.9428 494.622
238 0 69.0212 11.2284 775 98.5252 88.2039 492.192
239 0 70.0725 10.8031 757 96.7635 87.5482 492.118
240 0 73.0966 11.218 820 97.7232 88.339 491.851
241 0 77.0686 11.4963 886 96.4989 87.7833 490.366
242 0 76.0679 10.8982 829 97.7431 88.1351 489.117
243 0 78.0325 10.4828 818 99.28 87.2543 488.597
244 0 81.0899 11.3454 920 97.5772 87.7511 487.565
245 0 86.0873 10.6171 914 97.3796 88.221 487.565
246 0 88.0984 11.5893 1021 97.7532 88.5162 484.659
247 0 90.1159 11.1745 1007 98.2205 88.6415 484.196
248 0 94.0557 11.4188 1074 96.7374 88.6304 482.193
249 0 97.0688 11.4867 1115 96.061 88.635 480.163
250 0 97.1097 10.8434 1053 97.2669 88.6857 479.417
251 0 102.062 11.3166 1155 95.6303 88.561 477.45
252 0 104.074 12.0395 1253 93.5706 87.3703 476.366
253 0 108.092 11.814 1277 94.3453 87.5677 473.493
254 1 57.0508 11.0428 630 93.7 87.5222 496.852
255 0 61.0827 11.4435 699 91.9986 87.6767 495.731
256 0 63.0285 12.0739 761 89.8371 87.9014 494.426
257 0 64.0282 11.4949 736 92.4905 88.9878 492.603
258 0 65.0322 11.5481 751 91.3475 88.9374 491.754
259 0 68.0327 11.9501 813 90.9213 88.3518 490.721
260 0 66.0627 10.596 700 95.89 88.2243 491.664
261 0 68.0844 11.3095 770 94.7727 88.561 491.371
262 0 70.0188 11.5398 808 95.2921 88.4579 489.833
263 0 73.0751 11.3582 830 95.8145 88.3916 488.883
264 0 77.0398 12.2794 946 93.1755 88.4471 487.155
265 0 77.0586 11.7443 905 95.7105 88.084 485.729
266 0 79.0451 11.6895 924 97.4589 88.0509 482.95
267 0 83.0395 12.0184 998 96.0371 87.8497 483.732
268 0 83.0505 11.9445 992 96.9819 87.6633 482.436
269 0 86.0601 11.9335 1027 96.446 87.4216 481.138
270 0 88.0683 11.4911 1012 96.3557 87.502 479.536
271 0 93.033 11.9742 1114 94.1023 87.7154 478.942
272 0 94.0434 12.1221 1140 94.9026 87.5904 478.255
273 0 96.0375 11.9016 1143 94.3535 87.9029 476.311
274 0 99.0249 12.199 1208 92.6854 88.1258 474.2
275 0 102.047 12.7883 1305 91.1395 87.7241 471.232
276 0 106.052 12.1639 1290 91.5287 86.9581 471.027
277 0 109.073 12.1019 1320 89.9879 87.8045 470.418
278 0 112.058 12.0206 1347 90.8055 87.9918 467.056
279 0 116.156 11.8806 1380 89.9203 87.5522 467.581
280 0 120.093 11.233 1349 90.4477 87.957 465.866
281 0 124.081 11.6295 1443 89.7526 87.3056 461.66
282 1 72.1059 11.3167 816 89.0588 88.5527 486.456
283 0 72.1442 11.574 835 86.8731 87.982 486.078
284 0 76.1286 11.6776 889 85.0686 87.9843 484.667
285 0 79.0689 11.9263 943 82.1856 87.4019 484.413
286 0 79.0684 10.3202 816 86.5098 87.8137 487.174
287 0 80.069 10.5659 846 87.409 87.4326 484.757
288 0 86.0662 11.3517 977 86.8721 87.1249 483.589
289 0 89.0428 11.1632 994 88.8783 87.2082 480.904
290 0 92.054 11.3955 1049 89.0505 87.0839 480.774
291 0 97.044 12.3243 1196 87.7099 86.7717 477.535
292 0 98.1205 12.0158 1179 91.8321 87.5852 475.999
293 0 101.041 11.8566 1198 89.571 87.7479 476.442
294 0 105.053 12.765 1341 91.5563 87.8359 472.4
295 0 110.076 12.6822 1396 92.3309 87.0996 472.318
296 0 112.095 13.096 1468 98.0313 87.1403 468.719
297 0 116.172 13.2218 1536 98.1849 87.1191 466.833
298 0 119.17 13.1828 1571 96.5175 88.1388 465.017
299 0 124.085 13.8614 1720 96.4151 87.5006 464.547
300 0 127.095 13.4624 1711 94.3349 87.2922 464.034
301 1 67.1574 12.091 812 92.7365 88.0283 489.931
302 0 70.2005 12.1794 855 90.1789 88.4702 490.396
303 0 70.1446 12.5313 879 95.8419 88.8123 487.779
304 0 70.0401 12.6356 885 97.0814 88.1718 490.609
305 0 72.0238 12.4542 897 97.0959 88.4069 490.126
306 0 76.043 13.0058 989 96.8605 88.1577 488.787
307 0 76.0215 12.0887 919 101.221 87.7976 488.819
308 0 79.07 12.6597 1001 101.198 87.6883 486.548
309 0 83.033 12.7781 1061 101.218 87.6984 485.142
310 0 86.0356 12.9016 1110 101.761 88.0973 484.92
311 0 88.0464 12.7206 1120 103.158 88.217 485.494
312 0 90.0329 12.6176 1136 103.805 87.7975 484.574
313 0 93.0418 13.0694 1216 102.167 87.8651 484.171
314 0 95.0203 12.6078 1198 105.404 87.3907 481.326
315 0 98.0574 12.7884 1254 104.728 87.201 480.469
316 0 102.085 12.8129 1308 103.015 87.3417 481.057
317 0 104.068 12.4918 1300 102.374 87.1277 478.7
318 0 109.076 12.9267 1410 102.796 87.1113 475.291
319 0 113.069 12.7356 1440 102.721 87.0257 474.862
320 1 63.0206 11.409 719 103.826 87.6106 499.944
321 0 64.0405 11.4147 731 102.129 87.4268 498.185
322 0 66.0964 12.4515 823 98.2649 86.9757 498.553
323 0 64.059 11.2553 721 96.7587 86.9431 499.86
324 0 67.0547 11.2445 754 96.3727 86.0265 498.446
325 0 70.1112 10.5975 743 96.961 85.7187 497.969
326 0 72.0387 11.1051 800 95.4388 85.52 496.121
327 0 74.0257 11.2934 836 96.5909 86.0036 496.343
328 0 77.0813 11.157 860 96.9012 85.6221 494.13
329 0 80.067 11.7901 944 97.1091 86.6049 492.243
330 0 82.0955 12.0469 989 97.1992 86.4661 492.587
331 0 85.101 11.4687 976 107.175 86.5625 491.304
332 0 89.1227 12.2191 1089 95.5583 86.303 487.174
333 0 91.1214 11.556 1053 97.0237 86.4122 486.267
334 1 49.0728 11.0856 544 93.9044 85.7077 507.95
335 0 50.1474 11.1671 560 93.9982 85.8161 506.441
336 0 53.0763 11.9074 632 93.1203 85.7326 503.699
337 0 54.0377 11.751 635 105.35 85.9575 502.129
338 0 52.0755 9.81268 511 95.6184 84.4012 504.033
339 0 54.0998 10.2773 556 94.4586 85.3165 504.583
340 0 56.0404 9.60021 538 95.3792 85.4219 503.165
341 0 58.0527 10.8005 627 93.3604 85.4801 501.646
342 0 57.045 10.9387 624 95.5481 85.1042 501.646
343 0 60.0458 10.7418 645 95.9349 84.0357 500.509
344 0 63.1078 11.2823 712 95.0506 84.2767 499.709
345 0 65.0603 11.497 748 96.2393 83.3275 498.729
346 0 67.034 11.4121 765 97.1608 84.2157 498.665
347 0 69.0519 11.2379 776 100.129 83.509 497.188
348 0 72.0685 11.5446 832 100.341 83.1346 497.25
349 0 74.0638 11.9627 886 100.924 83.228 495.587
350 0 76.0513 11.7421 893 99.5106 83.8813 494.658
351 0 77.0709 11.2234 865 101.271 83.8058 493.882
352 0 81.0767 12.0133 974 101.143 83.9055 492.329
353 0 83.1126 12.2244 1016 103.396 83.877 490.993
354 0 84.1461 12.3832 1042 104.903 83.8148 488.222
355 0 88.0843 11.9999 1057 105.893 83.8269 487.672
356 0 90.1384 12.7914 1153 104.226 84.301 485.257
357 0 92.0819 12.5975 1160 104.416 84.2983 485.224
358 0 96.1421 12.5127 1203 103.384 84.9318 483.539
359 0 97.1054 12.6358 1227 102.731 85.119 482.313
360 0 100.075 12.8204 1283 100.676 84.5542 480.489
361 0 103.089 12.9791 1338 99.3759 84.7294 479.492
362 0 107.108 12.0812 1294 100.323 84.0688 476.386
363 0 111.239 13.089 1456 99.7727 84.6834 475.167
364 0 115.143 12.0372 1386 102.89 85.0714 472.053
365 0 114.134 12.7131 1451 101.736 84.929 470.567
366 1 59.0453 10.3141 609 97.6092 84.4975 500.24
367 0 62.0628 11.5689 718 95.3788 85.6616 497.085
368 0 64.0376 11.79 755 96.7815 84.4901 497.407
369 0 66.0178 11.4666 757 97.5839 85.1955 496.491
370 0 65.0712 10.8189 704 100.219 85.358 497.678
371 0 68.0811 10.6491 725 101.182 84.7448 495.542
372 0 69.1242 11.0236 762 102.16 83.8373 494.365
373 0 71.067 11.4258 812 101.276 84.3177 494.047
374 0 75.0985 11.8378 889 100.164 84.91 492.474
375 0 77.0967 11.6607 899 102.339 84.5706 490.763
376 0 79.088 11.228 888 103.247 84.6881 489.676
377 0 81.0972 11.5787 939 104.318 84.9286 487.395
378 0 85.1728 12.2692 1045 101.497 85.177 487.175
379 0 87.1392 12.2792 1070 101.83 85.5449 485.539
380 0 90.0568 12.8141 1154 101.39 85.0711 485.091
381 0 92.1279 12.3958 1142 103.044 84.8905 482.334
382 0 95.0985 12.3766 1177 103.576 85.1852 480.282
383 0 98.125 12.8 1256 102.076 85.633 478.89
384 0 102.078 12.177 1243 104.529 85.4497 477.652
385 0 105.097 12.7502 1340 104.449 85.5679 475.543
386 0 108.125 13.0312 1409 103.456 85.6877 473.017
387 0 112.151 13.0004 1458 101.318 86.1742 473.081
388 0 114.099 12.8836 1470 100.724 86.8912 470.827
389 0 116.131 12.7356 1479 101.408 86.3286 467.229
390 0 122.201 12.864 1572 101.157 86.3938 464.155
391 0 125.19 12.493 1564 100.629 85.7455 463.59
392 0 130.146 12.4937 1626 100.462 85.6587 460.494
393 0 133.228 12.4148 1654 99.8585 85.6173 460.096
394 0 138.151 12.3054 1700 99.5029 85.6818 456.238
395 0 141.186 12.225 1726 98.5232 86.1576 449.851
396 1 57.121 9.08597 519 86.3738 85.6994 490.277
397 0 65.0322 11.6865 760 90.4434 85.7092 495.468
398 0 66.0677 11.352 750 92.1667 86.156 493.852
399 0 66.0671 11.3824 752 144.327 87.1476 493.964
400 0 67.1445 11.021 740 95.6365 86.7595 491.493
401 0 70.0839 11.2722 790 95.2747 86.2203 490.213
402 0 73.1138 11.7351 858 94.6434 85.9988 490.401
403 0 74.1113 12.2249 906 95.1413 86.2528 487.557
404 0 76.116 12.1919 928 95.4321 86.2209 489.036
405 0 75.1046 10.8116 812 87.6318 87.2192 492.741
406 0 75.0566 11.005 826 89.3414 86.707 489.007
407 0 79.0887 10.6083 839 89.4648 86.9619 489.955
408 0 83.0634 11.0759 920 88.713 86.8348 489.488
409 0 83.0927 10.9998 914 90.0131 87.5044 489.254
410 0 84.0481 10.8866 915 91.6503 86.9322 486.764
411 0 89.0879 10.8208 964 91.6151 86.9689 485.807
412 0 90.1078 10.9979 991 92.5025 86.56 481.857
413 0 90.1099 10.9311 985 147.082 85.5574 481.848
414 0 96.0596 10.9619 1053 94.7236 86.8851 480.269
415 0 100.106 12.3469 1236 91.3576 86.4555 479.316
416 0 103.054 11.4309 1178 95.0255 86.9423 477.607
417 0 108.071 11.9089 1287 93.7863 86.7552 477.899
418 0 109.057 11.1502 1216 97.3544 86.3355 475.2
419 0 114.103 11.8226 1349 97.3277 86.4744 472.119
420 0 117.083 12.0428 1410 97.5837 85.9177 470.8
421 0 121.105 12.3777 1499 97.7532 85.9026 469.041
422 0 120.122 11.5882 1392 101.345 86.1925 470.575
423 0 129.141 11.9869 1548 101.127 85.365 465.943
424 0 131.108 12.5164 1641 101.197 84.8592 464.937
425 0 136.143 12.9056 1757 101.732 85.3961 462.64
426 0 141.13 13.3565 1885 102.681 85.2536 457.458
427 1 70.1378 10.5649 741 105.306 85.0796 493.927
428 0 72.0869 10.9174 787 103.673 85.0826 494.238
429 0 73.1118 11.585 847 103.517 84.6375 492.201
430 0 75.083 11.8269 888 103.062 84.7376 490.686
431 0 79.1488 11.9395 945 101.667 84.6603 488.767
432 0 79.068 12.3818 979 101.048 84.6547 484.721
433 0 81.1617 12.1609 987 101.714 85.2979 490.684
434 0 81.214 10.7001 869 105.338 85.3613 491.227
435 0 84.1235 11.7565 989 104.874 85.5763 488.283
436 0 85.2211 11.9102 1015 104.377 85.1429 488.15
437 0 87.2153 11.4544 999 106.238 84.8238 486.555
438 0 91.1385 11.9708 1091 104.617 85.1412 484.421
439 0 93.1847 11.7187 1092 104.485 84.7793 483.252
440 0 97.1283 11.665 1133 103.049 84.1677 480.881
441 0 101.108 12.6796 1282 99.5101 84.5078 479.577
442 0 102.086 12.3425 1260 101.178 84.8437 475.451
443 0 105.235 12.8284 1350 98.3319 84.9785 475.241
444 0 109.142 12.9648 1415 97.7993 84.853 472.102
445 0 114.159 13.0958 1495 96.8254 85.1913 470.914
446 0 116.16 13.49 1567 94.6611 85.5182 468.706
447 0 119.168 13.5439 1614 101.626 84.8401 464.889
448 0 123.193 13.0608 1609 101.369 84.9366 462.15
449 0 125.176 13.1574 1647 100.199 85.1123 460.865
450 0 129.207 13.1959 1705 100.106 85.1713 456.89
451 0 133.289 13.1369 1751 99.2816 85.1845 456.117
452 0 137.294 13.9336 1913 96.334 85.0826 453.336
453 0 141.299 13.2202 1868 97.2527 85.136 452.215
454 0 143.247 12.7961 1833 99.2122 85.2968 449.49
455 1 77.2147 10.3089 796 95.5415 85.5817 486.756
456 0 77.2703 10.4827 810 95.3901 85.1346 487.427
457 0 80.2175 11.0076 883 93.034 85.205 486.89
458 0 80.2795 11.0738 889 93.4241 85.4747 484.269
459 0 82.2868 10.1839 838 98.8842 85.5036 484.161
460 0 92.221 8.6206 795 97.2755 85.5799 483.366
461 0 94.2903 10.1601 958 94.5052 85.7276 479.347
462 0 93.2536 10.5197 981 94.0459 85.998 478.504
463 0 104.304 9.9421 1037 94.1543 86.0993 477.495
464 0 103.201 10.6007 1094 95.3574 86.341 473.992
465 0 104.368 11.9386 1246 93.5642 86.2865 473.094
466 0 108.332 12.1755 1319 93.4041 86.4784 469.731
467 0 109.294 12.4618 1362 91.1791 85.8869 469.756
468 0 112.181 12.5779 1411 91.3827 85.2636 463.446
469 0 115.097 12.042 1386 90.8535 85.7547 466.266
470 0 119.083 13.1337 1564 88.8619 85.6036 461.892
471 0 122.142 12.4281 1518 92.3353 85.9177 457.697
472 0 126.2 12.7179 1605 93.5801 85.5502 453.426
473 0 129.165 12.6117 1629 96.9797 85.6415 449.227
474 0 134.185 12.8926 1730 96.1775 85.2035 448.531
475 0 137.27 12.8798 1768 97.293 85.1669 446.925
476 0 141.19 12.6709 1789 98.2622 85.4097 444.442
477 0 144.137 12.6824 1828 99.6439 85.0673 443.11
478 0 151.271 13.2412 2003 97.8143 85.1663 440.322
479 0 155.2 12.6676 1966 99.531 84.8703 437.761
480 0 159.286 12.6 2007 101.318 84.9915 433.501
481 0 164.262 13.1132 2154 99.5956 85.3217 432.277
482 0 169.389 12.7754 2164 101.684 85.1534 428.424
483 0 174.352 13.0885 2282 100.74 84.9408 427.301
484 0 179.374 12.7109 2280 101.738 84.7732 425.376
485 0 184.262 12.4225 2289 102.492 84.4605 422.24
486 0 191.288 12.6301 2416 101.884 84.166 419.639
487 0 196.259 13.0338 2558 100.564 84.5817 416.922
488 0 203.217 12.5039 2541 100.85 84.636 413.632
489 0 203.228 12.5967 2560 154.473 84.6234 413.645
490 1 154.098 11.8886 1832 98.2129 84.4416 437.738
491 0 154.094 11.837 1824 149.733 83.4364 437.819
492 0 161.134 11.9404 1924 96.685 85.262 435.26
493 0 166.186 12.6003 2094 94.4823 85.2292 430.533
494 0 168.11 12.5573 2111 94.8622 84.9929 424.284
495 0 177.15 12.5938 2231 94.4025 84.5029 422.99
496 1 188.199 13.066 2459 93.0976 83.8605 422.731
497 0 194.184 13.3276 2588 92.7817 84.6789 418.026
498 0 199.26 12.8676 2564 95.9914 84.5725 411.823
499 0 198.245 12.8528 2548 160.785 84.5593 411.83
500 1 218.436 12.6811 2770 97.5968 84.6134 408.836
501 0 228.333 12.4379 2840 97.9849 84.9482 408.468
502 0 236.306 12.5769 2972 98.6157 85.2712 407.387
503 0 244.325 12.9786 3171 95.7263 85.1429 407.786
504 0 253.299 12.5307 3174 97.1248 84.896 400.288
505 0 262.312 12.6071 3307 97.9066 84.3405 395.703
506 0 271.397 12.5278 3400 98.0738 84.5732 391.463
507 1 197.403 12.3403 2436 95.8288 84.8493 429.167
508 0 202.187 11.9295 2412 95.6497 84.6555 418.358
509 0 208.287 11.8346 2465 97.3327 84.7331 415.822
510 0 214.384 12.0532 2584 97.0244 84.5956 415.602
511 0 220.347 11.9856 2641 97.6509 84.5047 411.194
512 0 226.314 11.7889 2668 99.3834 84.6585 407.76
513 0 235.328 12.149 2859 97.6023 84.0332 408.123
514 0 243.354 12.6647 3082 96.9043 84.2498 402.873
515 0 250.437 11.9831 3001 98.3016 84.3129 400.62
516 0 258.33 12.004 3101 99.2425 84.6182 393.769
517 1 202.349 10.8674 2199 98.9513 84.6653 422.582
518 0 209.224 11.6239 2432 97.8446 84.3446 418.438
519 0 214.222 12.221 2618 97.2498 84.28 414.722
520 0 222.237 11.6812 2596 98.3933 84.1556 411.851
521 0 227.177 11.6473 2646 98.7026 84.0083 407.521
522 0 234.314 11.5657 2710 99.1325 84.1295 404.37
523 0 242.25 11.4923 2784 100.284 84.3764 401.44
524 0 251.288 12.0738 3034 99.0214 84.3223 397.938
525 0 260.336 12.1074 3152 98.8706 84.8576 394.82
526 0 268.505 12.2158 3280 99.9479 84.4515 387.127
527 0 279.447 12.378 3459 100.373 84.5033 381.988
528 1 208.437 10.3628 2160 97.7532 84.7454 422.71
529 0 213.415 10.913 2329 98.9279 84.9618 419.618
530 0 220.256 11.6365 2563 97.9243 84.2989 419.967
531 0 226.325 12.3053 2785 93.0729 84.7354 410.966
532 0 233.227 12.4814 2911 92.517 85.2412 405.895
533 0 235.248 11.3922 2680 97.2172 84.3414 400.24
534 0 244.346 12.5723 3072 94.2562 84.5293 392.71
535 0 250.227 11.6534 2916 97.108 84.9746 391.928
536 0 252.188 11.2099 2827 99.1726 84.8762 384.128
537 0 263.176 11.6044 3054 117.596 84.5491 383.097
538 0 269.31 11.8711 3197 102.036 84.6181 379.887
539 0 281.336 11.4418 3219 97.6368 84.6996 370.767
540 1 60.105 7.70319 463 70.6263 85.6803 498.3
541 0 63.0703 9.38635 592 68.8834 85.3395 499.748
542 0 63.0637 9.13362 576 69.9688 84.8281 498.498
543 0 66.0634 9.68766 640 69.1125 84.6234 498.358
544 0 71.0628 9.03426 642 83.1807 84.5358 494.872
545 0 74.2349 10.4264 774 82.3359 85.4302 493.505
546 0 74.0961 9.58216 710 81.4254 84.638 495.013
547 0 75.1866 10.4274 784 83.9337 85.4196 491.98
548 0 81.1923 10.2103 829 84.0953 85.0205 493.107
549 0 82.1973 9.58668 788 86.7817 84.6777 491.003
550 0 84.1518 10.1602 855 86.4819 85.7205 489.05
551 0 90.2638 10.5136 949 86.3509 85.4742 486.12
552 0 91.2149 10.8096 986 86.073 84.5 486.856
553 0 93.3418 14.0452 1311 75.6697 84.6674 481.246
554 1 110.385 14.4404 1594 68.4486 84.4479 476.551
555 0 107.236 15.9089 1706 67.8406 84.6096 476.532
556 0 106.284 15.976 1698 69.3592 84.4011 473.924
557 0 107.3 15.4427 1657 72.8908 83.9046 474.126
558 0 106.173 15.4088 1636 75.1987 84.2665 473.681
559 0 105.36 13.022 1372 84.6356 84.7281 476.606
560 0 110.394 12.1384 1340 89.0634 84.4627 475.39
561 0 112.428 11.0293 1240 90.5258 85.2895 475.661
562 0 116.32 11.3308 1318 89.9856 84.7322 472.769
563 0 116.239 11.0892 1289 86.9829 83.571 471.948
564 0 122.084 13.8839 1695 69.7233 84.223 466.185
565 0 121.154 10.2349 1240 78.2298 84.1669 466.015
566 0 123.172 11.8777 1463 87.0212 83.8688 469.248
567 0 118.177 9.19803 1087 82.4342 84.5198 467.677
568 0 119.165 8.70223 1037 87.3809 83.8505 467.39
569 0 132.234 13.4837 1783 77.8155 84.6349 460.758
570 0 134.216 13.821 1855 77.6162 84.159 458.544
571 0 137.138 13.3588 1832 80.0109 83.8029 457.819
572 0 140.201 13.5234 1896 79.9747 83.8903 457.118
573 0 145.211 13.6973 1989 78.6797 84.0271 453.611
574 0 147.255 13.3442 1965 80.3537 84.1837 450.169
575 0 152.434 13.8748 2115 81.7173 83.5948 450.417
576 0 158.456 15.2282 2413 83.0423 83.9441 447.559
577 0 161.416 14.7321 2378 88.2157 83.6346 445.252
578 0 166.505 14.7443 2455 88.8525 83.8265 442.854
579 0 171.508 15.3812 2638 86.1653 83.1175 440.219
580 0 175.463 14.5102 2546 89.209 83.7659 437.963
581 0 179.65 14.5115 2607 90.0959 83.944 435.298
582 0 185.409 14.6217 2711 90.3833 84.1214 433.06
583 0 190.346 14.6155 2782 87.5345 83.7771 426.675
584 0 194.268 14.0116 2722 87.867 83.6719 427.341
585 0 202.102 14.1463 2859 86.0853 83.6401 424.705
586 0 209.463 14.5277 3043 84.8702 83.8301 420.698
587 0 216.351 14.5782 3154 84.4195 83.9182 416.234
588 0 221.375 14.1479 3132 87.0275 83.2219 411.986
589 0 228.404 14.111 3223 88.9016 84.0078 408.209
590 1 172.431 11.7844 2032 89.0743 83.4021 440.309
591 0 176.309 12.1265 2138 89.1651 83.2746 437.728
592 0 178.313 11.4686 2045 91.0205 83.5198 435.749
593 0 186.354 11.945 2226 89.5472 83.6195 431.077
594 0 191.436 11.5809 2217 91.0153 83.2972 428.516
595 0 198.414 12.3479 2450 88.92 82.5024 425.584
596 0 203.385 12.5132 2545 87.8153 83.1906 423.077
597 0 209.415 11.5369 2416 91.3945 82.8481 417.794
598 0 216.483 11.5483 2500 91.494 82.8428 415.795
599 0 223.437 11.6811 2610 92.0579 82.5011 408.41
600 1 165.396 9.75839 1614 82.6004 82.9349 448.081
601 0 169.402 10.2655 1739 84.8746 83.3473 444.304
602 0 173.349 10.2106 1770 84.3881 83.0927 439.352
603 0 178.524 9.92025 1771 86.9305 82.8701 437.676
604 0 184.441 10.4261 1923 86.3989 83.1373 433.598
605 0 189.504 10.8547 2057 86.7049 82.6232 429.864
606 0 195.388 10.8451 2119 87.0496 82.2874 426.721
607 0 201.458 11.243 2265 85.536 82.8499 424.907
608 0 206.366 11.1549 2302 86.8593 82.8692 420.682
609 0 210.419 10.6882 2249 88.8573 82.3321 419.875
610 0 213.353 10.1663 2169 90.8608 82.6385 413.593
611 0 220.345 11.1416 2455 90.3116 83.2688 411.656
612 0 225.286 11.0393 2487 92.0414 84.0113 412.039
613 0 231.318 11.1405 2577 92.5235 83.7132 408.561
614 0 236.251 11.3439 2680 92.947 82.8422 403.153
615 0 242.301 10.7222 2598 95.0847 82.7952 395.38
616 0 250.386 11.3106 2832 93.5971 82.5985 392.997
617 1 63.025 8.33003 525 66.7429 83.9238 501.773
618 0 63.0401 8.05836 508 68.7441 84.1339 500.226
619 0 65.1732 9.1909 599 68.6878 81.6761 498.088
620 0 70.0653 9.67668 678 68.9218 82.7257 498.96
621 0 70.1502 9.5937 673 68.8826 82.0624 497.204
622 0 73.0572 9.95111 727 67.3466 82.4746 497.564
623 0 75.1324 9.82266 738 68.5542 82.6287 495.148
624 0 74.0795 9.30081 689 69.4746 81.9623 493.776
625 0 77.1241 9.62085 742 69.004 82.4097 492.181
626 0 78.1119 10.0369 784 69.5038 82.3023 492.976
627 0 81.0888 9.0888 737 71.4708 81.7802 490.109
628 0 82.0773 9.24738 759 72.7787 81.3347 490.303
629 1 150.211 10.432 1567 79.5112 82.6643 456.66
630 0 154.313 10.3102 1591 83.0402 83.2583 451.184
631 0 158.333 10.6548 1687 83.3497 83.6437 447.589
632 0 163.292 10.7048 1748 82.5418 83.1424 444.552
633 0 168.288 10.5474 1775 83.0451 83.5837 443.384
634 1 50.0248 8.17595 409 78.5257 83.4743 502.403
635 0 53.0596 8.97105 476 77.8971 82.8866 503.305
636 0 53.0185 8.84597 469 78.6482 82.6375 502.303
637 0 55.0388 9.39337 517 79.8375 83.3598 503.083
638 0 56.0454 9.92054 556 81.036 82.3633 501.788
639 0 60.0385 10.6432 639 85.8232 81.8623 499.77
640 0 61.0646 10.5135 642 87.6464 81.9003 498.573
641 0 63.0606 10.7357 677 89.3944 82.3323 499.334
642 0 65.1767 10.5406 687 93.2387 83.5793 498.617
643 0 65.1185 10.9186 711 95.3544 84.8551 498.257
644 0 67.0948 10.7609 722 97.3324 84.1247 496.759
645 0 68.1173 10.937 745 99.3812 84.2094 496.918
646 0 72.19 11.6637 842 97.6663 83.9086 496.246
647 0 73.1768 11.3697 832 100.942 83.7885 495.293
648 0 74.1229 11.5349 855 101.685 84.5813 493.048
649 0 77.1939 11.5942 895 101.326 83.4469 493.744
650 0 79.2154 11.5382 914 102.705 83.488 491.92
651 0 79.1554 12.0396 953 103.174 83.6894 491.155
652 0 80.1196 11.8198 947 104.161 83.7001 490.732
653 0 83.1857 11.877 988 103.632 83.4221 488.699
654 0 84.1512 12.0379 1013 103.684 83.5775 488.777
655 0 86.2403 11.3752 981 106.13 83.1427 488.066
656 0 88.183 12.2019 1076 102.585 83.7165 487.63
657 0 94.1723 11.6382 1096 101.901 84.0155 486.591
658 0 94.1537 12.2247 1151 100.43 83.3762 484.198
659 0 96.1941 11.9758 1152 101.459 84.2517 482.106
660 0 98.1923 11.895 1168 100.961 83.5899 481.954
661 0 106.202 11.2239 1192 101.216 84.0159 481.049
662 0 106.207 12.0707 1282 100.023 84.1771 477.489
663 0 107.082 12.1309 1299 96.6636 85.6836 476.129
664 1 59.0442 10.1958 602 95.495 85.1744 501.188
665 0 61.0399 11.0256 673 95.4695 85.7949 499.991
666 0 61.0388 10.8619 663 95.1523 86.1388 499.647
667 0 63.0239 10.9958 693 87.4242 85.5527 497.6
668 0 63.0522 10.7847 680 79.9926 84.6735 496.593
669 0 66.0793 11.8494 783 85.7318 84.9157 497.465
670 0 68.0525 12.0789 822 84.1058 85.0742 496.372
671 0 70.0541 11.4768 804 84.8794 85.4316 495.491
672 0 72.0734 12.1682 877 82.2816 85.1984 494.103
673 0 74.0569 11.6937 866 83.0889 85.5231 491.747
674 0 76.0319 11.6004 882 82.695 85.0113 491.769
675 0 77.0506 11.1875 862 83.9397 84.7285 490.89
676 0 79.037 11.6654 922 82.4197 85.5531 489.132
677 0 82.0325 11.3492 931 83.2868 85.2095 488.567
678 0 82.0488 11.0788 909 83.1243 84.6634 489.705
679 0 85.0568 10.6399 905 83.5359 84.7834 490.014
680 0 88.0293 11.1213 979 84.4239 84.7497 486.186
681 0 89.2568 10.6098 947 87.1647 84.6948 485.6
682 0 91.1373 11.1041 1012 86.6215 85.5287 483.821
683 0 94.105 11.264 1060 86.5255 85.5934 482.494
684 0 98.1456 10.8105 1061 86.4053 85.5014 482.821
685 0 99.1172 11.1585 1106 84.6157 85.8011 481.056
686 0 103.167 11.0307 1138 85.1661 85.4394 482.522
687 0 106.127 11.8632 1259 84.6013 86.4448 478.274
688 0 107.133 10.977 1176 87.5289 85.5451 478.208
689 0 110.182 10.5643 1164 88.5524 85.9304 477.319
690 0 112.165 11.073 1242 88.2198 86.1111 474.601
691 1 63.0621 10.5927 668 81.4656 85.7949 501.491
692 0 65.0642 10.1899 663 75.4465 85.6335 499.368
693 0 66.1203 10.133 670 77.9746 85.9149 499.27
694 0 70.0445 11.4641 803 80.056 84.32 497.971
695 0 69.0728 11.3648 785 79.028 85.7834 499.68
696 0 68.0455 9.65531 657 83.5129 85.997 499.58
697 0 72.0742 10.5724 762 82.7165 86.1129 498.247
698 0 73.0618 10.3885 759 82.8775 85.8393 497.274
699 0 76.0349 10.9818 835 81.4383 85.0275 496.708
700 0 76.0753 10.5159 800 82.305 85.1875 495.586
701 0 79.046 10.1966 806 78.6985 85.3896 494.426
702 0 81.0453 9.66126 783 79.567 85.3001 494.024
703 0 83.033 9.82742 816 80.8824 85.0294 492.2
704 0 86.078 10.142 873 80.1478 85.071 491.679
705 0 86.0409 9.46061 814 82.2715 84.9177 491.29
706 0 91.0468 10.2145 930 81.7516 83.8484 489.326
707 0 94.0544 10.2813 967 81.7456 84.4426 488.054
708 0 94.0926 9.91576 933 83.1468 84.1726 487.467
709 0 97.1019 10.3294 1003 83.7707 83.7557 486.192
710 0 99.0543 9.69165 960 86.0917 84.6167 484.1
711 0 101.099 8.94176 904 88.479 83.7179 485.615
712 0 105.156 10.2229 1075 86.1879 83.8019 481.213
713 0 106.102 9.17041 973 89.2292 83.8119 481.881
714 0 109.152 10.1235 1105 87.8697 84.7421 478.602
715 0 114.142 9.84741 1124 88.2055 84.5658 477.585
716 0 117.156 10.2086 1196 88.2926 83.8169 477.335
717 0 119.166 10.0784 1201 88.9251 83.6878 474.774
718 0 122.244 10.3237 1262 90.7393 83.9786 471.614
719 0 122.179 10.1491 1240 93.9976 84.0677 474.019
720 0 123.278 10.4317 1286 96.1967 84.1104 473.014
721 0 133.145 11.1382 1483 98.2475 84.7195 469.863
722 1 266.326 9.1204 2429 123.685 84.0128 403.172
723 0 265.602 7.85384 2086 122.9 83.8653 413.252
724 1 78.2302 10.6225 831 105.829 83.8387 494.813
725 0 82.28 11.6918 962 100.193 83.1154 492.679
726 0 84.1732 11.4763 966 101.061 83.1304 489.52
727 0 85.0866 10.4129 886 97.965 83.8488 493.501
728 0 90.0443 11.9275 1074 93.9236 84.0223 491.587
729 0 91.0514 11.477 1045 95.9952 83.6909 490.367
730 0 94.0832 11.4792 1080 96.0333 84.0176 489.667
731 0 96.1007 11.977 1151 94.7489 84.0904 488.661
732 0 99.0844 11.8788 1177 95.0952 83.8904 486.04
733 0 102.119 11.3789 1162 96.1446 83.7831 484.498
734 0 107.087 12.5039 1339 93.3966 84.4279 481.39
735 0 112.1 12.3818 1388 100.2 83.2435 479.494
736 1 57.0636 10.2692 586 99.8089 83.4334 505.285
737 0 61.0562 11.0226 673 96.8113 83.8499 505.517
738 0 63.1142 11.3921 719 96.6426 83.4103 505.011
739 0 64.0727 11.1436 714 97.6513 83.7325 503.884
740 0 66.1652 12.0456 797 96.9473 83.3902 500.319
741 0 68.0387 12.2283 832 98.9724 83.4555 499.546
742 0 71.114 12.951 921 95.3713 82.7828 496.472
743 0 73.1166 13.0476 954 96.5461 82.8962 496.153
744 0 73.0781 12.9998 950 100.62 83.7095 495.802
745 0 78.0133 13.1644 1027 105.469 82.7537 493.886
746 0 78.0638 12.9253 1009 107.601 84.0466 493.097
747 0 79.0245 12.1988 964 100.762 84.0871 496.169
748 0 80.0693 11.7024 937 100.653 83.953 494.404
749 0 83.0496 11.74 975 100.079 84.3323 492.793
750 0 84.1049 11.8899 1000 101.277 84.646 490.536
751 0 88.0441 12.1984 1074 99.3994 84.4879 490.845
752 0 92.0901 12.6289 1163 97.7317 84.5168 489.684
753 0 92.0961 11.6943 1077 102.281 84.5255 486.424
754 0 97.0863 12.0305 1168 101.467 84.8664 485.181
755 0 99.1035 11.8462 1174 99.6687 84.8373 485.829
756 0 102.037 11.3586 1159 96.2123 83.755 483.667
757 0 105.085 11.0768 1164 96.549 84.2998 482.554
758 1 62.0935 11.6759 725 92.4276 84.9972 502.775
759 0 63.0722 12.0338 759 91.3834 85.0606 501.781
760 0 63.075 11.2247 708 91.8799 84.7316 500.589
761 0 64.1544 11.5347 740 93.1257 85.1689 502.307
762 0 67.0833 11.2547 755 94.0874 85.2768 500.897
763 0 69.0251 11.5031 794 94.6209 85.2141 499.856
764 0 68.0357 11.0971 755 98.3152 84.5974 499.125
765 0 71.1398 11.119 791 98.7813 84.646 498.956
766 0 73.0347 11.8848 868 97.5484 84.5933 497.578
767 0 76.0373 12.1125 921 98.0261 84.063 494.985
768 0 80.08 12.0005 961 98.2237 84.051 492.909
769 0 82.0728 12.2574 1006 99.0467 84.3062 490.936
770 0 84.0576 12.4201 1044 100.166 84.1504 489.695
771 1 45.0226 10.6835 481 100.143 84.7796 509.283
772 0 48.0751 10.6916 514 99.4689 85.2237 509.759
773 0 49.0611 11.0271 541 99.4935 84.7006 508.359
774 0 51.0613 11.0456 564 99.3174 84.4876 510.511
775 0 51.0302 11.601 592 97.9713 84.8446 505.836
776 0 53.0891 11.9234 633 97.6367 85.1722 506.147
777 0 55.0276 13.2115 727 104.026 84.4512 505.058
778 0 56.035 12.7599 715 105.383 84.3091 505.136
779 0 59.0212 13.4697 795 103.098 84.7484 503.457
780 0 60.0288 13.3269 800 105.214 84.7838 503.154
781 0 61.0244 13.6339 832 105.727 84.1118 501.442
782 0 63.0759 12.9368 816 108.157 84.6765 500.55
783 0 64.0604 12.8316 822 108.742 83.6655 499.157
784 0 64.1515 12.9849 833 108.701 83.8739 498.375
785 0 69.1234 13.5555 937 107.144 83.8388 497.656
786 0 69.1491 13.2323 915 109.689 84.4077 495.851
787 0 72.0546 13.2538 955 109.521 84.5717 495.565
788 0 74.1603 13.3764 992 108.918 84.7127 494.168
789 0 76.0841 13.4194 1021 109.142 85.144 493.114
790 0 79.1563 14.0481 1112 107.596 85.6942 492.241
791 0 82.1753 13.8241 1136 108.742 85.0704 490.868
792 0 84.1331 13.5262 1138 111.285 85.8172 489.578
793 0 87.1569 13.5159 1178 112.784 85.3073 486.69
794 0 88.1659 13.8716 1223 112.533 85.1398 485.052
795 0 93.2062 13.5184 1260 112.231 85.5944 484.042
796 0 93.1461 13.7848 1284 112.419 86.0304 482.851
797 0 97.1469 13.9788 1358 109.351 85.3432 483.815
798 1 54.1335 11.2315 608 112.62 86.0477 504.314
799 0 56.0886 11.9276 669 109.898 85.9178 502.694
800 0 57.0885 11.6136 663 110.937 86.2323 502.459
801 0 59.0281 12.7566 753 107.414 85.8778 503.08
802 0 59.0235 11.758 694 103.183 85.9755 504.17
803 0 60.0714 11.8859 714 103.014 86.5126 504.676
804 0 62.038 11.4929 713 104.216 86.0126 504.446
805 0 62.0073 11.6115 720 105.581 85.4403 503.604
806 0 66.052 11.6575 770 104.149 85.8974 502.334
807 0 68.0458 12.0948 823 104.61 85.4338 501.927
808 0 69.0206 11.9819 827 105.588 85.2382 501.01
809 0 71.0257 12.2773 872 106.518 86.031 499.603
810 0 73.0282 11.9269 871 109.011 85.4776 499.777
811 0 75.0547 12.4576 935 107.51 85.3765 498.066
812 0 76.0321 12.2974 935 108.745 85.907 497.784
813 0 80.0466 12.5552 1005 108.512 85.1363 496.637
814 0 80.025 12.1337 971 112.342 84.6653 495.798
815 0 82.0571 12.9544 1063 109.88 84.936 496.259
816 0 83.0272 12.5019 1038 112.952 84.9663 495.391
817 0 85.0611 12.6262 1074 111.755 84 495.091
818 0 87.0197 12.411 1080 113.242 84.6259 494.722
819 0 86.041 12.587 1083 115.213 84.7682 492.371
820 0 88.0331 12.3363 1086 116.187 84.8333 491.216
821 0 92.1032 12.8226 1181 114.571 84.3175 491.12
822 0 92.1015 12.5405 1155 115.877 84.8537 490.5
823 0 93.0841 13.1172 1221 115.841 83.7314 489.83
824 0 95.0486 13.4457 1278 115.475 83.9429 489.345
825 0 97.0514 13.0446 1266 118.482 83.752 488.925
826 1 53.0185 11.7695 624 118.734 83.3221 511.215
827 0 55.0202 11.7048 644 119.747 83.2966 511.609
828 0 55.0477 11.4265 629 120.471 84.7091 510.399
829 0 55.0477 11.3901 627 169.833 85.7177 510.435
830 0 57.0457 11.8326 675 122.547 83.6548 510.305
831 0 58.0486 12.1794 707 122.315 84.1457 509.692
832 0 59.0189 12.3689 730 123.682 84.4932 507.655
833 0 61.0512 12.727 777 122.642 84.1982 508.032
834 0 63.0329 13.0249 821 123.206 84.1035 508.273
835 0 64.0987 12.9956 833 125.778 83.1969 507.235
836 0 65.0745 12.3858 806 140.177 83.7854 506.177
837 0 65.0701 12.8323 835 138.846 84.1114 505.331
838 0 70.0638 12.9311 906 135.649 82.7395 504.392
839 0 68.0658 12.4585 848 140.265 82.125 503.473
840 0 71.079 12.9011 917 138.389 82.5125 503.792
841 0 72.0939 12.8305 925 139.91 82.3632 501.29
842 0 74.0916 13.2809 984 137.964 83.0955 501.741
843 0 73.1129 12.679 927 139.991 82.6397 499.891
844 0 79.1076 13.0202 1030 134.938 82.4689 498.202
845 0 79.1486 12.4702 987 137.008 82.5177 498.067
846 0 82.1348 12.5282 1029 135.072 82.2828 496.604
847 0 83.1624 12.8784 1071 133.486 82.7563 495.513
848 0 84.1263 12.196 1026 135.571 82.9688 492.863
849 0 88.1893 12.8247 1131 132.959 82.2493 491.054
850 0 89.1672 12.213 1089 134.99 83.0248 490.814
851 0 92.1049 12.5183 1153 131.453 82.7251 490.82
852 0 94.1306 11.9833 1128 133.262 82.5541 490.228
853 0 96.1836 12.0707 1161 135.494 83.1249 488.711
854 0 97.0857 12.2881 1193 135.394 84.5532 487.812
855 1 50.013 12.3968 620 132.5 82.7323 509.948
856 0 50.0397 12.9097 646 125.096 84.0511 509.006
857 0 50.0375 12.2908 615 120.27 82.9073 508.55
858 0 52.0298 12.8772 670 119.012 82.3045 508.473
859 0 54.049 12.7847 691 119.22 83.2851 508.541
860 0 53.048 13.139 697 119.433 83.2382 508.039
861 0 55.0048 12.2898 676 122.062 82.9808 505.821
862 0 55.0283 12.43 684 122.496 83.1389 506.086
863 0 58.0375 13.0778 759 118.366 84.2042 505.445
864 0 58.0288 12.7178 738 120.53 83.2561 504.961
865 0 60.0558 13.0046 781 121.209 83.2369 504.335
866 0 63.0959 13.3289 841 116.688 83.2949 503.169
867 0 64.0597 12.941 829 113.685 83.7491 501.597
868 0 65.0979 12.2431 797 118.858 84.0151 499.876
869 0 67.1173 12.128 814 136.267 84.1118 498.579
870 0 70.0988 12.3397 865 132.104 83.2486 497.554
871 0 72.0426 12.2705 884 132.549 82.9502 495.962
872 0 75.0465 12.2191 917 130.12 82.4264 495.689
873 0 76.1228 11.9675 911 129.876 83.337 495.516
874 0 77.109 11.7885 909 130.857 83.0352 493.537
875 1 42.1021 10.8546 457 124.698 82.6455 513.641
876 0 43.0369 10.7814 464 123.69 83.3642 510.983
877 0 44.0925 11.2718 497 122.644 83.171 508.831
878 0 45.0551 11.6746 526 119.177 83.3555 508.475
879 0 45.048 11.4988 518 114.143 83.5985 511.22
880 0 45.0348 11.3024 509 119.491 82.7701 508.269
881 0 46.0651 11.2233 517 118.377 83.0928 507.4
882 0 50.0813 11.4214 572 116.017 82.6766 508.626
883 0 51.0908 11.3132 578 115.152 82.5692 507.898
884 0 52.0471 11.259 586 115.597 82.6297 506.901
885 0 53.1458 11.5155 612 115.278 82.5801 505.814
886 0 55.0514 11.8072 650 113.14 83.1646 505.522
887 0 58.138 11.5243 670 113.949 83.2134 502.896
888 0 59.0778 12.3227 728 110.771 83.3585 502.695
889 0 60.0638 12.0539 724 111.239 82.7638 502.901
890 0 62.1453 11.8271 735 116.488 82.5673 499.891
891 0 64.1279 12.0073 770 115.265 82.6078 501.153
892 0 67.0789 12.1648 816 113.629 83.1287 500.141
893 0 69.0776 12.4642 861 112.252 83.2474 498.223
894 0 70.0322 12.4229 870 113.859 84.5092 497.84
895 0 72.0348 12.5356 903 113.693 84.4053 497.505
896 0 74.0519 13.1934 977 112.395 83.7687 495.934
897 0 76.0851 12.486 950 115.544 84.32 493.722
898 0 78.0427 12.7238 993 115.197 84.6465 492.718
899 0 82.044 13.3465 1095 112.071 84.5635 492.798
900 0 83.015 13.1904 1095 113.664 84.0822 492.374
901 0 86.1243 12.8303 1105 116.47 83.1928 489.358
902 0 87.028 13.6048 1184 115.552 83.5667 488.077
903 0 90.063 13.3462 1202 115.223 83.6223 487.765
904 0 93.0643 13.2811 1236 115.934 83.4927 484.864
905 0 97.0174 13.2863 1289 114.636 83.7673 483.972
906 0 97.0625 13.5995 1320 115.489 83.6644 481.648
907 0 103.055 13.6432 1406 115.358 83.7134 479.612
908 0 103.073 13.4662 1388 117.847 83.7219 479.477
909 0 106.069 13.6044 1443 117.252 83.4886 478.269
910 0 108.075 12.9355 1398 117.457 83.485 477.301
911 0 112.074 12.6256 1415 116.679 83.571 472.717
912 0 116.13 13.1233 1524 114.93 83.601 471.177
913 0 120.112 13.1211 1576 114.335 83.7176 469.563
914 0 126.19 13.4559 1698 112.456 83.9028 467.696
915 0 128.209 13.1738 1689 113.88 84.3837 463.979
916 0 132.249 13.1116 1734 114.007 84.5923 463.773
917 0 139.201 13.283 1849 112.111 83.9519 462.746
918 0 143.236 13.6628 1957 111.964 83.9688 460.91
919 0 146.187 13.2022 1930 113.973 84.0684 458.462
920 0 153.159 13.548 2075 112.274 83.6964 457.668
921 0 158.232 13.3159 2107 114.555 83.8828 454.409
922 1 85.0868 11.929 1015 117.865 84.0788 489.218
923 0 87.0577 12.1758 1060 118.971 83.5179 488.097
924 0 91.1395 13.4958 1230 114.922 83.4163 486.046
925 0 93.0795 13.8269 1287 113.427 83.4911 483.766
926 0 98.0949 14.4044 1413 118.314 83.7849 486.796
927 0 97.1069 13.6139 1322 115.303 83.913 490.432
928 0 100.107 13.3157 1333 116.137 82.9602 489.122
929 0 102.092 13.6053 1389 115.567 82.802 487.844
930 0 107.147 14.1675 1518 111.926 83.3735 486.149
931 0 109.12 13.2514 1446 114.954 83.2178 484.792
932 0 115.191 14.133 1628 111.634 82.8747 481.119
933 0 117.158 13.9214 1631 113.091 82.3691 478.793
934 0 123.254 14.0848 1736 114.255 82.8929 478.108
935 0 129.133 13.2809 1715 123.889 82.4927 475.608
936 0 131.207 13.4063 1759 123.297 82.2177 473.905
937 0 136.236 13.873 1890 120.667 82.0053 472.462
938 0 139.256 14.2041 1978 119.067 81.5005 469.374
939 0 143.247 13.6617 1957 120.353 81.397 469.146
940 0 148.206 13.5419 2007 118.566 81.3353 467.324
941 0 152.238 13.6628 2080 119.258 80.9731 462.985
942 0 156.327 12.6402 1976 122.171 80.9818 462.838
943 0 159.242 13.3005 2118 121.104 81.3215 459.873
944 0 163.268 13.4625 2198 122.914 81.3276 455.934
945 0 168.109 14.8475 2496 120.599 81.2656 453.301
946 0 173.153 15.1773 2628 119.446 81.3893 449.951
947 0 178.159 15.054 2682 120.042 81.3001 443.929
948 0 181.178 15.4213 2794 119.545 81.8611 441.738
949 0 187.169 14.9116 2791 120.14 82.1942 438.239
950 0 196.176 16.5821 3253 118.422 82.5576 431.114
951 0 199.212 14.7431 2937 127.239 82.2758 435.752
952 0 217.192 18.4261 4002 112.269 83.5775 418.222
953 0 220.284 19.2343 4237 111.422 82.9464 418.739
954 0 224.266 16.6053 3724 120.718 83.3443 416.078
955 1 56.045 12.6327 708 124.784 82.4746 505.804
956 0 57.0505 13.4092 765 124.15 82.2379 504.427
957 0 60.0259 14.0106 841 121.606 83.0892 503.165
958 0 63.0447 14.7514 930 118.462 83.4226 502.813
959 0 64.0884 14.3396 919 120.339 83.1491 501.556
960 0 64.0414 14.2876 915 121.872 82.9956 500.961
961 0 67.0385 14.4395 968 120.692 82.9928 500.235
962 0 69.1038 13.9066 961 121.61 83.1956 497.979
963 0 72.0869 14.2189 1025 120.404 83.76 498.057
964 0 73.0741 14.2048 1038 121.408 83.1985 496.432
965 0 76.0951 14.2848 1087 121.075 83.7075 496.081
966 0 79.1238 14.1677 1121 121.191 83.6423 492.71
967 0 81.0854 13.9359 1130 121.858 83.4956 491.655
968 0 83.0852 14.1662 1177 121.214 83.4979 490.982
969 0 86.0526 13.9217 1198 121.661 83.7596 489.615
970 0 90.0928 14.5184 1308 119.445 83.5344 487.314
971 0 92.0777 14.0642 1295 120.377 83.7645 487.68
972 0 95.0577 14.4649 1375 118.111 84.0007 484.796
973 0 99.0719 14.9487 1481 114.512 84.1141 483.96
974 1 48.0157 12.2252 587 127.388 84.5911 507.252
975 0 49.0407 12.561 616 126.073 84.138 506.755
976 0 52.0689 13.4437 700 123.474 84.8843 506.507
977 0 54.089 14.1618 766 119.3 84.671 505.414
978 0 56.0392 14.3828 806 121.337 84.5372 506.432
979 0 56.0794 14.6221 820 124.19 85.1488 506.382
980 0 58.0904 13.9954 813 126.614 85.5683 505.026
981 0 58.0713 13.9484 810 128.7 85.0037 503.312
982 0 61.0619 14.4116 880 117.009 85.2352 503.044
983 0 63.0468 14.2751 900 116.359 84.9478 501.489
984 0 65.0669 15.7376 1024 106.893 84.499 502.049
985 0 66.0935 14.4038 952 116.59 84.8298 499.38
986 0 68.0506 14.9595 1018 114.84 84.2633 498.348
987 0 71.1153 14.7929 1052 114.816 85.0532 497.023
988 0 70.1078 14.9769 1050 117.183 85.2762 497.035
989 0 74.1235 14.7861 1096 116.735 84.3257 495.969
990 0 75.1263 14.9082 1120 116.991 84.4518 494.295
991 0 77.1226 14.5742 1124 117.623 85.1174 494.478
992 0 80.1338 15.1996 1218 115.422 85.4417 493.433
993 0 82.1491 14.4493 1187 117.275 84.9318 492.522
994 0 84.1228 14.1103 1187 118.365 84.7414 492.514
995 0 87.1799 14.5217 1266 116.938 84.9897 490.753
996 0 89.0977 14.7366 1313 116.775 84.8187 490.471
997 0 92.0514 14.4376 1329 116.804 85.0745 489.656
998 0 95.2076 14.9148 1420 114.17 84.5324 487.7
999 0 98.2107 14.7438 1448 113.515 85.1989 488.097
1000 0 103.198 14.6708 1514 112.326 84.8071 486.017
1001 1 50.071 13.9402 698 125.921 84.9298 508.307
1002 0 52.0514 14.2167 740 127.87 84.977 507.147
1003 0 56.0268 14.6002 818 123.682 85.22 506.806
1004 0 54.0661 14.7782 799 126.181 85.3091 506.3
1005 0 57.0376 14.394 821 126.826 85.4263 505.978
1006 0 57.0885 14.679 838 126.486 85.9976 504.322
1007 0 61.0703 14.9336 912 124.706 86.0461 503.214
1008 0 63.041 14.0543 886 127.602 85.6298 502.112
1009 0 63.0572 14.6375 923 126.676 85.2264 501.259
1010 0 68.0401 14.756 1004 124.911 86.1215 500.164
1011 0 71.1147 14.0899 1002 127.844 85.3762 497.829
1012 0 71.0645 15.2256 1082 124.85 84.9519 496.944
1013 0 75.031 15.1138 1134 124.705 84.9647 495.836
1014 0 75.0551 15.1622 1138 127.111 85.1028 495.226
1015 0 79.0602 15.0139 1187 126.409 84.3766 494.063
1016 0 79.0668 15.215 1203 127.13 85.2028 492.712
1017 0 83.1032 15.4627 1285 126.329 85.4693 492.671
1018 0 84.0666 15.4282 1297 127.966 85.9907 490.524
1019 0 89.0608 15.7308 1401 125.709 85.8637 489.858
1020 0 90.0522 15.6687 1411 127.821 86.0418 488.468
1021 0 93.1356 15.2573 1421 128.05 86.7797 488.053
1022 0 99.1064 15.7407 1560 125.426 86.3128 485.654
1023 0 99.1538 15.9147 1578 126.871 87.2719 482.887
1024 0 103.093 15.5878 1607 127.345 87.0255 481.47
1025 0 108.173 15.4567 1672 127.484 85.8738 478.838
1026 0 113.062 15.6463 1769 125.825 85.6591 478.522
1027 0 115.136 15.7032 1808 125.585 86.0088 476.631
1028 0 119.061 15.2863 1820 127.801 85.0418 473.85
1029 0 122.088 15.4315 1884 127.181 85.276 471.445
1030 0 128.139 15.6236 2002 124.779 84.484 470.939
1031 1 62.1199 13.0232 809 128.507 86.3646 502.041
1032 0 61.1501 12.7064 777 132.3 85.7169 501.547
1033 0 65.0838 14.1664 922 125.799 85.5748 501.124
1034 0 65.1359 13.6944 892 128.343 86.5583 500.189
1035 0 68.0782 14.4393 983 127.042 85.3286 499.259
1036 0 69.0555 13.8729 958 129.565 86.1858 498
1037 0 72.0607 14.5988 1052 127.154 86.0048 496.444
1038 0 75.1633 14.4219 1084 126.642 85.631 495.378
1039 0 77.0689 14.6103 1126 124.988 85.1714 494.942
1040 0 80.0495 14.6909 1176 124.034 85.7168 493.514
1041 0 83.0995 15.2588 1268 121.686 85.4156 491.659
1042 0 84.0603 14.9179 1254 122.384 85.677 490.836
1043 0 88.1 15.2327 1342 119.853 86.0618 488.708
1044 0 90.1516 14.4867 1306 120.905 85.6861 486.724
1045 0 93.1254 14.3355 1335 120.242 85.8846 485.577
1046 0 96.1017 14.1517 1360 120.789 86.0059 483.804
1047 0 100.061 14.3512 1436 119.397 86.0202 481.869
1048 0 104.144 14.5856 1519 117.987 85.4253 480.799
1049 0 109.11 15.0582 1643 115.531 85.9866 478.576
1050 0 109.048 13.517 1474 122.027 85.6119 478.068
1051 0 113.151 13.6013 1539 121.227 85.2157 475.627
1052 0 117.077 13.9567 1634 119.576 85.5575 472.109
1053 0 121.055 13.6054 1647 119.74 85.3704 471.568
1054 0 126.054 13.2166 1666 126.218 85.907 469.275
1055 0 131.069 13.4967 1769 125.717 85.68 466.736
1056 0 137.076 13.3867 1835 126.036 85.9886 465.611
1057 0 143.077 13.5871 1944 122.16 85.5741 464.043
1058 1 58.0199 11.9097 691 131.702 86.2764 500.284
1059 0 58.0201 12.5991 731 133.947 86.0985 498.111
1060 0 64.0301 12.5878 806 130.989 85.3983 496.837
1061 0 65.0384 13.1768 857 128.48 85.5636 497.432
1062 0 68.0726 12.8539 875 129.983 85.5006 496.194
1063 0 69.0225 12.4307 858 131.126 85.6748 493.824
1064 0 68.0464 12.3592 841 133.541 85.6457 491.859
1065 0 74.0679 13.4336 995 126.519 85.1508 490.481
1066 0 77.1109 13.2407 1021 126.069 85.24 490.514
1067 0 77.0367 12.9938 1001 127.426 85.956 488.15
1068 0 80.0521 12.7292 1019 126.944 85.5662 485.873
1069 0 81.0386 13.2406 1073 125.407 85.7046 483.734
1070 0 84.0821 13.1895 1109 124.041 85.5663 482.053
1071 0 85.0598 13.226 1125 123.355 85.5564 480.017
1072 0 89.0701 13.4838 1201 121.219 85.5862 478.868
1073 0 91.0751 12.8026 1166 122.244 85.4537 477.032
1074 0 93.0329 13.5006 1256 120.13 85.9092 474.625
1075 1 53.1125 9.86586 524 100.866 85.8664 500.135
1076 0 56.0436 10.813 606 98.2838 86.505 498.604
1077 0 57.0606 10.5327 601 101.168 86.4509 498.062
1078 0 59.0436 10.6193 627 100.41 86.7847 497.504
1079 0 60.0253 10.329 620 100.582 86.4371 496.616
1080 0 63.0548 10.2768 648 101.156 86.6435 495.801
1081 0 65.0647 10.6509 693 99.0245 86.5974 495.893
1082 0 66.07 10.4737 692 100.77 85.9364 494.673
1083 0 66.0535 9.97677 659 102.695 85.6874 493.674
1084 0 69.0776 10.3796 717 100.498 85.9386 491.868
1085 0 72.0966 10.153 732 100.635 85.6708 490.633
1086 0 74.0619 9.88363 732 101.13 86.7787 488.052
1087 0 75.1132 10.4376 784 100.768 85.7883 486.758
1088 0 75.1937 9.2162 693 104.683 86.1255 485.177
1089 0 81.1119 9.69032 786 113.58 85.7952 484.491
1090 0 83.1343 9.89964 823 112.689 86.3329 482.612
1091 1 45.0767 8.49663 383 104.867 83.5927 509.423
1092 0 49.0216 10.0364 492 117.386 84.622 464.146
1093 0 44.0516 8.94406 394 96.6193 83.8579 509.574
1094 0 46.0994 8.6986 401 98.985 84.8579 507.439
1095 1 96.1239 9.9455 956 114.762 85.8713 482.059
1096 0 98.2209 9.84515 967 113.691 85.2192 480.629
1097 0 102.169 9.57236 978 114.836 86.6401 479.965
1098 0 104.1 9.51005 990 114.062 85.8273 479.379
1099 0 105.203 10.5701 1112 109.982 87.3183 479.703
1100 0 104.112 10.2678 1069 111.621 86.5351 476.853
1101 0 114.167 9.99413 1141 110.11 85.8203 474.852
1102 0 116.15 9.44467 1097 111.804 85.8879 471.211
1103 0 118.204 9.73741 1151 110.195 86.1147 469.75
1104 0 124.203 9.8629 1225 109.556 85.6049 469.698
1105 0 126.191 9.73922 1229 110.343 85.4614 465.41
1106 0 130.228 9.81354 1278 109.948 85.7042 463.807
1107 0 134.144 9.53453 1279 110.708 85.939 463.276
1108 0 142.163 9.98855 1420 109.256 86.2282 460.67
1109 0 143.231 9.76743 1399 110.48 86.1108 456.826
1110 0 148.313 9.6755 1435 113.079 85.9784 455.899
1111 0 147.304 10.2916 1516 111.568 85.6201 451.923
1112 0 155.16 9.06807 1407 114.042 85.1677 451.915
1113 0 157.33 9.56588 1505 112.948 84.8073 446.844
1114 0 166.254 9.9847 1660 111.085 84.5747 446.086
1115 0 162.292 10.3209 1675 111.094 84.7922 443.073
1116 0 167.263 9.70327 1623 112.956 85.5065 440.863
1117 1 41.0144 7.63147 313 86.9425 84.0958 510.78
1118 0 39.0128 6.81828 266 90.1917 84.4323 512.207
1119 0 41.0106 8.14423 334 88.979 84.3204 511.015
1120 0 46.0279 7.69099 354 88.8277 84.6045 509.638
1121 0 47.032 8.4198 396 88.3384 84.3409 509.581
1122 0 50.0628 8.82892 442 87.6312 84.7851 507.645
1123 0 48.0234 8.8915 427 89.7026 84.7728 507.464
1124 0 53.0825 9.43813 501 88.5629 84.9321 506.096
1125 0 54.0345 9.45693 511 89.1155 84.8982 505.906
1126 0 56.0371 9.26172 519 89.9383 85.185 505.295
1127 0 57.0217 9.41747 537 91.3538 84.8473 504.611
1128 0 59.0758 9.76712 577 91.3033 84.3189 503.217
1129 0 62.0473 9.07372 563 93.2575 84.6536 503.33
1130 0 63.0949 9.03401 570 94.9263 84.2018 503.126
1131 1 263.513 10.5308 2775 122.942 84.5178 406.816
1132 0 261.55 11.2139 2933 124.645 84.8026 405.769
1133 1 277.598 8.83653 2453 130.522 85.225 416.552
1134 0 277.573 11.37 3156 127.635 84.4575 397.51
1135 0 285.631 11.6899 3339 127.426 84.248 394.271
1136 0 293.509 12.3608 3628 127.47 84.2412 388.805
1137 0 300.554 12.2241 3674 128.551 84.9649 389.018
1138 0 310.595 12.2829 3815 128.128 84.2092 380.573
1139 0 320.626 12.3852 3971 127.557 84.6404 372.466
1140 1 248.316 10.8088 2684 120.771 85.0034 413.596
1141 1 47.0545 9.56337 450 108.36 84.7333 512.518
1142 0 48.0604 9.52967 458 108.969 84.5895 511.681
1143 0 49.0167 10.221 501 106.615 83.7924 511.421
1144 0 51.0227 10.9167 557 102.521 82.8887 510.488
1145 0 52.021 10.7072 557 104.546 82.4901 508.618
1146 0 54.0213 10.9401 591 100.8 83.0169 510.046
1147 0 55.0242 10.0683 554 103.06 83.0776 509.464
1148 0 56.0691 11.1113 623 101.477 83.1894 507.642
1149 0 58.0609 11.0746 643 90.8896 83.5397 507.056
1150 0 58.052 11.1969 650 91.8431 83.2446 508.082
1151 0 60.0365 10.8601 652 94.0291 83.1181 506.732
1152 0 61.0981 11.1787 683 94.1962 82.8009 505.855
1153 0 62.0747 11.019 684 95.5526 83.4064 505.215
1154 0 66.0839 11.788 779 94.0154 82.7715 504.9
1155 0 66.0729 11.6992 773 96.6261 83.1203 504.351
1156 0 67.0469 11.2011 751 97.8708 82.4248 503.611
1157 0 69.0522 11.933 824 95.7998 82.682 501.371
1158 0 71.0579 11.4273 812 97.4791 83.2919 500.834
1159 0 73.0805 12.0689 882 97.0601 83.0692 501.046
1160 0 75.0795 12.2004 916 97.559 83.2555 498.916
1161 0 77.1041 12.321 950 98.6526 83.3884 499.639
1162 0 80.0945 12.5102 1002 99.1956 82.988 496.762
1163 0 81.092 12.381 1004 101.256 83.4552 495.814
1164 0 84.0702 12.097 1017 103.509 83.0246 492.427
1165 0 86.0845 11.8024 1016 105.142 83.1063 494.011
1166 0 89.0657 12.081 1076 106.995 83.4359 492.15
1167 1 46.0313 9.86286 454 114.515 82.5859 512.773
1168 0 46.0668 9.98551 460 116.887 82.4217 512.778
1169 0 50.0401 10.3117 516 115.76 82.3702 511.384
1170 0 50.065 10.9458 548 115.515 83.9507 511.099
1171 0 51.0228 11.877 606 113.147 83.8729 510.002
1172 0 54.0157 12.015 649 113.698 83.8552 510.186
1173 0 55.0474 11.8988 655 115.45 84.0534 508.797
1174 0 57.0287 12.0992 690 110.762 82.4464 508.378
1175 0 57.0279 12.4676 711 112.754 82.0563 507.695
1176 0 59.0309 12.468 736 112.489 82.5421 507.539
1177 0 60.0535 12.4056 745 113.78 82.8779 506.71
1178 0 61.0908 12.9807 793 112.613 82.0706 507.173
1179 0 64.0798 12.9526 830 113.292 82.5952 505.814
1180 0 65.0394 13.2689 863 114.949 83.5342 504.854
1181 0 68.0248 13.2893 904 111.566 83.2223 505.001
1182 0 68.114 12.8314 874 113.197 82.5927 503.373
1183 0 71.0591 12.947 920 110.992 82.3761 502.312
1184 0 72.1221 13.0334 940 110.738 82.6117 500.872
1185 0 74.0809 13.0668 968 110.752 82.9855 498.675
1186 0 77.0404 12.8244 988 112.132 82.6872 497.857
1187 0 80.1302 12.7542 1022 109.646 82.6683 497.398
1188 0 82.0709 12.4161 1019 111.697 82.5947 495.451
1189 0 85.167 13.1859 1123 107.896 82.3117 493.468
1190 0 87.2275 12.9088 1126 108.528 82.6652 493.266
1191 0 90.0942 11.7877 1062 111.949 82.9727 491.103
1192 1 47.0848 11.0014 518 115.042 83.4382 510.295
1193 0 49.1171 10.5462 518 112.645 83.1544 510.297
1194 0 49.1003 10.7128 526 114.2 82.9335 509.728
1195 0 51.1811 11.2346 575 111.271 83.3861 508.445
1196 0 52.2018 11.3789 594 110.958 83.234 505.556
1197 0 54.2118 11.6395 631 110.591 82.7686 505.532
1198 0 56.1707 11.9635 672 118.783 81.9688 505.254
1199 0 57.1769 11.0884 634 120.543 81.7934 504.451
1200 0 59.1774 11.3219 670 118.5 81.8716 505.981
1201 0 60.1458 11.7548 707 117.593 82.2008 504.897
1202 0 60.1923 11.5131 693 118.17 82.1991 503.7
1203 0 62.1519 11.1179 691 119.722 81.8944 503.614
1204 0 64.2491 11.6733 750 117.743 82.3387 501.671
1205 0 67.2395 12.1208 815 115.318 82.8564 501.683
1206 0 68.3396 11.8818 812 117.591 82.9212 500.692
1207 0 69.2447 11.8998 824 118.382 83.4951 499.211
1208 0 71.2746 12.1221 864 118.153 83.3472 498.469
1209 0 74.2729 12.2387 909 117.081 83.4653 496.139
1210 0 77.2946 12.5882 973 115.233 83.3905 494.444
1211 0 80.3082 12.6762 1018 113.102 83 494.039
1212 0 80.0513 11.63 931 114.099 82.4458 496.959
1213 0 82.1335 11.5178 946 115.788 83.1311 495.089
1214 0 84.0497 11.1482 937 107.255 82.7801 490.462
1215 0 89.0952 11.0668 986 106.815 83.213 491.304
1216 0 89.0654 11.2838 1005 108.176 83.4826 489.194
1217 1 48.0254 9.03688 434 104.569 82.3825 511.341
1218 0 51.0376 10.5608 539 101.249 82.4935 510.844
1219 0 52.0344 10.3778 540 102.663 82.6444 510.776
1220 0 56.0628 11.6298 652 99.9709 82.7761 509.765
1221 0 53.109 10.0171 532 105.878 82.9549 511.686
1222 0 55.134 10.538 581 104.9 82.5749 509.487
1223 0 57.0434 10.4657 597 104.268 82.9933 508.642
1224 0 60.0732 11.0532 664 101.703 83.1837 506.137
1225 0 61.0758 10.8226 661 102.46 83.5144 505.837
1226 0 61.1036 10.5886 647 103.235 83.6646 504.833
1227 0 65.0657 10.6047 690 102.142 83.5522 504.748
1228 0 67.0516 10.6485 714 101.737 83.2717 503.542
1229 0 70.0461 10.8357 759 101.09 83.2582 502.743
1230 0 70.0536 10.2921 721 103.531 83.1248 500.499
1231 0 72.1231 10.8564 783 104.13 82.3359 499.381
1232 0 74.0344 10.6572 789 104.151 83.0215 498.976
1233 0 77.0944 11.1422 859 103.345 83.3038 497.533
1234 0 80.0715 10.9277 875 103.847 83.1326 496.409
1235 0 82.0522 11.2489 923 104.917 83.3922 495.238
1236 0 85.0738 11.6134 988 104.648 83.5354 495.565
1237 0 87.0995 10.8382 944 106.476 83.2383 495.24
1238 0 90.1004 11.5538 1041 106.126 83.6753 491.162
1239 0 91.128 11.0175 1004 109.892 83.7361 491.523
1240 0 94.0802 10.693 1006 106.215 83.4364 488.585
1241 0 99.104 11.1802 1108 104.995 83.7536 487.869
1242 0 101.058 11.5973 1172 104.326 83.8063 487.706
1243 0 104.056 11.8686 1235 104.422 83.4502 484.223
1244 0 107.04 11.4911 1230 105.111 84.0675 483.622
1245 0 112.177 11.6958 1312 104.253 83.8628 481.191
1246 1 59.1007 11.6242 687 108.856 84.1121 504.367
1247 0 60.0211 11.7792 707 108.214 83.3861 502.28
1248 0 63.0374 12.1515 766 108.663 83.7781 501.93
1249 0 63.0625 11.9722 755 113.779 83.5338 501.042
1250 0 63.0512 11.2924 712 110.067 84.1081 502.162
1251 0 67.0987 11.6247 780 104.045 82.8808 500.023
1252 0 70.0914 12.2554 859 100.243 83.3783 500.909
1253 0 70.0738 12.1586 852 100.721 83.696 499.615
1254 0 72.0487 11.3673 819 103.502 83.652 500.789
1255 0 75.0623 11.8168 887 101.905 84.5998 498.118
1256 0 78.0614 12.2083 953 100.822 83.4753 495.872
1257 0 81.0967 11.9734 971 100.561 83.7827 496.657
1258 0 82.055 11.8823 975 102.145 82.9405 493.615
1259 0 85.0718 12.1544 1034 101.121 82.6228 492.824
1260 0 88.0942 12.0212 1059 102.575 83.0755 491.599
1261 0 90.1017 12.275 1106 101.965 82.8834 489.887
1262 0 93.1522 12.0555 1123 105.825 82.8842 487.031
1263 0 97.1175 12.4797 1212 103.762 82.6238 488.3
1264 0 100.141 13.3013 1332 102.21 83.8979 487.362
1265 0 104.327 13.0934 1366 100.889 83.6098 484.605
1266 1 57.1739 11.2114 641 107.543 83.2949 506.577
1267 0 59.1495 11.8344 700 107.6 83.3243 505.696
1268 0 61.1021 11.6199 710 106.713 83.5493 504.358
1269 0 62.0694 12.341 766 101.983 83.1227 504.94
1270 0 64.0468 12.1161 776 104.856 83.6082 502.638
1271 0 65.0788 12.4926 813 102.123 82.7995 500.724
1272 0 68.0921 12.1306 826 102.643 82.6646 501.309
1273 0 69.0639 12.3943 856 102.978 82.7593 500.153
1274 0 72.1972 12.6736 915 101.911 83.6284 499.212
1275 0 74.0977 12.8344 951 101.98 83.7497 498.107
1276 0 77.1421 12.7687 985 101.243 83.9777 497.211
1277 0 80.1992 13.1423 1054 99.2979 83.8387 495.697
1278 0 82.1499 12.7572 1048 101.63 83.9466 494.493
1279 0 80.1567 11.5149 923 108.202 84.3694 495.156
1280 0 85.101 12.256 1043 103.974 83.7843 492.035
1281 0 88.0638 12.1049 1066 105.055 82.7711 490.459
1282 0 91.1109 12.4464 1134 102.498 83.7346 490.162
1283 0 93.1941 11.8999 1109 105.112 84.1885 488.062
1284 0 96.2831 12.2036 1175 103.564 84.543 487.066
1285 0 100.228 12.3318 1236 102.008 84.3908 485.859
1286 0 104.323 12.0683 1259 100.392 84.4639 482.866
1287 1 54.1042 11.1636 604 99.9156 84.1457 507.354
1288 0 55.2234 11.4263 631 101.282 84.9842 505.035
1289 0 56.1663 11.6084 652 100.014 84.5307 504.261
1290 0 59.1769 11.7444 695 98.9482 84.9683 502.331
1291 0 59.055 11.2776 666 96.3859 84.3168 505.456
1292 0 61.0591 11.2842 689 95.3208 83.521 506.025
1293 0 63.0635 11.2743 711 96.4895 83.1955 503.752
1294 0 65.0355 11.1478 725 96.4248 83.5048 503.274
1295 0 67.0579 11.3484 761 95.8686 83.4809 503.088
1296 0 68.071 11.1207 757 97.5495 83.8639 499.416
1297 0 72.0482 11.409 822 95.073 83.326 499.982
1298 0 75.0562 11.5913 870 94.8448 83.4655 498.569
1299 0 75.0729 11.3223 850 96.8894 84.3141 497.121
1300 0 76.0819 11.6191 884 96.7523 84.3314 496.958
1301 0 80.0325 11.9826 959 95.3066 84.3577 494.873
1302 0 81.0319 11.7238 950 96.4095 84.2347 494.045
1303 0 85.0884 11.8465 1008 96.252 83.5169 492.188
1304 0 87.0699 11.9674 1042 96.1382 83.8618 491.102
1305 0 90.0485 11.6826 1052 97.5741 83.8432 490.657
1306 0 93.113 11.8566 1104 96.9266 83.7409 489.401
1307 0 94.0794 11.8304 1113 97.9254 83.6604 488.541
1308 0 99.2248 12.1139 1202 97.2404 82.9493 485.963
1309 1 50.0499 10.4895 525 95.2076 82.6762 510.318
1310 0 53.197 10.7525 572 94.9021 82.4476 507.818
1311 0 55.1032 11.0157 607 94.2867 83.1582 507.998
1312 0 56.1053 11.1576 626 93.8131 83.3163 509.248
1313 0 58.1682 11.398 663 93.2474 82.5415 508.065
1314 0 60.1358 11.2412 676 93.2145 83.1938 506.111
1315 0 61.1455 10.9738 671 94.4948 83.1162 505.162
1316 0 64.0764 11.9701 767 91.7823 82.7523 505.643
1317 0 66.1219 10.8436 717 105.116 82.3905 503.572
1318 0 67.2352 10.9764 738 104.324 82.584 502.102
1319 0 69.0956 10.2467 708 106.102 82.2133 500.862
1320 0 72.1411 10.5904 764 104.055 82.8508 499.183
1321 0 73.0719 10.3049 753 103.175 82.1886 499.624
1322 0 77.0458 10.7858 831 99.4043 82.4067 496.91
1323 0 77.07 9.53678 735 100.05 82.4816 493.478
1324 1 39.0425 7.99128 312 92.891 85.0801 515.205
1325 0 41.0252 8.79946 361 94.6039 85.4654 516.706
1326 0 43.0106 9.71854 418 94.1148 84.1292 516.464
1327 0 44.0238 9.29042 409 96.3839 85.291 514.983
1328 0 44.1658 9.98509 441 95.6757 82.8934 512.268
1329 0 46.209 10.604 490 95.4837 82.9571 509.524
1330 0 48.1187 10.6196 511 96.5166 82.8513 508.959
1331 0 50.0356 11.3719 569 95.4482 83.6151 510.777
1332 0 51.031 11.2285 573 94.1588 82.986 510.78
1333 0 53.0184 11.298 599 94.4124 83.1636 510.169
1334 0 53.0414 11.3685 603 95.8143 82.4063 510.075
1335 0 56.061 11.3091 634 95.164 82.5536 510.67
1336 0 53.015 9.7331 516 102.748 82.6105 510.733
1337 0 56.0345 10.4043 583 100.945 83.3448 510.913
1338 0 57.0951 10.5263 601 100.251 83.7404 510.048
1339 0 60.0567 10.9064 655 103.913 83.8046 506.626
1340 0 59.0313 10.7909 637 103.526 83.0628 507.739
1341 0 62.0799 10.8731 675 106.822 84.6711 506.044
1342 0 66.0739 11.3509 750 105.185 83.916 505.773
1343 0 65.0628 10.6359 692 108.23 83.7009 506.558
1344 0 69.0902 10.783 745 108.015 83.2832 504.788
1345 0 70.0817 11.4153 800 106.034 82.8512 504.021
1346 0 72.0271 10.6627 768 110.033 82.5977 503.206
1347 0 75.0372 11.0612 830 111.099 82.6735 501.504
1348 0 79.0457 11.7274 927 108.167 83.2168 499.468
1349 0 80.0419 11.7938 944 109.907 82.5678 497.842
1350 0 83.0525 11.6914 971 109.605 83.2204 498.354
1351 0 86.0365 11.96 1029 110.076 83.3732 496.337
1352 0 89.0659 11.6655 1039 111.612 82.8383 494.421
1353 1 49.0389 11.0729 543 117.967 82.5783 513.184
1354 0 50.0161 11.4163 571 118.37 82.3187 512.331
1355 0 52.0132 11.4971 598 118.192 83.5017 511.543
1356 0 54.0237 12.3094 665 115.85 83.2932 509.555
1357 0 54.0167 12.1444 656 116.768 83.497 507.982
1358 0 56.0382 12.9733 727 114.865 82.4966 507.949
1359 0 58.0233 12.5122 726 116.152 81.4174 507.569
1360 0 59.024 12.5373 740 117.014 81.0203 507.253
1361 0 60.0233 12.7617 766 116.094 80.7115 508.043
1362 0 62.0181 13.222 820 114.489 81.2451 507.101
1363 0 64.0829 12.4994 801 117.534 82.0387 506.418
1364 0 64.1357 12.302 789 118.921 82.2053 504.729
1365 0 66.0701 12.5776 831 119.041 82.4019 504.35
1366 0 67.0878 13.2513 889 116.565 82.5039 504.471
1367 0 71.0812 13.0274 926 117.565 82.2549 502.526
1368 0 72.0579 13.2949 958 118.077 82.0511 502.429
1369 0 74.0665 13.4609 997 119.207 82.0331 501.02
1370 0 77.103 12.814 988 121.901 81.6913 500.943
1371 0 78.0653 12.5664 981 124.67 81.0153 500.105
1372 0 80.0831 12.6618 1014 125.649 81.9083 499.766
1373 0 83.0569 12.8707 1069 125.354 81.5875 498.7
1374 0 85.0344 13.2064 1123 125.104 81.0552 498.427
1375 0 85.0766 13.1293 1117 125.728 81.3599 497.683
1376 0 90.1238 13.2706 1196 123.775 81.4431 496.381
1377 0 90.0558 12.9253 1164 118.586 81.2869 496.196
1378 0 91.0268 13.5784 1236 120.195 81.4175 495.128
1379 0 91.1086 13.204 1203 121.776 81.6708 495.688
1380 0 93.0477 13.4125 1248 125.144 82.2404 495.038
1381 0 94.042 13.6428 1283 129.217 81.8441 495.171
1382 1 47.0167 12.3998 583 126.768 82.53 517.005
1383 0 47.0207 12.2287 575 119.073 82.56 516.172
1384 0 47.0251 12.4614 586 115.442 81.8328 515.928
1385 0 50.0126 12.3569 618 111.346 82.0777 515.511
1386 0 52.0161 12.2462 637 109.732 81.6122 515.526
1387 0 53.0576 12.7786 678 105.932 81.7906 514.77
1388 0 54.0407 12.2315 661 106.967 81.8427 514.079
1389 0 56.0244 12.6195 707 104.441 82.3423 511.702
1390 0 58.0447 12.4904 725 104.12 81.3021 510.888
1391 0 58.0447 12.5076 726 139.475 80.2948 510.854
1392 0 61.0347 12.796 781 106.029 81.8425 510.878
1393 0 62.0178 12.706 788 107.953 81.4987 509.481
1394 0 63.0396 12.6587 798 110.326 81.6767 508.289
1395 0 64.0334 12.7746 818 112.15 81.9364 509.011
1396 0 66.0216 13.0109 859 113.302 81.6449 506.6
1397 0 68.045 12.8591 875 115.978 81.7429 506.078
1398 0 69.0506 12.5126 864 121.073 82.0787 505.025
1399 0 72.0557 11.8242 852 124.61 81.7101 504.365
1400 0 74.1128 12.535 929 125.159 81.5996 503.499
1401 0 74.1093 12.522 928 138.702 81.5841 503.562
1402 0 77.0331 12.2675 945 131.281 81.6698 501.538
1403 1 41.0146 11.1424 457 134.269 81.4792 520.149
1404 0 40.0141 11.471 459 137.606 80.8845 519.495
1405 0 43.0213 11.7849 507 134.018 80.9112 517.627
1406 0 43.0273 12.2248 526 133.11 81.4125 518.703
1407 0 44.029 10.9246 481 126.035 81.0624 512.753
1408 0 46.0305 12.7741 588 132.272 80.9184 516.434
1409 0 47.068 12.3438 581 133.422 80.9811 516.542
1410 0 47.0316 12.8424 604 132.775 81.7632 515.692
1411 0 49.0582 13.1273 644 131.762 80.7112 514.874
1412 0 52.0827 12.7489 664 132.217 81.2319 513.752
1413 0 51.0622 12.71 649 134.965 81.3328 512.855
1414 0 55.0503 13.2424 729 130.793 81.1344 512.938
1415 0 56.0994 12.7274 714 134.143 81.1289 511.235
1416 0 57.0589 12.8113 731 135.114 81.0315 510.213
1417 0 61.0735 13.1972 806 132.061 80.9975 510.253
1418 0 61.0476 13.3175 813 132.358 81.016 508.872
1419 0 64.0489 13.6302 873 129.564 81.2898 508.247
1420 0 66.0661 12.9416 855 132.335 81.1754 507.729
1421 0 68.0388 13.4335 914 131.205 81.8217 506.391
1422 0 69.0169 13.1562 908 132.909 81.7478 504.247
1423 0 73.03 13.7478 1004 130.886 81.9143 503.297
1424 0 74.0947 14.0226 1039 131.525 81.922 503.456
1425 0 76.0543 13.5298 1029 134.259 82.1059 502.196
1426 0 79.0515 13.6493 1079 133.937 81.6719 500.102
1427 1 41.0212 11.555 474 136.19 81.9599 519.316
1428 0 43.0319 11.3869 490 139.206 81.5633 517.069
1429 0 44.0135 11.5873 510 139.155 81.2647 517.416
1430 0 44.0323 12.4681 549 137.628 81.8251 517.341
1431 0 44.0323 12.4 546 166.582 82.8059 517.438
1432 0 46.0322 12.9257 595 128.494 81.9328 515.83
1433 0 48.0151 13.4333 645 124.367 81.9364 515.124
1434 0 50.0338 12.7714 639 127.152 82.2034 513.953
1435 0 52.0246 13.3783 696 122.103 81.2917 513.453
1436 0 52.0828 13.1905 687 123.52 82.3217 512.376
1437 0 54.0325 13.1587 711 121.903 81.6526 510.712
1438 0 56.017 13.2638 743 120.751 81.5209 511.069
1439 0 57.02 13.1357 749 121.427 81.8144 509.656
1440 0 58.0372 13.6464 792 120.455 81.5821 509.476
1441 0 59.0464 13.4471 794 120.831 81.8149 508.169
1442 0 62.0312 13.6867 849 118.581 81.7468 507.462
1443 0 63.0299 13.803 870 118.403 82.2023 505.76
1444 0 64.035 13.2428 848 120.842 82.2783 504.55
1445 0 67.0676 13.7175 920 119.1 82.0043 504.085
1446 0 70.0188 13.6106 953 119.692 82.0021 503.495
1447 0 70.0502 13.6902 959 122.439 82.3837 501.697
1448 0 74.0324 13.5616 1004 121.414 81.0737 498.569
1449 0 76.0484 14.2672 1085 120.232 82.1281 498.956
1450 0 78.0626 14.0016 1093 121.52 82.2763 498.393
1451 0 80.0852 14.1349 1132 120.899 81.8993 497.385
1452 0 82.0706 13.6346 1119 123.38 81.7364 495.724
1453 0 83.0829 13.7934 1146 123.466 82.1361 494.241
1454 0 87.0706 13.8279 1204 123.968 82.2608 493.979
1455 0 90.0594 14.335 1291 122.374 82.5391 492.731
1456 0 91.0513 13.8713 1263 123.897 82.0958 492.267
1457 0 94.0513 13.4501 1265 126.602 83.0996 490.039
1458 1 47.0329 11.2474 529 128.134 82.4083 513.652
1459 0 50.0168 11.776 589 126.268 81.8065 511.365
1460 0 52.0215 12.3795 644 126.033 81.9984 511.402
1461 0 53.0439 12.9515 687 128.435 81.6696 508.805
1462 0 54.0704 13.353 722 125.047 82.2493 509.463
1463 0 56.0185 13.442 753 119.94 81.6667 508.386
1464 0 58.0409 13.6283 791 119.107 81.5183 508.183
1465 0 60.0715 13.7336 825 126.145 81.6412 506.583
1466 0 61.0388 13.2866 811 127.968 81.2466 504.73
1467 0 63.0349 13.5005 851 127.879 81.4383 503.9
1468 0 66.0185 13.6325 900 126.459 81.6544 503.377
1469 0 67.0153 13.9819 937 125.132 82.1249 503.094
1470 0 68.0394 14.0801 958 125.759 81.6273 502.545
1471 0 69.0391 13.152 908 129.773 81.6068 500.953
1472 0 69.0391 13.152 908 167.822 80.6189 500.9
1473 0 76.0426 13.7949 1049 125.786 81.3622 498.34
1474 0 78.0621 14.2323 1111 125.105 81.586 496.873
1475 0 79.0795 13.9353 1102 126.123 81.7786 494.758
1476 0 80.0804 13.5863 1088 126.682 81.3318 493.918
1477 0 83.0924 13.84 1150 123.77 81.6391 492.761
1478 0 84.0281 13.436 1129 125.351 81.9167 490.446
1479 0 86.1232 13.2717 1143 124.785 82.4716 491.629
1480 0 89.0304 13.4224 1195 123.865 83.0569 490.035
1481 0 92.1086 13.2561 1221 123.957 82.4717 487.888
1482 0 94.0947 13.3164 1253 122.98 82.9856 487.031
1483 0 97.0851 12.7929 1242 120.784 82.806 486.254
1484 0 99.0763 12.7478 1263 112.598 82.612 480.007
1485 1 51.0496 9.9707 509 113.684 82.7937 503.016
1486 0 54.0319 10.938 591 115.01 84.0152 501.318
1487 0 55.0137 11.2699 620 113.211 83.6661 500.792
1488 0 56.0152 11.1934 627 114.997 83.4673 500.722
1489 0 58.0097 11.2395 652 114.715 83.6718 500.534
1490 0 60.0113 10.9979 660 114.867 83.5788 499.936
1491 0 62.0396 11.3315 703 115.134 83.6287 497.755
1492 0 62.0196 11.6899 725 117.246 83.6179 496.097
1493 0 67.0182 11.4596 768 117.908 83.5234 493.876
1494 0 67.0304 11.3829 763 119.202 83.1258 494.135
1495 0 71.0475 11.7527 835 117.59 82.9234 493.394
1496 0 72.1277 11.0776 799 120.03 83.8849 494.542
1497 0 76.0674 11.6739 888 118.569 83.3773 493.747
1498 0 80.0316 12.1827 975 116.044 83.3569 493.55
1499 0 81.0417 12.401 1005 118.232 83.4627 490.603
1500 0 84.0415 12.2796 1032 118.403 83.407 488.784
1501 0 88.0358 12.9152 1137 117.494 83.4811 487.179
1502 0 90.0353 12.7061 1144 119.031 83.104 486.919
1503 0 92.0365 12.419 1143 120.647 83.1942 485.284
1504 1 48.0167 10.8087 519 112.351 82.9114 508.125
1505 0 50.0273 11.6736 584 119.045 82.7654 507.658
1506 0 52.0455 12.4314 647 114.204 83.6368 506.116
1507 0 53.0311 12.2947 652 111.709 83.2653 507.972
1508 0 54.0965 12.4222 672 113.07 83.1815 507.427
1509 0 57.0698 12.7913 730 112.01 83.589 506.464
1510 0 57.0905 13.1896 753 111.327 83.3692 506.458
1511 0 59.0423 12.6858 749 114.79 83.8905 505.822
1512 0 63.067 13.3826 844 108.25 82.9893 504.22
1513 0 64.0893 12.8102 821 111.577 82.7674 503.839
1514 0 65.0297 13.0556 849 112.146 83.3074 502.744
1515 0 69.0563 13.6121 940 108.915 83.5404 501.957
1516 0 70.1006 12.5676 881 113.498 83.6027 500.075
1517 0 72.051 12.7965 922 114.546 83.7701 499.043
1518 0 74.1126 13.3176 987 111.201 82.924 498.241
1519 0 76.0674 12.9622 986 109.023 82.5264 497.53
1520 0 79.0987 12.7309 1007 110.312 83.4777 495.22
1521 1 41.0525 10.7911 443 115.928 82.4447 512.738
1522 0 43.0408 11.2219 483 113.054 82.6894 511.654
1523 0 44.058 10.9401 482 115.705 82.2967 511.72
1524 0 45.0252 11.9044 536 113.487 82.7463 510.974
1525 0 46.0414 12.706 585 110.284 81.8701 508.711
1526 0 48.023 12.3066 591 113.164 83.9729 508.997
1527 0 48.0847 12.2076 587 113.358 83.0545 508.259
1528 0 51.0244 12.4254 634 110.162 82.5047 509.191
1529 0 52.052 12.1609 633 111.768 82.7804 508.411
1530 0 53.0714 12.681 673 110.239 83.0297 507.168
1531 0 53.0836 12.339 655 113.794 83.7344 507.376
1532 0 56.0779 12.7858 717 111.183 83.5816 507.233
1533 0 56.0816 12.8563 721 111.161 83.6241 507.291
1534 0 59.0856 12.338 729 109.879 83.6845 504.919
1535 0 61.0445 12.581 768 108.876 83.1693 504.135
1536 0 63.0669 13.0814 825 107.048 82.9115 504.097
1537 0 62.0796 12.6128 783 111.074 82.189 502.625
1538 0 66.0616 12.7608 843 108.144 82.6453 501.312
1539 0 67.0795 12.7162 853 108.073 83.2309 500.259
1540 0 69.0576 12.8009 884 108.227 82.81 500.007
1541 0 71.0366 12.5569 892 109.031 82.6917 498.594
1542 0 72.0948 12.4974 901 109.189 82.7791 497.2
1543 0 77.0665 12.6384 974 106.789 83.2567 496.484
1544 0 79.0705 12.4319 983 107.195 83.1007 494.9
1545 0 81.0797 11.9512 969 108.798 82.5986 490.885
1546 0 84.0353 12.8755 1082 105.44 82.1784 490.004
1547 0 86.0751 12.3264 1061 107.245 82.7691 490.733
1548 0 89.0456 12.9372 1152 104.777 82.8819 490.432
1549 0 91.0981 12.7884 1165 105.786 82.6395 486.621
1550 1 47.0776 11.2368 529 112.253 81.9471 508.688
1551 0 46.2007 11.0388 510 108.761 82.5784 506.524
1552 0 45.0409 10.3684 467 106.349 82.4154 502.739
1553 0 52.0524 11.7958 614 109.897 81.3111 506.026
1554 0 52.1025 12.4754 650 110.114 82.76 505.063
1555 0 55.1017 12.4678 687 108.012 82.7074 504.617
1556 0 56.1355 12.6836 712 107.698 82.5098 504.777
1557 0 58.0628 12.5209 727 107.759 83.1568 504.221
1558 0 58.0795 12.3452 717 109.432 83.1172 503.456
1559 0 60.0719 12.5849 756 108.509 84.0635 503.968
1560 0 62.0384 12.6534 785 108.282 83.3682 503.111
1561 0 64.0415 12.7105 814 108.655 83.102 501.029
1562 0 67.0346 12.6651 849 108.329 83.3981 500.643
1563 0 67.0819 12.3729 830 112.052 83.5964 499.551
1564 0 68.0608 12.1656 828 112.576 82.9831 499.258
1565 0 72.1018 13.1065 945 111.121 83.2741 497.631
1566 0 73.1057 12.9128 944 113.417 83.0858 495.549
1567 0 77.1194 13.0188 1004 113.639 83.0677 495.032
1568 0 78.1743 12.971 1014 115.225 83.4122 493.621
1569 0 81.1401 13.224 1073 115.316 83.8956 493.082
1570 1 42.1074 10.592 446 116.641 83.0628 512.63
1571 0 43.2081 11.6182 502 116.012 83.2849 510.639
1572 0 42.147 11.3887 480 116.933 83.7604 512.412
1573 0 43.0401 10.8736 468 112.882 84.4957 508.776
1574 0 44.0715 12.0486 531 112.516 84.0829 509.217
1575 0 46.1219 12.1851 562 117.658 83.1851 509.525
1576 0 49.1004 12.4235 610 115.58 82.8311 509.349
1577 0 51.0953 12.3103 629 115.162 82.7679 508.607
1578 0 53.1308 12.2151 649 114.435 82.6841 507.293
1579 0 52.1042 12.2255 637 116.998 82.5808 505.892
1580 0 55.1362 11.9341 658 119.027 81.8526 504.536
1581 0 58.0965 12.4104 721 116.985 82.7753 503.325
1582 0 57.1133 12.8691 735 118.604 82.8544 502.824
1583 0 61.0374 12.4514 760 119.711 82.8013 502.884
1584 0 62.084 13.1918 819 118.947 83.3138 503.696
1585 0 63.0285 13.0259 821 122.274 83.1011 502.452
1586 0 65.0865 12.8598 837 124.073 83.3668 501.546
1587 0 68.1297 13.2835 905 123.35 82.7436 500.991
1588 0 70.0551 13.2324 927 125.631 82.4887 499.169
1589 0 72.089 13.2891 958 126.027 82.3894 498.476
1590 0 73.1414 13.3577 977 128.404 82.4893 497.588
1591 0 75.1874 13.606 1023 127.968 82.1887 497.382
1592 0 78.1699 13.9568 1091 125.93 81.8598 496.896
1593 0 80.1315 13.9895 1121 127.417 82.3782 496.049
1594 0 83.1713 13.9591 1161 127.761 82.5814 495.115
1595 0 85.0987 14.3363 1220 127.6 82.4074 492.412
1596 0 87.1371 14.0927 1228 128.171 82.2174 490.313
1597 0 91.1111 13.928 1269 127.763 81.6154 489.991
1598 0 93.067 14.3982 1340 126.519 81.9963 488.606
1599 0 97.0885 14.4301 1401 125.226 81.9879 486.724
1600 1 49.03 12.1354 595 130.439 82.0454 509.43
1601 0 50.0146 12.4963 625 130.451 82.3904 508.461
1602 0 51.0369 13.069 667 128.438 82.1349 507.565
1603 0 54.0164 13.3293 720 125.79 82.5069 506.922
1604 0 56.0438 13.5608 760 125.642 82.3342 504.968
1605 0 59.0121 13.6243 804 114.34 82.6853 506.123
1606 0 61.0128 14.3085 873 111.549 82.7755 505.16
1607 0 62.0161 14.1415 877 111.863 82.4356 503.73
1608 0 62.0251 13.0109 807 117.907 82.3135 504.219
1609 0 64.054 13.3325 854 117.323 82.3021 502.974
1610 0 65.0091 12.829 834 118.685 81.8201 502.779
1611 0 68.0303 13.4205 913 117.027 82.3001 501.001
1612 0 70.0301 13.7798 965 116.663 82.256 498.218
1613 0 73.0597 13.6601 998 116.351 82.3818 498.684
1614 0 73.0274 13.2964 971 119.826 82.3759 496.236
1615 0 76.0209 13.3779 1017 119.798 81.5919 496.163
1616 0 79.0291 13.8177 1092 118.767 81.6859 495.609
1617 0 81.0264 13.6375 1105 120.523 81.3276 493.849
1618 0 83.0543 13.75 1142 121.495 81.5946 491.919
1619 0 85.037 13.7352 1168 123.637 81.738 489.815
1620 0 88.0631 13.5471 1193 123.1 82.2112 489.347
1621 0 90.0638 13.335 1201 120.176 82.4646 485.351
1622 1 47.0105 11.2954 531 120.202 82.9868 503.209
1623 0 49.046 10.847 532 120.718 81.8647 502.07
1624 0 51.0448 12.0286 614 114.568 81.7362 502.738
1625 0 53.052 11.4227 606 116.201 82.2871 502.384
1626 0 56.0666 12.5743 705 121.881 82.383 505.333
1627 0 56.0223 12.5843 705 123.504 82.0199 504.221
1628 0 61.0454 12.5972 769 121.813 82.0546 503.537
1629 0 61.0408 12.762 779 125.621 82.2349 502.045
1630 0 64.061 12.332 790 126.842 82.4759 501.73
1631 0 66.0514 13.0504 862 126.176 82.0452 499.669
1632 0 68.0425 12.5657 855 128.13 82.4199 499.06
1633 0 71.0244 13.1786 936 126.704 81.9209 497.604
1634 0 74.0294 13.1569 974 126.353 81.3686 496.831
1635 0 76.0183 13.4047 1019 126.006 81.2208 495.35
1636 0 77.0524 12.9912 1001 128.505 80.5874 492.605
1637 0 78.0596 13.1438 1026 128.952 81.0468 491.875
1638 0 82.104 13.3976 1100 127.602 80.67 491.075
1639 0 84.1308 13.0392 1097 129.575 81.5278 489.22
1640 0 87.1692 13.4681 1174 128.635 81.6158 487.807
1641 0 90.1502 13.4775 1215 128.745 81.5177 485.237
1642 0 93.0962 13.6633 1272 126.134 81.4733 484.108
1643 0 95.1691 13.7229 1306 125.106 81.3247 480.791
1644 0 97.1944 13.581 1320 126.002 81.2235 477.555
1645 0 99.1251 13.72 1360 125.903 81.6691 475.64
1646 0 104.183 13.4955 1406 125.259 80.9822 472.709
1647 0 109.09 13.851 1511 123.364 81.6082 470.874
1648 0 113.204 14.1603 1603 121.776 82.2308 470.692
1649 1 63.1027 11.5368 728 121.931 82.2005 499.989
1650 0 66.0506 12.9749 857 122.776 81.8926 502.471
1651 0 65.0511 12.7438 829 128.755 81.6791 500.963
1652 0 68.1003 13.5976 926 128.407 81.77 498.745
1653 0 71.1778 13.4031 954 128.81 81.8784 496.933
1654 0 71.0914 13.5459 963 130.997 82.0384 495.833
1655 1 87.2344 18.3528 1601 100.187 82.0575 484.799
1656 0 91.2648 17.6081 1607 102.416 81.4294 485.623
1657 0 91.2195 17.3537 1583 104.864 81.1263 483.395
1658 0 89.2045 17.6112 1571 106.473 81.6563 483.856
1659 0 101.319 16.9959 1722 100.661 81.9506 480.811
1660 0 99.2767 17.0634 1694 105.126 82.0065 480.969
1661 0 108.279 16.1896 1753 104.829 82.0308 479.55
1662 0 112.44 15.8663 1784 104.998 81.9299 474.624
1663 0 111.301 17.8704 1989 100.825 82.1845 474.018
1664 1 54.1981 11.2735 611 127.566 82.2144 504.768
1665 0 56.281 11.8157 665 125.89 81.5669 503.429
1666 0 57.1861 12.2058 698 125.193 82.2135 503.364
1667 0 58.1839 12.6324 735 124.848 81.3714 501.239
1668 0 59.2571 12.9436 767 123.518 81.7405 500.768
1669 0 61.093 12.2436 748 126.769 81.2781 501.627
1670 0 64.0715 12.2051 782 126.396 80.6547 501.602
1671 0 65.0422 12.8993 839 123.232 81.1979 500.353
1672 0 68.0802 12.6028 858 123.9 81.1853 499.544
1673 0 70.0901 12.8406 900 122.418 81.7822 498.517
1674 0 78.1339 16.5869 1296 103.426 81.2269 492.684
1675 0 84.1046 16.3606 1376 99.4927 81.3067 488.747
1676 0 89.2154 16.1743 1443 99.4615 81.386 489.037
1677 0 90.0752 18.2514 1644 93.2311 82.1168 488.147
1678 1 114.136 14.325 1635 92.8538 81.8514 483.128
1679 0 117.124 12.6191 1478 101.721 81.5873 484.906
1680 0 119.149 14.2427 1697 95.9658 81.175 480.936
1681 0 119.163 14.2662 1700 97.7476 81.3012 479.635
1682 0 116.207 16.7029 1941 91.2081 81.3545 473.839
1683 0 124.104 15.0116 1863 96.241 81.4214 475.771
1684 0 123.068 15.3493 1889 99.8772 81.3017 477.609
1685 1 50.0235 10.8149 541 120.418 80.2532 506.747
1686 0 51.029 11.2681 575 113.277 80.9704 505.553
1687 0 53.0621 11.7033 621 107.734 81.5105 505.966
1688 0 55.0518 12.025 662 106.758 81.5045 505.462
1689 0 55.0649 12.8576 708 105.081 81.7486 504.404
1690 0 56.1368 13.1643 739 100.302 81.2097 503.713
1691 0 58.0477 12.0074 697 106.184 81.4405 503.416
1692 0 61.1023 12.4709 762 102.991 81.0525 502.697
1693 0 62.0758 12.2109 758 104.464 80.8945 501.606
1694 0 64.1184 12.5861 807 102.572 80.6741 500.918
1695 0 66.0845 12.6051 833 102.411 80.6459 500.635
1696 0 69.0815 12.8399 887 101.183 81.0857 499.452
1697 0 70.1613 12.4428 873 101.596 81.3299 498.459
1698 0 78.0806 14.357 1121 92.2096 81.1677 494.737
1699 0 77.0956 14.5663 1123 92.7213 81.6162 493.562
1700 0 84.1243 14.7163 1238 89.1187 81.7779 491.611
1701 0 86.1276 15.1984 1309 87.4293 81.589 490.395
1702 0 87.0927 14.7199 1282 91.5242 82.5679 488.791
1703 0 88.0887 14.86 1309 92.2788 82.6356 490.304
1704 0 90.0772 14.0435 1265 95.5723 82.0126 489.39
1705 1 49.0178 11.0368 541 105.952 81.3457 510.394
1706 0 51.0505 11.4201 583 105.909 81.6398 508.679
1707 0 52.0688 11.9073 620 101.479 80.9774 508.382
1708 0 52.1407 12.0443 628 101.651 80.2994 505.922
1709 0 53.0499 11.9699 635 102.672 80.7354 505.723
1710 0 56.0452 11.2409 630 104.029 81.5587 505.219
1711 0 58.0821 12.2069 709 101.673 81.2891 503.111
1712 0 59.1033 12.3005 727 102.783 81.1884 502.308
1713 0 59.1902 12.1642 720 101.321 82.1167 500.835
1714 0 62.1645 12.0326 748 102.063 82.3797 499.991
1715 0 63.0909 12.5216 790 101.53 82.4089 499.899
1716 0 66.1294 12.2941 813 100.888 82.4772 498.426
1717 0 68.1815 12.8334 875 98.4949 82.7794 497.601
1718 0 70.2133 12.8751 904 100.955 82.4867 496.811
1719 0 72.1207 12.382 893 102.948 82.1657 494.938
1720 0 76.1025 13.3767 1018 101.697 81.9823 496.542
1721 0 78.1577 13.9078 1087 100.569 82.3036 494.343
1722 0 80.1109 13.3565 1070 102.601 81.929 492.46
1723 0 82.1728 13.9462 1146 100.825 82.3255 492.44
1724 1 45.019 11.0398 497 109.087 81.2213 510.016
1725 0 46.1354 11.3362 523 109.631 83.0325 509.746
1726 0 48.0995 12.0791 581 106.723 83.1583 508.675
1727 0 51.2016 12.4215 636 104.624 82.3176 507.593
1728 0 53.1632 12.4146 660 105.071 82.9197 506.979
1729 0 52.0113 12.7472 663 105.237 81.2851 507.275
1730 0 60.0251 15.6768 941 88.6812 81.6652 501.603
1731 0 58.0211 14.8911 864 95.11 81.3137 503.742
1732 0 58.0234 14.2356 826 99.6162 80.5993 503.649
1733 0 59.0248 12.9098 762 103.963 81.6732 504.539
1734 0 62.022 13.2211 820 102.271 80.9573 503.349
1735 0 63.0759 13.4283 847 102.112 80.673 502.874
1736 0 63.0258 14.0101 883 101.803 80.7576 501.704
1737 0 66.0238 13.5254 893 102.979 81.1971 501.541
1738 0 67.0403 13.7977 925 102.69 81.3816 500.844
1739 0 66.0061 13.1503 868 106.454 82.2707 500.075
1740 0 69.0863 13.5048 933 104.64 82.5188 499.39
1741 0 71.124 13.2585 943 104.879 83.5673 496.903
1742 0 74.0388 12.9392 958 105.322 82.1461 496.518
1743 0 77.1041 14.0848 1086 100.812 82.1648 494.125
1744 0 76.0991 10.9594 834 98.94 82.6127 499.694
1745 0 79.0525 11.5872 916 94.2806 81.7795 494.995
1746 0 81.1068 10.7019 868 96.4528 82.0691 494.321
1747 1 45.0838 11.4232 515 96.6233 82.4311 512.047
1748 0 47.0088 11.7212 551 97.7005 82.1633 510.882
1749 0 48.0598 12.5261 602 96.2492 82.2924 508.42
1750 0 48.0369 12.2614 589 94.2683 81.4941 508.304
1751 0 49.0463 12.2537 601 94.5957 81.5973 508.504
1752 0 50.0306 12.8321 642 93.7321 82.243 507.271
1753 0 52.0628 12.0239 626 95.8067 81.8562 508.895
1754 0 54.0936 13.0699 707 93.14 81.7723 507.308
1755 0 54.0788 12.7222 688 95.5872 81.3488 506.94
1756 0 57.0977 12.5399 716 95.067 81.9777 505.095
1757 0 58.06 13.0727 759 94.7167 82.0026 504.704
1758 0 60.0559 12.9713 779 95.611 81.7587 503.968
1759 0 59.0652 12.9349 764 97.2081 81.8364 502.996
1760 0 62.061 12.81 795 97.5673 82.3421 503.35
1761 0 64.0902 13.8243 886 94.6704 82.5734 501.517
1762 0 65.0945 13.1655 857 98.0268 82.4341 501.32
1763 0 68.0546 13.7243 934 96.7612 81.7923 500.467
1764 0 71.1212 13.2591 943 98.2195 82.6013 499.059
1765 0 72.0511 13.9623 1006 98.1461 83.1342 497.562
1766 0 81.0662 16.7271 1356 86.5177 82.9366 493.556
1767 0 80.035 15.1933 1216 95.2574 83.1398 494.771
1768 0 78.0516 14.4135 1125 103.065 82.6622 494.918
1769 0 85.0599 16.1181 1371 94.8169 82.8935 491.247
1770 0 83.033 14.705 1221 103.485 82.4595 492.894
1771 0 89.0358 14.5672 1297 102.749 82.542 491.074
1772 0 90.0659 15.0223 1353 103.33 82.5395 488.965
1773 0 97.0615 17.2262 1672 94.1226 82.6388 485.37
1774 0 100.092 17.264 1728 95.147 82.6829 482.513
1775 1 153.139 7.94051 1216 113.819 82.4523 486.651
1776 0 154.15 11.145 1718 99.1915 82.532 481.356
1777 1 52.0606 12.3702 644 114.543 82.9752 506.466
1778 0 52.0482 12.988 676 112.169 83.321 505.916
1779 0 54.0365 12.6951 686 164.891 83.3192 505.684
1780 0 58.045 13.7307 797 104.05 83.0176 504.202
1781 0 61.0318 15.1233 923 96.7822 82.9902 502.126
1782 0 64.0468 16.1132 1032 92.3876 82.7045 500.438
1783 0 62.0259 15.3001 949 98.902 82.4131 500.434
1784 0 68.0262 16.1408 1098 93.9845 82.0246 498.405
1785 0 70.0397 16.1052 1128 93.4628 82.4167 496.965
1786 0 69.0579 16.6527 1150 95.2748 82.4435 496.303
1787 0 72.0653 17.6645 1273 92.3998 82.8107 495.8
1788 0 75.0357 16.0857 1207 99.0646 82.5153 495.441
1789 0 82.08 17.751 1457 89.5154 83.0975 493.577
1790 0 84.0785 17.3409 1458 92.1509 83.1783 492.207
1791 0 84.0802 17.3882 1462 147.174 83.1635 492.026
1792 0 86.0636 17.0572 1468 95.8379 83.2003 490.805
1793 0 88.1204 16.8406 1484 97.7722 83.2668 489.818
1794 0 90.0747 17.7408 1598 96.6508 82.6977 488.793
1795 0 97.1292 17.2657 1677 96.0733 81.9183 485.525
1796 0 97.0496 17.2798 1677 98.7668 82.8253 485.006
1797 0 93.0333 18.1978 1693 100.849 81.5535 486.194
1798 0 99.0373 17.9831 1781 99.3279 82.3857 482.794
1799 0 100.07 16.5884 1660 106.311 82.3813 483.287
1800 0 99.0841 16.4709 1632 109.915 82.1281 483.58
1801 0 102.114 15.6003 1593 114.296 82.0421 483.477
1802 0 101.053 14.626 1478 119.923 82.2896 484.247
1803 0 103.093 13.9001 1433 123.108 81.7062 484.038
1804 0 106.112 13.5705 1440 124.568 81.841 483.674
1805 0 108.121 14.1138 1526 123.058 81.4509 480.566
1806 0 113.057 15.0278 1699 118.881 82.1878 477.859
1807 0 116.068 15.4392 1792 118.248 81.947 475.068
1808 0 119.052 14.5147 1728 121.868 81.6435 474.666
1809 0 121.122 13.9612 1691 124.615 82.2235 474.565
1810 0 125.056 14.0657 1759 124.309 81.8022 470.791
1811 0 125.058 14.1534 1770 168.608 80.7831 470.597
1812 0 135.079 15.7537 2128 117.615 81.4718 465.471
1813 0 136.092 14.3065 1947 122.435 81.6035 468.061
1814 0 139.099 13.7384 1911 123.189 81.5055 464.334
1815 0 144.118 14.0232 2021 121.856 81.5042 457.899
1816 0 149.091 13.8573 2066 119.581 81.4027 458.38
1817 0 153.089 12.7573 1953 119.135 81.5264 456.219
1818 1 84.0306 11.1031 933 116.045 81.2444 489.75
1819 0 86.0669 11.6537 1003 116.847 81.0758 486.457
1820 0 89.0492 12.3752 1102 117.083 81.2641 485.293
1821 0 95.0928 13.9548 1327 122.203 81.7136 487.074
1822 0 96.0819 13.6862 1315 123.878 81.6259 485.3
1823 0 101.111 13.866 1402 118.26 81.7147 482.52
1824 0 103.062 13.3221 1373 123.044 82.1296 480.921
1825 0 108.094 14.0248 1516 117.696 81.593 478.613
1826 0 112.131 14.1888 1591 116.469 81.4965 477.452
1827 0 115.066 14.0181 1613 116.219 82.1259 476.816
1828 0 119.049 13.969 1663 116.355 81.5574 473.394
1829 0 123.099 14.1187 1738 114.356 82.0362 473.967
1830 0 124.097 14.0213 1740 115.688 81.2506 470.521
1831 0 130.039 13.4191 1745 109.05 81.2991 470.989
1832 0 134.114 12.8697 1726 111.29 82.1234 468.134
1833 0 139.111 14.6286 2035 106.278 82.2747 462.585
1834 1 152.092 17.8445 2714 93.0862 82.3648 453.68
1835 0 151.104 16.6971 2523 100.174 82.5442 454.576
1836 0 151.113 14.4594 2185 114.575 82.5423 455.768
1837 0 154.082 13.9471 2149 118.349 82.3662 455.143
1838 0 159.163 13.238 2107 121.594 82.214 453.458
1839 0 163.103 13.1696 2148 121.549 82.0885 451.438
1840 0 168.164 12.2916 2067 125.926 81.6081 450.002
1841 0 173.149 12.5268 2169 126.17 81.793 448.11
1842 0 178.161 12.8479 2289 121.677 81.7671 444.212
1843 0 182.119 13.3704 2435 120.338 81.6123 442.395
1844 0 188.152 13.1383 2472 121.782 82.144 438.576
1845 0 194.225 14.4729 2811 118.827 81.8556 431.992
1846 0 201.227 13.4276 2702 121.755 82.5733 433.099
1847 0 205.137 12.538 2572 124.581 82.6155 432.392
1848 0 212.168 12.9614 2750 123.928 82.2313 426.973
1849 0 217.225 12.8715 2796 124.245 83.1373 426.679
1850 0 222.296 11.885 2642 127.332 82.5666 424.466
1851 0 229.273 13.22 3031 121.796 82.5262 419.23
1852 0 238.292 13.0177 3102 122.338 82.0745 414.062
1853 0 244.381 12.8324 3136 122.301 81.9869 409.807
1854 0 254.23 13.2557 3370 120.594 82.0178 406.25
1855 0 262.233 12.9046 3384 120.653 82.4852 402.281
1856 0 271.243 13.1579 3569 120.131 81.3763 395.994
1857 1 281.208 13.2891 3737 118.88 82.3029 390.873
1858 0 290.233 14.0473 4077 114.484 82.4967 385.049
1859 0 301.193 13.8549 4173 115.114 82.3571 382.202
1860 0 310.174 13.7052 4251 115.166 81.8036 378.13
1861 0 319.298 15.365 4906 110.773 82.0799 368.942
1862 0 331.251 16.6973 5531 106.967 81.9336 362.394
1863 1 90.0878 11.5221 1038 109.96 82.9085 486.866
1864 0 91.1208 11.4354 1042 106.695 82.4472 482.282
1865 0 94.1365 12.3544 1163 108.031 82.8899 483.68
1866 0 96.1118 11.4554 1101 102.22 82.4124 483.435
1867 0 98.1111 10.8143 1061 103.721 82.2469 481.469
1868 0 103.085 11.3983 1175 101.397 81.9583 480.858
1869 0 107.077 11.4777 1229 100.924 82.0594 479.705
1870 0 109.131 11.3625 1240 102.285 81.8347 475.945
1871 0 113.056 11.9852 1355 98.9579 81.9934 475.816
1872 0 117.059 11.7719 1378 99.4572 82.5051 472.959
1873 0 118.08 11.7886 1392 100.563 81.2938 470.728
1874 0 122.107 11.7028 1429 100.062 82.1232 468.761
1875 0 125.141 12.3301 1543 99.5684 81.9572 465.737
1876 0 128.163 12.7884 1639 98.8023 81.6968 463.334
1877 0 134.174 12.3273 1654 100.186 81.6808 460.613
1878 0 137.108 11.976 1642 100.535 82.2004 460.882
1879 0 141.176 12.3392 1742 96.7572 82.5258 459.61
1880 0 145.127 12.3685 1795 97.3616 82.707 455.399
1881 0 149.165 12.7845 1907 96.9308 82.2743 451.396
1882 0 154.146 12.5011 1927 98.0763 82.6393 449.052
1883 0 409.802 15.3489 6290 108.331 81.9351 306.699
1884 1 181.396 17.9277 3252 80.3256 82.5861 429.67
1885 0 181.269 18.5084 3355 80.9088 82.4501 425.128
1886 0 183.308 16.906 3099 85.8971 82.3078 423.946
1887 0 182.308 16.8561 3073 128.353 82.2997 424.396
1888 0 185.176 14.1487 2620 97.0733 82.1538 428.285
1889 0 189.371 12.6841 2402 101.908 81.6586 428.427
1890 0 189.362 12.6213 2390 147.364 80.6536 428.244
1891 1 201.38 12.8761 2593 102.747 82.128 423.704
1892 0 209.303 12.8808 2696 104.909 82.3609 420.066
1893 1 154.232 10.5101 1621 104.498 82.9247 450.226
1894 0 158.205 10.7329 1698 103.671 83.0395 449.281
1895 0 163.257 11.779 1923 101.664 82.6178 445.361
1896 0 167.138 11.302 1889 103.83 82.937 444.869
1897 0 173.239 11.995 2078 102.305 82.6396 443.025
1898 0 181.304 14.3736 2606 95.627 82.3185 433.85
1899 0 183.252 11.405 2090 104.8 82.9378 433.875
1900 0 190.286 12.3603 2352 102.947 82.2679 431.478
1901 0 195.252 11.8104 2306 105.036 82.1535 428.483
1902 0 202.235 12.4509 2518 104.143 82.0187 427.498
1903 0 208.389 11.7185 2442 106.663 81.3784 427.116
1904 0 215.267 11.7761 2535 106.284 81.6099 422.326
1905 0 221.279 11.5872 2564 105.691 81.3222 425.433
1906 0 228.199 12.1254 2767 105.412 81.8421 418.882
1907 1 166.154 9.96668 1656 98.8043 81.4861 443.918
1908 0 171.153 10.511 1799 98.8266 81.413 442.163
1909 0 177.193 10.8469 1922 98.4298 82.2856 441.469
1910 0 180.156 10.4632 1885 100.519 81.6631 437.321
1911 0 187.157 10.7664 2015 100.524 82.1727 436.882
1912 0 194.144 12.125 2354 98.2375 81.3237 430.735
1913 0 198.224 10.8816 2157 100.712 81.4029 430.917
1914 0 203.164 11.3603 2308 99.5165 81.2907 429.185
1915 0 210.159 11.1915 2352 100.234 81.9507 425.408
1916 0 215.264 11.4371 2462 100.402 80.8448 422.639
1917 0 219.159 11.357 2489 101.31 80.8292 418.673
1918 0 227.212 11.5707 2629 100.627 81.6405 416.661
1919 0 234.23 11.9583 2801 100.165 80.7351 414.617
1920 0 240.23 11.8928 2857 101.207 81.0389 409.24
1921 0 247.219 11.8599 2932 101.255 81.5549 404.812
1922 0 257.187 12.6601 3256 102.378 81.3397 402.993
1923 0 263.185 12.6185 3321 103.157 81.2821 396.669
1924 1 59.0204 9.3527 552 89.2409 80.1322 501.924
1925 0 62.0402 9.97741 619 90.1922 80.0048 498.669
1926 0 64.0772 10.5498 676 88.9157 80.8994 499.451
1927 0 66.0412 10.448 690 90.5667 81.0551 498.951
1928 0 67.0605 10.4532 701 91.9016 80.9971 497.683
1929 0 69.0368 10.7624 743 90.8143 80.9166 497.658
1930 0 70.068 10.7467 753 91.6149 80.4608 496.301
1931 0 72.0356 10.4809 755 92.8503 80.1934 496.728
1932 0 74.1342 10.8722 806 92.9764 79.6241 493.395
1933 0 78.0917 11.2432 878 92.09 79.7813 492.911
1934 0 79.0917 10.924 864 94.25 79.8322 491.047
1935 0 82.1115 10.9242 897 94.6332 80.1148 490.829
1936 0 84.0946 10.8568 913 95.7448 80.3384 487.174
1937 0 85.1221 10.3498 881 96.9012 80.0443 485.59
1938 0 89.1782 10.2604 915 96.5694 80.2306 485.969
1939 0 91.0873 10.2649 935 96.0449 80.4342 483.144
1940 1 45.0682 7.03379 317 90.47 78.7697 506.502
1941 0 46.068 7.98819 368 88.3315 80.7011 506.196
1942 0 46.0404 7.40654 341 88.0674 79.7155 504.284
1943 0 46.0289 8.45121 389 84.2905 79.4627 503.473
1944 0 50.0596 8.5498 428 85.4206 79.4673 501.544
1945 0 51.0648 9.12566 466 87.0043 78.6438 502.631
1946 0 52.1131 9.01885 470 84.9894 78.7298 503.587
1947 1 74.154 12.029 892 65.5235 79.4787 499.696
1948 0 75.1501 12.8143 963 64.8401 79.3759 499.646
1949 0 75.1993 12.9655 975 65.5159 79.24 498.512
1950 0 75.1757 12.7302 957 67.2717 79.0731 497.698
1951 0 76.1693 15.5443 1184 62.2508 79.0574 498.336
1952 0 81.2196 14.3561 1166 62.7753 79.5094 493.58
1953 0 86.2429 12.8706 1110 66.445 79.5577 494.564
1954 0 86.1371 13.6178 1173 66.3964 79.5021 493.146
1955 0 91.1753 16.9893 1549 57.0936 80.2983 486.125
1956 0 92.162 13.6716 1260 67.4214 79.2508 493.313
1957 0 91.1625 14.5455 1326 66.5015 78.4819 490.169
1958 0 92.1199 13.3196 1227 71.5208 79.1581 491.716
1959 0 91.174 17.3185 1579 62.5155 79.2812 486.419
1960 0 82.1038 15.6753 1287 72.1678 79.1391 491.915
1961 0 85.1529 15.3489 1307 72.9671 79.6557 490.523
1962 0 83.1361 13.8568 1152 79.5955 78.6536 491.86
1963 0 81.1725 11.0752 899 87.9544 79.782 495.75
1964 0 83.2109 11.7172 975 86.6236 79.5385 496.565
1965 0 86.1005 12.0673 1039 85.8056 80.1482 493.342
1966 0 88.1577 11.1618 984 87.6443 80.0752 493.191
1967 0 92.1473 11.3731 1048 86.0964 79.9609 491.811
1968 0 95.1127 12.4168 1181 85.1016 80.3768 488.297
1969 0 97.1213 11.5114 1118 85.6887 79.3184 491.358
1970 0 103.135 13.332 1375 83.0836 79.464 486.442
1971 1 57.0535 11.3052 645 86.2651 79.031 509.064
1972 0 57.0215 10.4522 596 80.2399 79.2181 508.3
1973 0 59.0321 10.9771 648 76.9599 80.0432 501.657
1974 0 61.0168 11.4722 700 79.39 80.5371 499.664
1975 0 63.0259 11.2493 709 78.9817 81.8561 495.953
1976 0 64.1041 11.6529 747 78.9036 82.2798 491.127
1977 0 66.1046 11.6331 769 79.5839 82.0845 490.697
1978 0 68.0889 11.6172 791 79.4501 81.421 489.746
1979 0 70.1173 10.839 760 77.2658 81.3237 485.342
1980 0 71.1102 11.7001 832 76.2476 81.4423 484.631
1981 0 72.0675 11.3921 821 77.2229 80.9635 485.669
1982 0 75.0922 12.0652 906 73.3775 81.2914 488.009
1983 0 75.0672 11.3232 850 76.8965 81.2941 490.538
1984 0 78.067 11.6823 912 76.4221 81.7555 489.871
1985 0 79.0617 11.8262 935 75.6642 81.6417 493.96
1986 0 81.1081 11.5032 933 76.8382 81.3944 492.923
1987 0 83.1151 11.9232 991 79.113 81.5237 495.018
1988 0 85.1053 12.4904 1063 79.1543 80.9069 492.067
1989 0 88.0754 12.1033 1066 80.0788 81.2336 491.462
1990 0 90.1565 11.5466 1041 81.4015 81.2382 491.422
1991 0 92.1012 12.3234 1135 80.6194 81.1974 488.833
1992 0 93.0825 10.9043 1015 84.5862 80.5094 489.763
1993 0 95.1028 11.251 1070 84.2103 80.9841 488.179
1994 0 100.156 11.8016 1182 82.4636 80.5338 485.768
1995 1 53.0415 9.502 504 83.498 81.1647 509.714
1996 0 54.0836 9.55928 517 84.0561 81.1896 508.689
1997 0 57.0506 10.5871 604 82.8411 80.4189 508.359
1998 0 58.0359 10.1144 587 82.4872 81.063 507.641
1999 0 59.0418 10.8906 643 82.5163 80.5785 506.437
2000 0 60.0168 10.6304 638 79.7367 81.6536 504.638
2001 0 64.0518 11.7873 755 78.4821 81.2238 504.521
2002 0 65.0655 10.9582 713 80.4418 81.7013 503.258
2003 0 66.0663 10.8225 715 81.5259 81.4853 502.066
2004 0 67.0762 11.1664 749 82.215 81.0694 501.306
2005 0 69.0697 11.3074 781 81.977 81.4238 499.891
2006 0 71.0535 11.048 785 83.1898 80.935 498.763
2007 0 72.08 11.4595 826 82.7312 80.5048 497.971
2008 0 76.1155 11.2855 859 83.014 81.2142 497.09
2009 0 77.0687 11.8595 914 83.1061 80.791 495.553
2010 0 79.044 11.5505 913 84.5772 81.3921 494.432
2011 0 81.0783 11.7294 951 85.3239 80.7624 493.722
2012 0 83.0588 11.835 983 85.942 80.8067 492.27
2013 0 87.1009 11.7794 1026 86.4327 80.8353 490.625
2014 0 88.0726 11.8993 1048 87.3158 80.4246 489.678
2015 0 90.0601 11.5367 1039 88.9557 80.0125 487.998
2016 0 92.0722 11.6322 1071 89.3931 80.5985 485.83
2017 0 94.0792 11.5541 1087 90.4526 80.5759 486.044
2018 0 97.144 13.3616 1298 86.6772 80.5285 482.277
2019 0 103.098 14.1128 1455 83.934 80.2186 480.195
2020 0 101.08 11.5255 1165 93.7803 80.7236 480.898
2021 0 103.087 12.6689 1306 91.8982 79.9893 478.117
2022 0 107.074 11.805 1264 94.8513 80.7009 478.168
2023 0 109.126 11.2622 1229 96.8234 80.0496 478.62
2024 0 112.075 11.2514 1261 97.1975 80.59 477.205
2025 0 115.169 10.6366 1225 99.809 80.4155 473.639
2026 0 118.126 10.802 1276 99.3205 80.3582 474.216
2027 1 62.0571 10.3453 642 94.8925 81.0514 500.967
2028 0 65.0531 10.6375 692 94.5853 80.3714 498.506
2029 0 68.053 11.0649 753 90.9681 81.0332 499.064
2030 0 70.1339 11.4495 803 88.7472 80.5405 498.105
2031 0 71.115 11.7837 838 86.5979 80.6778 498.593
2032 0 70.0502 10.7209 751 89.1718 81.1731 499.314
2033 0 74.0621 10.9773 813 89.1132 81.3678 499.231
2034 0 85.0766 14.9042 1268 75.705 81.0891 490.924
2035 0 89.1875 15.4057 1374 73.6805 81.5946 488.351
2036 0 93.0779 13.8916 1293 77.6373 80.6605 488.749
2037 0 103.145 13.3308 1375 75.6611 80.544 485.35
2038 0 95.0819 15.8916 1511 74.45 81.047 483.962
2039 0 95.1272 14.4438 1374 80.3151 81.1026 485.432
2040 0 95.0853 14.3766 1367 81.9912 81.0578 484.786
2041 0 96.0587 13.5022 1297 85.946 81.1974 484.409
2042 0 94.0361 12.6547 1190 90.8143 81.2454 485.146
2043 0 95.0854 11.7158 1114 93.7621 81.3995 485.416
2044 0 99.153 12.0823 1198 93.0467 81.3047 484.129
2045 0 103.156 12.8931 1330 91.7398 81.7368 480.771
2046 1 113.126 15.7877 1786 79.9905 81.0179 472.701
2047 0 120.19 16.9648 2039 75.7371 80.3207 470.447
2048 0 119.27 15.5697 1857 81.2359 80.2859 469.888
2049 0 119.111 14.7426 1756 85.3554 80.4983 473.14
2050 0 119.073 14.0838 1677 89.0113 79.9195 472.845
2051 0 123.124 13.2549 1632 91.8658 80.2298 472.471
2052 0 123.177 12.7703 1573 94.1011 79.9091 470.236
2053 0 128.141 12.5799 1612 94.0136 80.3263 468.54
2054 0 134.173 15.167 2035 86.573 80.4226 463.478
2055 0 141.231 16.1084 2275 82.6945 80.942 460.669
2056 0 140.173 13.5689 1902 92.1346 80.9727 463.207
2057 0 144.117 13.1213 1891 93.2538 80.9201 462.332
2058 0 148.129 13.2722 1966 94.0148 80.0783 458.352
2059 0 153.13 13.002 1991 94.6645 79.8579 456.975
2060 0 159.137 14.4216 2295 91.4353 80.0471 451.522
2061 0 165.174 13.5857 2244 92.7977 80.41 452.664
2062 0 170.183 13.8909 2364 92.4475 80.3752 450.047
2063 0 175.133 13.7096 2401 93.5244 80.5127 446.196
2064 0 183.22 15.3422 2811 88.629 80.3621 438.476
2065 0 186.229 13.5962 2532 94.4277 80.4167 439.899
2066 0 192.141 13.8648 2664 93.9452 80.9463 438.132
2067 0 197.197 13.8238 2726 94.7946 80.5499 433.917
2068 1 151.133 11.7181 1771 97.0463 80.8029 462.103
2069 0 158.146 12.5137 1979 95.3027 80.5998 458.73
2070 0 163.107 13.2367 2159 93.578 80.6711 456.888
2071 0 168.201 13.3233 2241 97.9041 80.5788 450.372
2072 0 172.14 12.8849 2218 99.711 80.156 445.459
2073 0 180.222 13.1727 2374 99.1251 80.3231 445.635
2074 0 185.146 13.4273 2486 99.008 79.1508 444.253
2075 0 190.152 13.4155 2551 99.4571 79.5182 441.503
2076 0 197.164 13.116 2586 100.212 79.4737 438.684
2077 0 204.153 13.9699 2852 98.0273 79.3913 434.357
2078 0 210.158 13.4898 2835 99.8624 79.2201 428.05
2079 0 216.127 12.9554 2800 101.75 79.8168 423.434
2080 0 224.224 13.2948 2981 100.716 79.2516 418.702
2081 1 51.1341 9.19151 470 89.6447 79.1064 503.866
2082 0 51.0208 9.27073 473 91.7865 78.2918 503.3
2083 0 55.0364 11.7559 647 95.1206 78.6677 505.535
2084 0 56.0225 11.3883 638 94.9342 79.7665 505.947
2085 0 59.058 11.4464 676 90.9719 80.5651 504.658
2086 0 58.0468 10.2504 595 90.5244 80.9748 506.111
2087 0 57.0588 10.1299 578 92.7474 80.3166 504.652
2088 0 58.0307 10.4255 605 92.3124 80.2116 504.869
2089 0 62.0358 10.4617 649 91.1757 81.1371 504.043
2090 0 63.0263 10.091 636 92.4182 80.4984 503.272
2091 0 65.0161 9.75143 634 91.8691 80.1703 504.047
2092 0 68.0294 10.2309 696 92.3721 79.6207 499.695
2093 0 69.0486 9.77573 675 91.9896 80.7704 500.022
2094 0 72.137 10.993 793 89.8209 81.6923 497.667
2095 0 73.063 10.3472 756 91.4193 81.4894 497.468
2096 0 75.0905 10.534 791 91.5651 81.2882 495.779
2097 0 77.0628 10.8353 835 90.0575 80.7317 494.913
2098 0 81.1248 11.2296 911 88.5576 80.6828 492.89
2099 0 84.1424 11.0765 932 88.927 80.8219 488.7
2100 1 249.33 6.8303 1703 107.805 80.6465 423.027
2101 0 249.419 7.64977 1908 104.851 80.8475 418.84
2102 0 249.315 6.67027 1663 104.995 80.4793 425.633
2103 0 250.407 14.153 3544 84.8163 81.4046 385.827
2104 0 248.396 16.0349 3983 81.2197 80.9849 386.205
2105 0 246.38 15.2691 3762 85.7055 80.6555 390.233
2106 1 113.112 14.1983 1606 75.9913 80.6476 470.477
2107 1 48.1155 11.2022 539 78.6011 79.5492 506.983
2108 0 48.035 10.4923 504 82.0933 80.119 506.133
2109 0 50.1063 10.8769 545 81.9064 79.8349 505.494
2110 0 50.111 9.33927 468 74.1239 81.4679 499.75
2111 0 50.0406 8.87279 444 75.1396 81.6486 496.833
2112 0 54.0991 10.2959 557 72.0844 81.8348 498.07
2113 0 55.0882 10.0929 556 73.0647 81.9442 496.014
2114 0 57.0563 10.2706 586 73.4812 81.401 496.498
2115 0 57.0288 10.4684 597 74.1424 81.1876 494.839
2116 0 59.0922 10.4413 617 74.4198 81.175 494.19
2117 0 59.0408 10.3657 612 75.9199 81.0866 493.582
2118 0 63.048 10.4206 657 75.5647 81.6043 491.98
2119 0 64.1143 10.9804 704 75.1065 81.2116 490.652
2120 0 67.0752 11.0622 742 75.1092 81.3625 488.765
2121 0 68.0652 10.8278 737 76.118 81.5685 487.67
2122 0 70.0438 11.0074 771 76.8936 81.4617 487.281
2123 0 72.0299 11.2176 808 78.1572 81.6312 484.552
2124 0 73.0804 10.9058 797 81.0151 81.5496 480.056
2125 0 74.161 10.8952 808 81.4678 80.724 480.942
2126 0 77.1365 11.162 861 82.7515 80.6643 482.697
2127 0 79.1448 11.6874 925 82.9589 82.0173 478.577
2128 0 81.0553 11.9795 971 82.6313 82.0824 479.866
2129 0 82.0843 11.1593 916 87.3155 81.4007 478.64
2130 0 84.0804 11.5842 974 84.9384 82.1335 475.068
2131 0 88.0887 11.3295 998 84.9038 82.001 475.02
2132 0 89.0755 11.7092 1043 85.6913 81.5398 473.195
2133 0 90.0818 11.9003 1072 86.514 81.3759 473.312
2134 0 96.0908 12.1135 1164 85.2878 81.7088 475.222
2135 0 98.1028 11.5287 1131 88.4279 82.0044 473.279
2136 0 101.065 12.398 1253 87.913 81.7638 467.871
2137 0 107.132 13.0027 1393 85.5269 81.8177 468.802
2138 0 108.126 12.5131 1353 88.5942 81.4804 465.785
2139 0 112.112 12.7729 1432 90.0433 81.7856 461.155
2140 1 55.2305 9.81342 542 87.0793 81.5111 491.915
2141 0 55.0674 10.0422 553 88.953 81.1664 490.94
2142 0 56.0474 9.15297 513 84.3353 80.5673 483.195
2143 0 57.0835 9.09194 519 84.5973 81.2601 482.303
2144 0 56.0363 8.95848 502 86.755 81.2151 483.9
2145 0 60.0393 9.22729 554 86.7509 81.2094 465.841
2146 0 63.0533 9.8171 619 83.4733 80.9176 462.688
2147 0 63.0258 9.88484 623 86.5329 81.297 463.831
2148 0 64.025 10.1054 647 87.4776 82.0417 466.756
2149 0 66.0504 10.2649 678 87.826 81.5546 466.031
2150 0 66.0218 10.4965 693 88.4589 81.4805 463.025
2151 0 71.0953 10.6055 754 88.122 81.3382 455.788
2152 0 74.0352 11.2379 832 87.2175 82.4447 459.995
2153 0 75.0275 10.5828 794 90.0202 81.728 465.102
2154 0 74.0341 11.3326 839 91.1549 82.025 473.136
2155 0 74.1504 11.1665 828 91.6123 80.9481 480.432
2156 0 77.0609 11.3417 874 93.4817 81.8066 482.822
2157 0 81.0729 11.1258 902 93.3936 82.0388 479.915
2158 0 88.0822 12.8516 1132 86.765 81.6837 478.24
2159 0 86.0966 11.0109 948 93.5749 82.2911 477.589
2160 0 89.1477 11.408 1017 92.1514 82.825 476.554
2161 0 91.0508 11.6089 1057 92.93 82.2384 466.252
2162 0 97.1251 11.5006 1117 92.3465 81.9866 466.062
2163 0 101.091 11.91 1204 90.6204 82.6578 465.369
2164 0 107.077 12.3649 1324 89.4033 82.3724 455.608
2165 0 111.083 11.658 1295 90.8541 82.922 457.812
2166 0 113.034 11.8018 1334 91.1432 82.5562 458.876
2167 0 116.088 12.1891 1415 92.2325 82.4177 458.922
2168 0 121.169 12.2557 1485 95.2889 82.3933 462.439
2169 1 62.0889 11.1131 690 99.9159 81.3551 499.096
2170 0 62.0294 11.5268 715 99.5385 83.1497 497.759
2171 0 66.0363 12.7809 844 97.6754 81.2085 497.515
2172 0 67.0556 11.9602 802 100.731 81.2968 496.484
2173 0 69.0235 12.3871 855 100.712 81.5053 495.781
2174 0 72.0347 12.7855 921 99.405 81.8078 495.439
2175 0 73.0337 12.3778 904 101.237 81.9071 494.7
2176 0 77.0338 14.7727 1138 93.9007 81.7487 491.555
2177 0 78.03 12.8284 1001 100.264 82.968 491.616
2178 0 80.0747 13.0004 1041 100.277 83.2805 489.673
2179 0 82.048 12.8827 1057 100.105 82.5781 491.136
2180 0 85.0494 12.9572 1102 100.541 82.8784 489.212
2181 0 88.0385 13.4827 1187 99.1618 82.3294 487.171
2182 0 88.066 12.9789 1143 101.891 82.7804 486.315
2183 0 91.131 13.3215 1214 100.676 82.6433 485.745
2184 0 95.0838 13.1358 1249 100.078 83.02 485.025
2185 0 95.1325 13.0555 1242 101.038 82.029 482.502
2186 0 98.0982 12.8952 1265 100.637 81.766 482.219
2187 0 101.098 13.383 1353 99.0732 82.0229 479.229
2188 0 104.169 13.6894 1426 96.5498 82.0063 478.349
2189 0 107.119 13.9845 1498 95.528 81.4967 478.531
2190 0 111.163 13.0169 1447 98.0767 82.0263 476.053
2191 0 114.268 14.0285 1603 95.6881 82.2458 473.825
2192 0 118.176 13.0314 1540 94.7448 81.9409 472.196
2193 0 123.167 13.3152 1640 96.911 82.2299 469.043
2194 1 70.2457 12.8122 900 94.2322 81.9533 496.006
2195 0 71.246 12.506 891 95.5309 82.1358 496.414
2196 0 73.1685 13.1067 959 99.1011 82.6601 493.666
2197 0 74.1487 12.8391 952 101.724 82.4212 492.225
2198 0 76.218 13.6582 1041 100.25 82.1047 491.523
2199 0 82.2078 14.585 1199 94.4087 82.241 485.724
2200 0 81.0761 14.1719 1149 97.1775 81.4743 485.458
2201 0 82.1732 12.6927 1043 103.246 81.5628 486.135
2202 0 86.1121 13.227 1139 102.266 81.9816 486.316
2203 0 87.2221 12.1987 1064 101.534 81.2359 489.894
2204 0 89.1274 12.0951 1078 102.442 81.2171 489.054
2205 0 92.1466 12.4801 1150 101.843 81.9357 485.463
2206 0 97.1004 12.9248 1255 100.119 81.6669 485.833
2207 0 99.0829 12.4239 1231 101.498 81.7262 484.582
2208 0 101.087 12.5734 1271 101.058 82.3124 484.253
2209 0 105.077 12.134 1275 102.653 81.9498 480.896
2210 0 108.108 12.7187 1375 101.141 81.8611 478.092
2211 1 57.1811 11.1925 640 95.9094 82.3844 498.622
2212 0 60.1838 11.4815 691 95.0738 81.0622 497.744
2213 0 61.1345 11.5156 704 95.7145 81.6009 494.612
2214 0 61.1165 11.5517 706 97.6926 81.8371 497.028
2215 0 65.1883 11.7966 769 97.6632 81.6047 497.488
2216 0 67.1352 11.9758 804 98.3333 81.1343 501.626
2217 0 70.0934 12.4976 876 96.8185 81.274 498.597
2218 0 70.1214 12.0077 842 98.9703 81.247 497.334
2219 0 72.2125 11.6877 844 99.3934 81.2002 496.533
2220 0 75.2256 11.8975 895 98.7285 81.7777 495.35
2221 0 79.1821 12.2629 971 97.4501 81.3296 493.868
2222 0 81.1801 12.3676 1004 98.0329 82.005 493.217
2223 0 84.1719 12.8784 1084 96.7657 82.2122 490.075
2224 0 87.2003 12.6146 1100 96.9009 82.3982 488.902
2225 0 90.2416 12.7768 1153 96.3504 81.6722 487.539
2226 0 92.2369 12.6197 1164 96.4545 81.2938 484.551
2227 0 94.3677 12.7162 1200 96.3292 81.0542 482.176
2228 0 98.1933 12.6994 1247 95.2189 81.1973 481.63
2229 0 102.211 13.5112 1381 92.9631 81.0862 479.312
2230 0 106.258 13.4767 1432 92.0552 81.4099 477.364
2231 0 109.302 13.6045 1487 90.3087 81.2771 474.456
2232 1 59.2353 9.60576 569 94.71 81.4411 498.757
2233 0 63.1952 10.9502 692 92.1936 80.8656 497.366
2234 0 62.2031 10.8194 673 96.7355 80.7652 496.629
2235 0 65.0366 11.3013 735 95.8163 81.9061 496.02
2236 0 67.1331 11.4251 767 95.0287 80.6636 493.699
2237 0 69.0725 11.307 781 96.8963 80.9565 493.848
2238 0 73.1231 11.761 860 95.7465 80.8593 493.883
2239 0 77.0925 12.1023 933 95.179 80.9646 492.011
2240 0 78.0952 11.8061 922 98.4479 80.2777 490.888
2241 0 81.1479 12.2616 995 97.805 80.8955 490.253
2242 0 80.1434 11.8038 946 147.502 81.8964 489.125
2243 0 87.1095 12.9607 1129 98.4624 81.1417 486.384
2244 0 88.1185 12.4264 1095 101.334 80.7671 485.647
2245 0 92.1294 12.8841 1187 100.545 80.0067 483.516
2246 0 93.077 12.8496 1196 102.477 80.4916 481.653
2247 0 95.0554 11.0357 1049 99.5176 80.2612 484.126
2248 0 97.0677 11.3941 1106 100.215 81.1094 482.533
2249 0 99.0765 11.3246 1122 101.846 80.5392 480.33
2250 0 103.058 11.1782 1152 101.554 81.5087 481.089
2251 0 105.107 11.436 1202 103.093 80.99 480.459
2252 0 108.065 12.3166 1331 103.261 80.9857 477.112
2253 0 110.105 11.9069 1311 105.112 81.0366 472.823
2254 0 116.118 12.2979 1428 101.999 81.1583 474.324
2255 0 120.109 11.9808 1439 101.621 81.335 473.005
2256 1 64.041 9.57199 613 96.6884 81.6166 500.294
2257 0 65.023 9.55047 621 97.6409 81.8309 498.52
2258 0 66.0468 10.0383 663 95.9789 81.736 496.137
2259 0 69.078 10.3217 713 95.5231 81.0743 495.449
2260 0 72.0105 11.0401 795 92.5195 81.7358 495.813
2261 0 73.0138 11.0938 810 92.3296 81.1432 494.096
2262 0 76.0378 11.1655 849 91.7314 81.1472 492.756
2263 0 77.0288 10.8141 833 92.9964 81.5786 491.4
2264 0 82.0923 11.0729 909 92.2519 81.5633 488.919
2265 0 82.1004 11.0353 906 92.7649 81.3753 483.079
2266 0 84.0396 10.8163 909 94.5127 81.4576 476.101
2267 0 87.0454 9.16763 798 87.4361 81.2744 489.658
2268 0 90.0823 9.39141 846 87.3652 81.5 486.579
2269 0 93.076 9.91663 923 83.974 81.4507 484.7
2270 1 49.0685 9.33388 458 79.762 82.0415 505.024
2271 0 53.0746 9.6468 512 82.5625 80.9355 507.92
2272 0 55.0538 11.4615 631 83.5119 80.5753 508.475
2273 0 56.0842 11.7145 657 84.3288 80.6043 503.314
2274 0 58.0892 11.3446 659 84.0288 80.9332 507.305
2275 0 60.0402 11.892 714 82.7605 80.8011 506.3
2276 0 61.0597 12.0865 738 83.2182 80.71 505.854
2277 0 62.1165 11.6233 722 85.3463 80.7922 505.871
2278 0 65.0471 11.9913 780 83.6654 80.7449 504.277
2279 0 66.052 11.1427 736 86.1033 81.3111 502.683
2280 0 69.0607 11.9315 824 85.1019 81.5303 501.539
2281 0 73.0659 13.3304 974 81.3655 80.9836 501.797
2282 0 77.0367 14.6813 1131 77.023 81.5632 499.206
2283 0 81.1327 14.6057 1185 76.2354 81.6236 495.618
2284 0 80.0514 14.3408 1148 79.8153 81.4695 496.114
2285 0 81.0735 12.4332 1008 86.0486 81.6796 498.603
2286 0 83.0652 12.9778 1078 85.5501 80.9221 494.539
2287 0 86.0783 12.3492 1063 87.4346 80.9398 494.301
2288 0 87.1189 13.1085 1142 87.296 80.7863 492.409
2289 0 90.094 12.9753 1169 88.9068 80.4166 492.099
2290 0 94.1013 12.9647 1220 89.8115 80.5893 491.468
2291 0 97.1536 12.681 1232 91.4959 80.418 488.494
2292 1 50.0509 11.748 588 96.0731 79.6037 513.168
2293 0 51.0185 11.1332 568 99.4032 79.3028 510.56
2294 0 54.0954 12.7737 691 95.8784 80.0651 507.504
2295 0 56.0775 12.9642 727 93.1431 80.5007 506.51
2296 0 56.0349 12.8848 722 96.8199 80.3629 508.683
2297 0 58.0834 12.3615 718 91.1713 81.6003 509.476
2298 0 60.0531 12.8386 771 89.546 80.9987 509.071
2299 0 58.0436 11.6464 676 87.676 81.3121 504.59
2300 0 62.0369 12.1541 754 85.5836 80.7838 504.613
2301 0 64.1032 12.6827 813 84.3715 81.0258 502.6
2302 0 65.0901 12.2907 800 86.1325 80.7425 501.491
2303 0 70.1597 13.3267 935 81.9144 81.3561 499.645
2304 0 73.1691 13.7216 1004 80.3984 81.6653 497.585
2305 0 72.1173 14.1991 1024 81.1357 81.0049 497.229
2306 0 73.1852 12.4889 914 87.3304 80.5908 496.371
2307 0 74.1002 12.7935 948 87.7922 80.5897 495.967
2308 0 76.2726 12.1538 927 89.9493 81.4078 495.369
2309 0 83.072 14.6138 1214 83.355 81.6474 492.827
2310 0 84.2206 13.524 1139 88.2046 81.6594 492.317
2311 0 83.1005 13.1648 1094 90.9927 81.0439 491.925
2312 0 87.1734 12.7332 1110 90.8811 80.8541 491.684
2313 0 90.1148 12.7504 1149 97.7058 80.2298 489.956
2314 0 92.0885 12.2817 1131 98.7188 79.5473 488.524
2315 0 94.0921 13.1573 1238 97.6809 80.6801 485.322
2316 0 97.1658 12.0927 1175 99.5447 80.3447 486.485
2317 1 52.1269 11.7022 610 94.9852 80.5574 512.103
2318 0 51.0374 11.423 583 92.5317 80.8336 510.24
2319 0 54.0152 11.4782 620 92.8403 80.9323 509.915
2320 0 57.0373 12.4655 711 89.7918 80.5331 507.547
2321 0 57.0732 12.703 725 90.9807 80.5352 507.003
2322 0 59.0318 13.0438 770 89.8403 80.6234 505.77
2323 0 61.0572 12.6439 772 91.5117 80.3899 504.21
2324 0 65.067 12.9405 842 90.9834 80.962 502.78
2325 0 66.0442 13.4153 886 90.3713 80.2754 502.157
2326 0 67.044 13.4837 904 92.8783 81.1405 501.017
2327 0 71.0274 14.8253 1053 87.2004 81.4444 496.358
2328 0 77.0959 15.2537 1176 86.0221 81.1318 494.774
2329 0 83.0793 15.8644 1318 84.4423 81.1882 491.488
2330 0 86.1086 16.3282 1406 84.7489 81.0135 489.302
2331 0 84.0649 15.8925 1336 88.9244 81.8802 489.882
2332 0 81.0404 15.5478 1260 94.8706 81.6278 490.093
2333 0 88.0522 16.0246 1411 91.7633 81.5415 486.598
2334 0 91.0835 17.4894 1593 87.4149 81.447 485.329
2335 0 93.0727 16.6214 1547 91.3704 82.0976 484.787
2336 0 94.0817 15.9436 1500 96.0707 82.6027 485.173
2337 0 94.1276 16.382 1542 97.4462 82.6881 486.002
2338 0 94.1726 15.4822 1458 104.921 82.7874 485.608
2339 0 95.0785 14.3776 1367 111.257 82.6291 487.074
2340 0 95.1079 14.247 1355 114.758 83.5151 487.889
2341 0 99.1045 13.9751 1385 116.087 83.27 486.721
2342 0 103.084 14.0661 1450 115.991 83.0303 484.719
2343 0 107.042 14.6858 1572 113.183 82.3047 481.043
2344 0 111.137 13.7577 1529 116.386 81.9084 481.564
2345 0 115.165 14.2144 1637 115.425 82.4001 480.48
2346 0 120.097 13.9304 1673 115.943 82.5206 477.941
2347 0 124.155 13.8859 1724 116.245 81.8318 474.586
2348 1 64.0573 11.7707 754 116.236 81.4854 504.756
2349 0 69.0498 12.0637 833 115.794 81.4934 503.451
2350 0 70.1003 12.7674 895 115.856 80.7508 503.007
2351 0 71.0549 13.3559 949 116.774 81.1749 501.791
2352 0 74.1551 13.1886 978 116.165 80.8569 501.667
2353 0 76.0685 13.3695 1017 118.799 81.0452 500.478
2354 0 79.0891 14.1739 1121 116.649 80.0045 500.679
2355 0 79.1474 14.4035 1140 119.345 81.2728 501.207
2356 0 78.0648 15.2438 1190 119.352 81.0143 501.241
2357 0 82.107 14.4202 1184 121.427 80.8497 500.578
2358 0 84.0823 13.8793 1167 126.591 80.6247 498.457
2359 0 84.1619 14.6385 1232 127.43 80.2427 498.197
2360 0 86.0948 14.3795 1238 128.641 80.1099 499.078
2361 0 85.1088 15.1101 1286 129.58 80.1337 499.357
2362 0 85.1123 15.4972 1319 129.222 79.423 499.69
2363 0 86.0761 15.7651 1357 129.516 79.1872 498.976
2364 0 86.095 15.1461 1304 133.663 79.2331 499.822
2365 0 84.0697 15.6418 1315 136.449 79.4251 499.43
2366 0 85.1861 15.4016 1312 139.408 78.6936 500.043
2367 0 87.0652 16.5278 1439 130.986 78.3148 496.398
2368 0 89.1212 18.0765 1611 122.896 78.4649 495.261
2369 0 91.0831 18.9278 1724 117.921 79.9791 494.813
2370 0 92.0873 18.7214 1724 116.643 79.04 491.267
2371 0 91.078 18.5665 1691 121.15 78.9355 493.147
2372 0 91.0862 16.7204 1523 126.966 79.5509 493.575
2373 0 91.1204 15.2326 1388 134.071 78.9921 493.545
2374 0 88.127 15.0919 1330 136.058 78.6256 495.022
2375 0 91.1406 14.5051 1322 135.534 78.3215 494.482
2376 0 88.0948 15.7785 1390 133.454 78.9065 494.245
2377 0 90.0758 15.3315 1381 132.314 78.5344 493.538
2378 0 88.1633 14.8361 1308 134.917 79.3532 493.72
2379 0 86.1136 15.0267 1294 135.968 79.4158 493.923
2380 0 87.0538 14.738 1283 134.313 79.3601 495.43
2381 0 89.0827 17.6914 1576 119.883 79.6897 492.947
2382 0 89.1378 16.7942 1497 121.668 79.6266 492.418
2383 0 90.0899 16.4613 1483 120.986 79.2792 492.171
2384 0 89.0891 15.5799 1388 125.762 79.6441 494.122
2385 0 87.0549 15.2318 1326 128.271 79.3122 493.038
2386 0 86.0743 15.719 1353 125.254 79.5602 493.177
2387 0 95.1098 18.4313 1753 105.645 79.2978 486.434
2388 0 97.1644 18.3092 1779 102.557 79.2996 487.192
2389 0 96.2157 18.6768 1797 100.827 79.5159 485.697
2390 0 95.1769 16.9999 1618 105.012 79.56 487.213
2391 0 93.1127 17.0546 1588 105.21 80.2531 486.875
2392 0 95.097 15.542 1478 108.212 79.5609 488.804
2393 0 92.0993 16.1999 1492 107.837 79.9021 487.984
2394 0 92.1247 15.8589 1461 108.243 79.7146 489.097
2395 0 91.1228 13.7507 1253 114.951 80.1022 491.263
2396 0 91.1471 13.8896 1266 113.603 80.3191 489.225
2397 0 90.1527 13.7766 1242 112.561 80.5 489.717
2398 0 91.0954 13.2828 1210 112.076 80.1612 488.841
2399 0 92.1866 13.6462 1258 108.276 80.7544 487.486
2400 0 93.1176 14.8522 1383 102.983 81.013 486.575
2401 0 90.2275 14.1864 1280 106.579 80.657 486.917
2402 0 89.145 15.7608 1405 100.738 80.8278 487.175
2403 0 91.1698 14.1165 1287 104.65 80.7249 489.792
2404 0 92.1568 12.9019 1189 104.61 81.6266 490.134
2405 0 90.105 13.0625 1177 104.549 81.7723 489.147
2406 0 91.1833 12.6449 1153 103.202 81.7944 487.48
2407 0 92.2248 12.3177 1136 102.489 81.4516 490.019
2408 0 91.1178 12.6101 1149 100.878 81.4186 491.165
2409 0 91.2119 12.016 1096 100.54 81.8942 490.453
2410 0 90.0939 12.2761 1106 99.8255 81.9403 491.207
2411 0 93.1533 11.7548 1095 98.8137 81.8566 490.478
