time division length width area intensity CMx CMy
0 0 42.0471 14.9356 628 112.131 1268.04 497.452
1 0 42.0652 15.9039 669 108.232 1269.53 499.797
2 0 43.0435 15.0081 646 111.591 1269.48 500.415
3 0 44.0576 16.2742 717 108.378 1270.65 498.971
4 0 46.0637 15.4134 710 108.644 1270.66 501.093
5 0 45.0541 14.3605 647 112.176 1269.65 501.136
6 0 48.089 13.8909 668 110.424 1268.96 501.717
7 0 49.056 16.0633 788 105.874 1268.77 500.992
8 0 49.1008 16.0486 788 104.815 1268.15 502.82
9 0 51.0928 15.6969 802 106.459 1266.83 503.348
10 0 52.0924 15.0502 784 108.559 1265.08 503.319
11 0 56.1353 17.2084 966 100.647 1264.16 504.744
12 0 56.0674 16.4623 923 106.729 1261.28 505.475
13 0 55.0512 15.4583 851 111.632 1260.37 504.133
14 0 57.1666 15.7609 901 107.757 1257.58 505.741
15 0 58.0678 16.2569 944 108.188 1256.44 503.794
16 0 60.1594 15.9742 961 110.151 1253.3 502.882
17 0 61.2093 17.285 1058 107.7 1250.66 500.612
18 0 63.0942 16.721 1055 106.454 1249.18 501.077
19 0 65.1293 15.7379 1025 108.064 1248.29 499.802
20 0 68.1031 17.4882 1191 103.092 1244.3 497.432
21 0 71.2047 16.2489 1157 103.547 1244.19 495.837
22 0 74.0798 17.9401 1329 100.822 1244.74 492.535
23 0 75.321 16.3168 1229 104.08 1245 491.57
24 1 37.0416 11.7706 436 109.385 1245.99 508.791
25 0 40.1153 12.8131 514 108.848 1247.44 506.216
26 0 41.0997 14.7933 608 103.86 1249.06 505.309
27 0 41.1659 13.7978 568 105.437 1250.62 505.928
28 0 44.1129 13.1481 580 108.216 1252.48 503.371
29 0 46.0917 14.1674 653 106.453 1254.21 503.348
30 0 48.3378 15.1641 733 100.978 1257.23 498.366
31 0 50.0565 15.1629 759 102.348 1260.74 504.845
32 0 52.0475 15.5243 808 101.454 1261.14 505.998
33 0 54.0758 15.4043 833 101.519 1261.9 506.532
34 0 52.0508 14.3514 747 105.66 1262.94 505.597
35 0 57.0344 15.6046 890 102.276 1262.9 507.293
36 0 57.0764 15.4705 883 103.207 1261.97 507.796
37 0 58.1239 15.2949 889 104.52 1261.4 506.787
38 0 62.1142 15.1173 939 103.594 1260.2 507.038
39 0 63.1012 14.8492 937 107.185 1258.61 504.737
40 0 65.0936 15.7005 1022 105.971 1257.08 504.06
41 0 68.0575 17.1767 1169 103.49 1254.61 504.518
42 0 70.1438 17.4784 1226 102.369 1252.93 504.185
43 0 72.0427 15.7545 1135 105.461 1251.96 503.851
44 0 74.2665 15.4309 1146 105.739 1250.18 502.542
45 0 79.1112 15.4972 1226 105.054 1247.91 502.002
46 0 80.3233 15.5372 1248 103.475 1245.36 500.899
47 0 84.1965 15.6182 1315 102.913 1244.61 496.995
48 0 86.2896 16.2708 1404 102.643 1242.03 493.312
49 0 89.3097 15.004 1340 103.801 1240.36 495.16
50 0 93.4702 15.3418 1434 103.243 1239.35 493.681
51 1 52.2394 11.9641 625 100.037 1238.74 511.394
52 0 51.3435 10.3616 532 104.004 1237.47 509.536
53 0 54.3539 12.8418 698 100.848 1236.97 505.423
54 0 56.3793 12.948 730 100.405 1235.76 502.416
55 0 58.2835 12.9368 754 100.198 1235.32 501.744
56 0 61.1169 15.6585 957 95.371 1235.46 501.862
57 0 63.2211 13.9352 881 99.3394 1236.62 499.264
58 0 65.0671 13.9856 910 98.4121 1238.28 496.863
59 0 67.1084 14.8118 994 98.0936 1240.41 493.018
60 0 70.157 13.9829 981 102.051 1241.99 491.323
61 0 74.1169 14.7875 1096 99.0182 1244.76 491.891
62 0 75.0498 14.4038 1081 99.7641 1247.3 490.635
63 0 80.1644 15.2811 1225 99.1478 1249.12 491.388
64 0 81.2494 14.4247 1172 101.956 1251.75 489.575
65 0 84.1985 14.1451 1191 103.142 1253.64 489.437
66 0 88.2901 14.8035 1307 102.259 1253.63 487.556
67 0 90.2031 15.2323 1374 103.523 1254.14 487.26
68 0 95.4779 14.4327 1378 105.089 1255.23 484.114
69 0 99.4845 15.1682 1509 104.516 1255.4 483.423
70 0 102.529 17.0293 1746 101.651 1253.75 481.31
71 1 44.1536 11.9356 527 101.674 1251.72 511.588
72 0 48.2834 12.3438 596 103.042 1250.09 509.351
73 0 48.3745 11.1422 539 103.056 1248.1 511.75
74 0 51.4061 11.0104 566 102.419 1247.11 511.014
75 0 53.4383 13.0805 699 97.01 1245.11 511.482
76 0 55.1122 12.7195 701 102.264 1244.69 513.854
77 0 57.1191 13.9708 798 100.103 1244.01 513.257
78 0 60.0914 14.0952 847 98.9055 1241.28 511.753
79 0 63.0883 14.4242 910 97.9857 1239.13 510.766
80 0 64.198 13.4739 865 100.564 1236.93 510.08
81 0 64.1191 13.5841 871 100.955 1236.19 507.878
82 0 70.1584 14.4388 1013 96.8667 1234.55 506.439
83 0 72.0996 13.4259 968 98.2045 1233.51 507.07
84 1 41.0448 10.8418 445 93.4382 1233.1 521.809
85 0 42.0237 12.017 505 90.9089 1232.38 517.234
86 0 43.0686 12.0505 519 91.8131 1231.45 518.17
87 0 44.0789 12.0012 529 91.9282 1232.08 515.726
88 0 46.1827 12.8187 592 88.9966 1231.41 512.767
89 0 48.0387 13.6348 655 88.2458 1231.57 511.998
90 0 47.0459 12.0308 566 94.03 1229.07 513.127
91 0 49.106 12.6257 620 93.0516 1230.26 511.505
92 0 51.1668 13.583 695 91.2561 1231.77 511.391
93 0 51.027 12.6404 645 95.2434 1232.86 508.057
94 0 53.0604 13.0041 690 95.1362 1235 510.226
95 0 53.0493 11.7438 623 98 1237.42 508.97
96 0 57.134 13.4946 771 93.7886 1240.54 508.176
97 0 57.1891 12.6423 723 95.4509 1243 507.454
98 0 59.1428 12.9517 766 94.8159 1245.43 506.034
99 0 60.0698 12.3689 743 95.175 1247.32 507.697
100 0 63.1195 12.5951 795 94.9925 1248.42 507.655
101 0 66.0878 13.8755 917 92.4733 1248.98 507.49
102 0 66.1259 13.5045 893 93.1165 1249.53 509.466
103 0 67.1937 12.65 850 96.8753 1248.69 508.842
104 0 71.1083 13.5287 962 95.1112 1247.57 507.771
105 0 73.2597 13.6637 1001 93.7662 1246.89 505.049
106 0 77.1018 13.9296 1074 93.2728 1244.35 506.788
107 1 40.1356 9.76689 392 97.3163 1242.78 522.449
108 0 41.0316 10.2116 419 98.7184 1241.05 519.088
109 0 42.1351 10.2053 430 99.9698 1240.67 523.237
110 0 46.1585 11.6772 539 96.7941 1240.01 522.076
111 0 46.1115 11.8192 545 96.444 1238.56 520.499
112 0 46.1015 11.6048 535 88.2841 1235.69 519.129
113 0 49.042 11.8266 580 91.4069 1234.51 520.383
114 0 52.0797 13.4986 703 87.6771 1232.73 518.606
115 0 53.0411 13.5932 721 88.0791 1231.44 518.451
116 0 53.1262 11.4633 609 91.5599 1229.47 516.501
117 0 55.0947 13.5948 749 90.3525 1227.68 514.324
118 0 55.1164 12.1379 669 94.5082 1227.67 514.141
119 0 60.2067 14.8987 897 87.8963 1226.94 511.493
120 0 62.1045 14.7976 919 88.6964 1226.22 506.553
121 0 63.1001 13.3597 843 91.4543 1226.42 506.043
122 0 62.2015 13.2312 823 92.3524 1226.67 504.676
123 0 65.1788 13.4093 874 92.0778 1227.14 503.156
124 0 67.118 12.992 872 91.258 1227.99 501.525
125 1 35.068 11.2923 396 90.3611 1228.69 516.351
126 0 39.0809 10.3119 403 90.0447 1230.09 516.871
127 0 42.082 10.8598 457 88.3698 1233.18 516.667
128 0 42.0759 10.077 424 88.842 1235.49 517.519
129 0 44.0533 13.1886 581 85.401 1238.84 516.038
130 0 44.0775 13.0225 574 87.4843 1240.57 516.11
131 0 48.28 14.7266 711 84.4726 1240.86 514.083
132 0 48.0507 14.0893 677 85.2334 1242.24 516.617
133 0 49.02 12.6887 622 88.0659 1244.02 517.322
134 0 51.0761 14.9189 762 85.9908 1245.46 517.429
135 0 51.0546 13.5345 691 88.411 1245.72 519.111
136 0 54.1551 15.1232 819 84.967 1245.88 519.608
137 0 55.133 13.0412 719 88.669 1245.56 517.263
138 0 57.1555 12.8422 734 88.9659 1244.99 517.448
139 0 59.3303 14.512 861 87.5552 1242.59 515.307
140 0 63.1816 14.213 898 86.5067 1241.8 516.997
141 0 63.1907 12.9449 818 88.4621 1240.62 515.334
142 0 64.2352 12.9524 832 88.3341 1237.91 512.999
143 0 68.1246 13.9597 951 85.9232 1235.61 515.146
144 0 70.0932 14.1668 993 85.2034 1237.58 512.526
145 1 35.0561 12.0379 422 84.5355 1236.36 529.149
146 0 38.0468 10.0665 383 86.0992 1234.85 528.3
147 0 42.283 11.8014 499 82.8838 1232.89 529.579
148 0 40.1066 11.1453 447 86.4027 1230.74 526.311
149 0 44.2838 12.9844 575 81.9061 1230.31 525.875
150 0 45.3549 12.5014 567 82.6543 1228.22 524.824
151 0 47.3513 12.7135 602 83.3488 1227.46 522.272
152 0 46.0843 12.3252 568 84.9912 1226.54 522.283
153 0 49.0624 12.6574 621 84.8148 1226.21 519.282
154 0 49.0453 11.5404 566 87.765 1226.14 516.569
155 0 52.0488 12.7765 665 85.0917 1225.85 517.033
156 0 52.2041 12.2213 638 86.3511 1225.87 511.906
157 0 54.0467 13.8029 746 83.5684 1226.59 511.654
158 0 57.0405 12.307 702 84.859 1227.99 513.265
159 0 58.0706 12.7948 743 85.572 1227.29 511.611
160 0 62.0732 15.3528 953 80.681 1229.59 510.119
161 0 62.127 13.6656 849 85.2367 1231.2 507.86
162 0 64.1067 12.5728 806 87.4156 1232.98 507.287
163 1 34.0317 8.4627 288 91.1181 1235.68 522.684
164 0 34.0223 11.8452 403 85.8983 1237.9 523.268
165 0 35.0902 9.06235 318 88.6604 1240.75 525.079
166 0 39.0539 11.3945 445 86.4247 1241.67 523.209
167 0 37.0454 10.0417 372 88.2876 1242.76 526.452
168 0 41.0392 11.3794 467 87.9143 1243.47 525.176
169 0 41.0343 12.3068 505 88.3584 1246.81 524.612
170 0 45.0526 12.8516 579 88.4111 1247.57 524.528
171 0 45.1325 13.5822 613 88.1729 1244.6 524.266
172 0 46.0535 12.9415 596 88.3674 1244.05 523.367
173 0 46.1666 11.935 551 95.2922 1242.66 522.697
174 0 47.0421 12.7333 599 95.3656 1240.85 522.065
175 0 49.0692 13.6542 670 92.9224 1239.71 521.551
176 0 51.0553 13.1034 669 93.5456 1238.11 520.946
177 0 52.0162 13.5535 705 92.905 1236.49 519.952
178 0 55.1403 13.4203 740 91.3149 1234.53 519.099
179 0 56.0707 12.9658 727 92.447 1232.25 520.022
180 0 58.0428 11.9911 696 92.8649 1230.08 518.468
181 0 60.0188 12.6127 757 92.0978 1229.41 516.713
182 0 62.0262 14.6067 906 88.3819 1227.64 515.499
183 0 64.063 13.2682 850 91.6682 1225.91 512.733
184 0 66.2035 13.957 924 90.1818 1226.21 509.468
185 0 70.2014 13.9883 982 90.3676 1223.97 507.518
186 1 35.0443 9.78761 343 92.1487 1223.7 522.574
187 0 36.0742 9.14781 330 93.7152 1222.62 521.215
188 0 37.0072 11.0249 408 91.3039 1223.48 518.299
189 0 40.1186 11.4909 461 89.256 1224.18 518.072
190 0 39.031 11.1706 436 88.9977 1225.04 519.968
191 0 41.0162 10.8981 447 88.1365 1226.03 517.441
192 0 43.6045 12.9803 566 85.8657 1224.6 512.834
193 0 45.1142 14.6739 662 82.2281 1228.56 516.577
194 0 45.0395 13.6991 617 85.8428 1232.42 517.319
195 0 46.1149 15.1144 697 82.6011 1234.87 514.66
196 0 47.1111 12.9057 608 88.4688 1237.34 516.734
197 0 50.1089 14.9874 751 84.6711 1240.18 515.047
198 0 50.0677 14.8199 742 86.4784 1242.58 514.069
199 0 52.1084 13.9709 728 89.5687 1244.24 514.848
200 0 53.101 13.8039 733 90.4338 1245.69 516.233
201 0 55.1014 13.6839 754 91.5093 1246.6 513.443
202 0 56.1359 15.5159 871 88.0333 1246.71 516.091
203 0 58.1859 14.7115 856 89.7769 1247.61 515.168
204 0 59.0671 14.6782 867 90.4521 1246.73 515.036
205 0 61.0644 13.2974 812 93.8424 1245.54 516.392
206 0 67.0648 15.7162 1054 88.1309 1244.25 517.709
207 0 67.1603 15.798 1061 88.9811 1242.57 515.577
208 0 69.1046 15.6864 1084 90.7306 1240.5 514.677
209 0 71.2334 13.9963 997 93.6299 1238.8 516.417
210 0 74.2438 14.3042 1062 92.8277 1236.39 512.669
211 0 77.1935 16.9185 1306 87.745 1233.97 511.355
212 1 43.0484 10.7321 462 99.3939 1234.74 526.095
213 0 45.0497 12.7637 575 96.3791 1229.93 526.53
214 0 45.1329 13.5821 613 97.9821 1228.38 527.282
215 0 48.2401 14.1169 681 97.0352 1224.43 523.316
216 0 46.0471 13.2473 610 95.4393 1225.58 523.075
217 0 49.1035 13.2781 652 94.1626 1224.84 520.748
218 0 53.0883 13.9202 739 89.4154 1224.53 520.963
219 0 53.0995 14.2939 759 88.9987 1222.84 517.647
220 0 56.1735 13.8321 777 90.3475 1223.09 515.133
221 0 57.3155 15.214 872 87.9117 1223.3 514.474
222 0 60.1593 15.1099 909 86.6381 1224.05 513.312
223 0 59.2151 13.0879 775 92.3626 1224.97 511.338
224 0 63.1057 14.0083 884 89.1742 1226.75 510.876
225 0 64.092 15.8366 1015 86.4473 1227.79 506.872
226 0 66.2211 14.2553 944 89.9364 1230.25 509.588
227 0 68.1087 15.5046 1056 88.5758 1232.74 507.063
228 0 70.1683 13.8524 972 91.4609 1235.14 507.217
229 0 73.1372 14.425 1055 90.6588 1237.49 505.551
230 0 74.1081 15.4099 1142 90.2828 1239.76 507.088
231 0 76.1749 15.1231 1152 91.2977 1241.93 504.035
232 0 80.1451 15.16 1215 91.0568 1243.19 504.433
233 1 42.0927 10.9995 463 97.7214 1244.23 523.998
234 0 42.0343 10.1346 426 98.723 1245.75 526.749
235 0 45.0386 12.3894 558 93.948 1246.18 527.066
236 0 46.0449 13.3565 615 92.8911 1245.31 525.472
237 0 47.024 11.526 542 95.3487 1243.63 526.074
238 0 49.0509 14.3728 705 89.9376 1242.51 525.148
239 0 50.0789 13.2791 665 89.3504 1241.54 522.767
240 0 50.1135 12.5715 630 86.3317 1240.22 525.2
241 0 52.1149 12.933 674 84.951 1236.33 526.297
242 0 53.336 13.3306 711 85.429 1234.51 524.094
243 0 57.3339 15.2789 876 81.5993 1234.16 524.027
244 0 58.1508 13.551 788 84.3959 1232.34 522.73
245 0 61.155 14.2425 871 82.1837 1230.28 523.978
246 0 61.2321 13.9796 856 83.5584 1228.91 520.612
247 0 65.161 13.7045 893 82.2878 1226.88 519.657
248 0 65.1382 14.0164 913 82.483 1224.65 515.593
249 0 66.2588 12.3304 817 84.5716 1223.25 514.865
250 0 71.2495 14.4703 1031 81.6673 1222.33 511.372
251 0 72.2281 13.7204 991 82.9203 1221.92 511.923
252 0 75.1542 14.0245 1054 81.6224 1221 508.476
253 1 37.0956 9.78552 363 85.427 1222.07 526.124
254 0 42.043 12.3921 521 81.3033 1222.04 521.774
255 0 42.0955 12.6379 532 82.8722 1221.47 519.697
256 0 42.0244 11.0888 466 84.588 1221.64 519.03
257 0 43.0387 12.7095 547 81.7203 1222.5 516.731
258 0 46.0886 12.7797 589 81.1036 1223.44 516.43
259 0 48.2461 13.742 663 79.7451 1224.5 513.68
260 0 50.0219 14.1738 709 79.7447 1224.61 514.58
261 0 50.022 14.3737 719 79.8887 1226.57 514.954
262 0 51.0162 13.7407 701 81.3481 1230.24 514.1
263 0 51.038 12.8923 658 84.0851 1233.19 514.821
264 0 56.0164 13.7817 772 81.5946 1235.23 512.523
265 0 57.0452 14.5499 830 81.3855 1238.39 512.017
266 0 57.0503 13.3742 763 84.6134 1239.14 511.219
267 0 61.0732 12.0675 737 84.4735 1241.26 515.292
268 0 63.0715 14.1585 893 83.3393 1241.62 512.72
269 0 64.1517 14.9801 961 82.7971 1242.07 514.053
270 0 66.0678 15.6506 1034 83.0822 1242.59 513.044
271 0 68.1296 15.8815 1082 83.2449 1240.27 511.524
272 0 72.0724 15.6509 1128 83.0523 1239.41 512.288
273 0 75.0488 17.2155 1292 81.233 1239.08 512.623
274 0 76.0264 13.7452 1045 88.0153 1236.76 510.616
275 0 80.1686 17.1015 1371 80.6185 1234.56 507.944
276 0 81.1186 15.052 1221 84.0016 1234.21 508.489
277 0 86.0883 17.5634 1512 79.1878 1231.63 506.112
278 1 44.0147 11.3371 499 87.5311 1229.96 527.894
279 0 46.1458 12.0704 557 85.0808 1228.56 528.165
280 0 49.0984 12.5259 615 83.8439 1228.09 527.236
281 0 50.0341 13.171 659 82.9196 1226.12 525.079
282 0 51.1619 13.8384 708 83.2528 1224.35 519.883
283 0 51.1089 12.7571 652 83.9003 1221.53 521.327
284 0 52.0395 14.1815 738 82.7005 1221.49 520.672
285 0 55.069 12.6205 695 83.5122 1221.05 518.754
286 0 57.075 14.5948 833 81.3685 1219.91 516.06
287 0 60.0371 12.8754 773 84.4618 1219.68 513.621
288 0 62.3589 15.058 939 82.557 1219.72 510.466
289 0 64.0316 14.2273 911 85.3117 1218.55 507.215
290 0 68.0768 15.6 1062 82.3635 1220.6 507.472
291 0 69.1151 14.1648 979 86.1062 1220.96 505.313
292 0 70.0965 13.3102 933 88.5563 1222 504.451
293 0 73.1522 14.5997 1068 87.4888 1224.64 501.449
294 0 78.1228 13.8244 1080 89.275 1227.14 499.866
295 0 78.1337 14.424 1127 88.6469 1229.8 502.511
296 0 81.1475 15.3671 1247 88.1796 1232.42 501.835
297 1 49.0663 11.4947 564 93.2872 1235.07 517.576
298 0 49.0138 10.6705 523 93.5488 1237.75 518.101
299 0 49.0393 12.4186 609 93.1429 1239.5 517.517
300 0 52.3328 13.8919 727 91.3673 1244.03 514.788
301 0 55.1477 13.9444 769 86.8674 1244.92 518.97
302 0 55.097 13.1405 724 89.0691 1244.69 518.561
303 0 56.047 13.6136 763 88.0092 1245.55 519.28
304 0 59.0944 13.7238 811 87.5968 1245.21 519.984
305 0 60.1979 13.655 822 88.8224 1243.93 517.567
306 0 63.0773 14.617 922 86.6866 1242.7 518.939
307 0 66.0661 13.1535 869 89.3326 1240.68 517.766
308 0 68.1294 14.8394 1011 87.1691 1239.21 515.108
309 0 71.0907 15.22 1082 86.7089 1237.14 516.233
310 0 73.0662 14.6442 1070 88.8841 1235.8 515.645
311 0 75.1359 13.7484 1033 91.1713 1232.85 515.573
312 0 79.1498 15.2496 1207 89.0978 1232.3 511.66
313 0 81.107 15.4241 1251 88.4285 1230.62 512.701
314 0 82.1514 13.3656 1098 94.5528 1228.83 510.841
315 1 44.019 10.5409 464 97.0259 1228.77 527.06
316 0 48.015 11.6006 557 90.325 1226.24 524.966
317 0 46.0344 9.92735 457 97.1138 1225.35 522.204
318 0 49.0302 12.6249 619 90.9952 1223.61 521.553
319 0 52.025 13.3782 696 89.5101 1222.96 516.862
320 0 53.1135 14.1207 750 89.2707 1222.48 516.993
321 0 52.0571 11.8908 619 96.3328 1222.01 513.339
322 0 56.0911 13.6385 765 91.3908 1221.89 511.758
323 0 57.0244 13.3627 762 92.6391 1221.98 507.9
324 0 61.1656 15.548 951 88.265 1223.28 506.234
325 0 59.0971 15.06 890 88.1247 1223.1 505.679
326 0 59.1628 12.66 749 93.9786 1224.62 504.618
327 0 65.1622 16.3592 1066 85.8283 1225.92 504.998
328 0 65.0948 14.4405 940 89.5926 1228.49 504.589
329 0 67.0798 14.8331 995 89.3347 1231.26 504.255
330 0 70.0787 14.6978 1030 89.6505 1233.97 505.441
331 0 72.1184 15.7242 1134 88.2178 1237.01 503.769
332 0 73.2038 14.1659 1037 94.2285 1239.14 501.89
333 0 77.1617 15.0593 1162 92.8313 1241.41 503.296
334 1 38.3945 8.41266 323 97.1981 1243.2 525.861
335 0 39.1349 10.1444 397 99.8615 1243.76 522.912
336 0 44.1185 11.1745 493 94.8114 1243.73 524.02
337 0 45.1298 12.6081 569 94.0562 1242.68 525.654
338 0 44.0761 12.6826 559 98.347 1243.16 525.891
339 0 47.1406 13.3855 631 95.2853 1242.15 526.547
340 0 47.0383 14.2224 669 96.2003 1240.47 526.408
341 0 49.2916 14.5461 717 95.6667 1238.35 523.987
342 0 50.3284 14.2862 719 96.815 1236.83 526.431
343 0 50.3624 13.5816 684 97.9254 1233.9 526
344 0 54.3839 14.7286 801 94.3783 1233.29 522.688
345 0 56.0844 14.8348 832 92.9303 1231.68 523.532
346 0 57.302 14.1007 808 94.6139 1229.99 523.387
347 0 57.1755 14.6041 835 91.818 1228.29 523.554
348 0 59.0464 14.4971 856 94.0175 1227.54 521.849
349 0 59.1305 13.7323 812 95.984 1226.97 519.456
350 0 62.1184 14.5046 901 94.5272 1224.85 517.731
351 0 64.257 14.1152 907 95.7806 1222.96 514.533
352 0 65.2321 13.8735 905 95.6409 1221.9 512.488
353 0 66.236 11.761 779 99.0834 1220.88 510.818
354 0 71.1174 15.1018 1074 92.5158 1221.32 504.61
355 1 35.0428 9.41707 330 94.3636 1220.83 525.385
356 0 38.1332 10.9091 416 92.8149 1218.64 522.474
357 0 38.2008 10.7327 410 95.5878 1218.96 518.115
358 0 40.2957 11.6886 471 93.3163 1218.64 518.618
359 0 41.0662 11.591 476 95.7101 1219.88 519.261
360 0 41.0666 11.177 459 88.2549 1223.61 513.294
361 0 43.0807 11.7686 507 86.8067 1225.44 512.529
362 0 45.2053 13.6267 616 81.4383 1228.66 512.597
363 0 45.1375 13.8687 626 89.5623 1232.62 516.893
364 0 48.1544 13.1245 632 90.4288 1237.27 518.761
365 0 47.0474 13.242 623 94.679 1239.45 515.799
366 0 48.1543 13.519 651 94.2335 1242.08 516.217
367 0 52.1328 13.2354 690 93.5058 1242.91 518.299
368 0 51.2221 12.6898 650 97.42 1244.04 517.217
369 0 53.1557 11.6262 618 99.8123 1245.12 520.859
370 0 55.2503 13.0859 723 98.3762 1244.26 520.199
371 0 58.194 14.2626 830 97.4036 1243.7 519.231
372 0 59.1097 13.4326 794 100.353 1243.36 518.695
373 0 61.2534 13.6645 837 100.849 1241.2 518.961
374 0 65.1474 14.8433 967 99.1789 1239.96 518.708
375 0 67.1077 14.7673 991 98.9859 1237.36 519.217
376 0 69.2387 13.9228 964 102.03 1235.29 518.041
377 0 73.3066 14.9509 1096 99.9872 1234.08 518.77
378 0 75.1765 16.0822 1209 98.8437 1232.49 512.882
379 0 78.123 14.426 1127 101.728 1231.37 512.609
380 0 79.2227 15.9424 1263 99.3056 1228.73 509.385
381 0 81.1763 14.3515 1165 103.508 1228.07 509.768
382 0 84.175 14.7431 1241 102.67 1226.22 507.047
383 0 89.1888 16.4931 1471 97.5588 1224.9 505.965
384 0 90.1662 16.0814 1450 99.5628 1223.75 505.618
385 0 93.1794 15.3038 1426 101.349 1222.22 502.293
386 0 93.3294 13.8649 1294 106.694 1220.28 502.375
387 0 96.2575 14.3885 1385 105.522 1220.26 499.522
388 0 100.221 15.6454 1568 101.984 1219.71 496.522
389 1 55.0185 11.0872 610 108.02 1220.55 516.623
390 0 57.0753 12.9128 737 106.24 1220.42 516.099
391 0 60.0667 12.8524 772 104.632 1221.9 511.973
392 0 63.0295 13.4382 847 103.702 1223.13 510.765
393 0 62.0356 12.6863 787 102.165 1224.02 507.056
394 0 65.0756 12.3088 801 92.4644 1224.49 507.189
395 0 66.039 12.6743 837 92.3238 1227.46 503.102
396 0 68.0427 12.2276 832 93.3245 1229.51 501.984
397 0 71.025 13.9528 991 91.7972 1232.97 500.748
398 0 73.2731 12.6922 930 94.2989 1235.01 500.837
399 0 78.2238 14.3562 1123 93.1202 1238.59 502.913
400 0 80.121 13.7417 1101 92.8683 1240.83 501.838
401 0 83.1616 15.3076 1273 89.5813 1240.59 499.942
402 1 40.1643 10.4322 419 97.358 1243.41 521.212
403 0 44.0465 10.4889 462 101.959 1244.3 527.134
404 0 46.0428 11.8151 544 101.331 1244.54 526.015
405 0 47.0943 11.891 560 100.895 1242.75 524.366
406 0 49.1257 12.4171 610 98.8164 1242.03 525.475
407 0 52.1313 13.5044 704 97.7372 1240.2 523.222
408 0 55.0783 16.7035 920 88.738 1238.09 523.946
409 0 55.1171 13.8251 762 94.9108 1236.66 523.597
410 0 56.0854 13.1585 738 95.122 1233.92 522.733
411 0 58.0565 14.0381 815 93.3227 1230.97 523.558
412 0 58.0574 12.4015 720 96.3611 1230.55 521.59
413 0 61.1037 13.6162 832 93.8401 1228.89 521.275
414 0 64.1436 14.4208 925 92.0303 1227.99 517.119
415 0 65.0598 14.0025 911 93.3842 1226.32 518.079
416 0 69.1017 14.6017 1009 92.1962 1225.88 516.276
417 0 72.2319 14.3012 1033 88.4521 1224.07 510.227
418 0 71.3336 13.9345 994 90.8803 1222.89 508.139
419 0 73.2612 13.5133 990 91.3535 1221 503.952
420 0 77.4179 15.074 1167 87.6932 1220.52 502.506
421 0 80.2435 14.0821 1130 89.9088 1219.5 499.19
422 0 83.2739 14.4463 1203 89.7797 1220.22 500.417
423 0 87.352 14.848 1297 88.2452 1220.51 501.887
424 0 87.2559 13.7068 1196 92.1388 1219.88 497.472
425 0 91.3798 13.2086 1207 93.0671 1220.97 493.795
426 0 95.6806 14.6216 1399 91.346 1222.8 489.919
427 1 49.2681 12.1377 598 91.6171 1224.27 513.953
428 0 50.4211 11.7609 593 92.7656 1226.66 515.008
429 0 50.4014 12.7179 641 93.0764 1230.16 513.63
430 0 53.3272 13.5391 722 91.6579 1232.69 514.45
431 0 56.0827 12.6777 711 90.4402 1235.22 513.484
432 0 56.1957 12.8835 724 91.0345 1238.35 513.514
433 0 58.0987 13.391 778 91.5231 1240.68 512.539
434 0 60.058 13.0874 786 92.7786 1242.44 512.931
435 0 62.0824 13.6593 848 91.4575 1244.46 514.085
436 0 66.0802 15.9957 1057 86.7673 1244.24 514.162
437 0 64.3435 13.3813 861 93.9791 1245.28 513.445
438 0 68.2198 13.691 934 92.4133 1244.23 515.773
439 0 70.1577 13.7405 964 92.0124 1243.93 515.313
440 0 72.3317 14.1846 1026 93.4649 1241.9 512.063
441 0 76.2854 14.6686 1119 92.6023 1239.81 511.221
442 0 75.5304 13.809 1043 94.9128 1237.78 514.148
443 0 78.2003 14.4117 1127 94.2902 1235.91 511.319
444 0 82.1765 13.325 1095 95.0466 1234.58 510.633
445 0 85.3657 13.7877 1177 93.627 1232.4 508.345
446 0 88.2262 13.7601 1214 94.0082 1231.19 508.371
447 0 88.3968 13.6543 1207 95.5012 1228.54 507.281
448 0 92.2021 13.5789 1252 96.5431 1227.92 504.613
449 0 96.2331 16.1795 1557 91.1708 1226.36 502.525
450 1 49.3298 11.2103 553 92.953 1226.14 524.557
451 0 49.1363 10.8881 535 94.5458 1225.1 522.338
452 0 51.2307 11.3409 581 92.9828 1224.39 520.847
453 0 53.3292 12.1884 650 92.2569 1222.97 518.571
454 0 53.2895 11.9161 635 93.178 1221.25 517.123
455 0 58.1459 14.2744 830 90.3277 1220.68 517.761
456 0 59.0908 13.7585 813 93.4244 1220.59 510.309
457 0 62.0435 14.2642 885 92.4226 1221.72 509.384
458 0 61.0339 13.9267 850 94.86 1222.33 510.36
459 0 65.0741 14.4912 943 93.3552 1223.36 506.425
460 0 67.1581 13.9373 936 94.6229 1225.62 504.651
461 0 71.1183 14.1033 1003 93.4975 1227.25 506.158
462 0 72.1625 13.6775 987 94.4134 1229.68 502.273
463 0 75.1367 14.5867 1096 93.4881 1231.97 502.37
464 0 78.127 14.2204 1111 94.3645 1235.41 501.296
465 1 40.0964 10.4249 418 100.763 1238.61 517.715
466 0 42.0951 11.3315 477 98.3187 1241.48 520.65
467 0 42.0437 9.15714 385 100.631 1243.17 522.834
468 0 47.0899 11.34 534 96.3202 1244.69 523.315
469 0 47.1625 10.9197 515 98.8874 1245.52 522.996
470 0 48.2212 11.2191 541 97.9002 1244.84 521.616
471 0 51.1861 10.9014 558 99.4534 1245.42 521.762
472 0 53.1809 13.5011 718 92.9889 1243.71 521.791
473 0 55.1078 14.8255 817 87.0845 1243.88 523.815
474 0 56.0893 14.4413 810 89.3272 1241.73 521.651
475 0 58.1341 14.501 843 89.3215 1240.03 519.813
476 0 60.1598 12.9655 780 92.3833 1238.12 520.199
477 0 62.1042 14.8621 923 88.5363 1235.51 518.634
478 0 63.2218 13.1442 831 93.4994 1234.15 516.112
479 0 66.1162 15.1098 999 89.8348 1232.57 518.118
480 0 66.2396 14.7646 978 91.3937 1230.9 516.275
481 0 69.1979 14.1767 981 92.683 1228.66 516.856
482 0 73.2071 14.2199 1041 92.3141 1227.51 514.04
483 0 74.4509 13.3377 993 99.1027 1225.86 513.053
484 0 76.4043 13.7427 1050 98.2 1224.05 510.92
485 1 39.0509 9.85892 385 97.1351 1224.28 530.636
486 0 41.0222 9.94583 408 97.7451 1223.28 530.184
487 0 42.0687 9.95989 419 95.2196 1222.21 526.236
488 0 45.0521 12.4745 562 91.8932 1222.65 523.641
489 0 46.0564 11.855 546 90.8773 1221.08 520.106
490 0 47.0241 11.5898 545 91.1596 1221.38 519.398
491 0 49.1552 11.9418 587 90.3458 1219.52 515.915
492 0 50.2473 12.7171 639 88.1174 1219.34 513.668
493 0 52.0524 13.3135 693 86.0808 1220.45 512.967
494 0 52.0323 13.6454 710 86.8775 1221.94 514.307
495 0 55.0552 13.8951 765 85.4993 1224.55 513.536
496 0 54.1133 12.1412 657 88.8813 1227.29 512.813
497 0 59.0397 13.3639 789 84.9962 1229.52 512.321
498 0 60.0494 13.7553 826 84.7482 1233.07 514.605
499 0 61.0461 13.5799 829 86.0639 1236.08 514.925
500 0 62.1573 12.3879 770 89.3403 1236.89 512.994
501 0 66.0492 13.9896 924 87.1732 1238.95 512.603
502 0 66.1716 13.6917 906 89.3035 1241.24 516.671
503 0 68.1737 15.0498 1026 87.7554 1242.08 514.436
504 0 73.2479 15.3451 1124 86.7536 1242.06 514.892
505 0 73.2116 12.6073 923 92.9469 1241.06 514.985
506 0 78.3084 14.0853 1103 90.495 1239.73 512.641
507 0 79.1721 14.1843 1123 91.3117 1238.08 514.741
508 0 83.2464 14.4391 1202 91.4983 1237.19 513.776
509 0 84.1767 14.5527 1225 92.4376 1235.32 512.223
510 0 87.2245 16.0735 1402 90.2782 1234.37 509.658
511 0 90.2771 15.3527 1386 91.9762 1231.99 508.077
512 0 93.5315 15.6097 1460 92.4705 1229.89 506.668
513 0 93.343 15.5341 1450 93.8628 1228.89 504.604
514 0 95.4968 14.1366 1350 97.2096 1227.54 501.289
515 0 100.454 14.9323 1500 95.704 1225.62 504.229
516 0 102.364 15.4058 1577 97.8383 1224.66 499.507
517 0 107.453 14.7972 1590 98.6119 1223.8 498.467
518 0 111.433 15.2648 1701 91.4556 1222.91 497.035
519 0 114.449 15.4304 1766 91.051 1221.94 494.337
520 0 118.34 14.7879 1750 91.9257 1220.19 491.405
521 0 120.305 14.2887 1719 93.267 1220.76 491.844
522 1 66.2779 13.9111 922 85.7213 1220.52 515.217
523 0 64.2966 12.2401 787 91.4079 1220.08 512.95
524 0 67.2719 12.4569 838 92.7172 1219.64 508.13
525 0 69.2343 13.0282 902 94.9823 1219.95 505.947
526 0 71.2211 13.1702 938 90.2825 1222.32 507.587
527 0 75.2116 15.3567 1155 85.9481 1222.95 503.436
528 0 77.1435 13.611 1050 87.9857 1224.81 506.202
529 0 80.3185 14.43 1159 87.7636 1227.57 503.083
530 0 84.1453 13.3341 1122 89.4501 1231.06 502.41
531 1 47.0433 10.9899 517 89.4565 1235.11 523.3
532 0 47.1078 10.6352 501 93.0898 1237.25 521.273
533 0 47.0374 11.8842 559 92.4723 1239.16 519.165
534 0 52.0211 11.7452 611 90.2831 1240.92 522.332
535 0 53.0207 13.3344 707 88.1655 1241.68 520.188
536 0 56.2824 15.0491 847 83.9174 1241.41 519.72
537 0 57.3307 13.989 802 85.9489 1241.09 519.419
538 0 58.192 12.7165 740 86.7135 1241.72 519.916
539 0 59.1517 11.6818 691 88.8061 1241.2 523
540 0 63.2073 13.2896 840 86.6155 1240.87 522.092
541 0 66.2307 14.6911 973 83.8016 1239.16 519.449
542 0 69.228 13.925 964 84.6452 1237.43 521.452
543 0 69.0754 13.6662 944 85.6292 1235.37 520.013
544 0 73.3925 13.6662 1003 87.7677 1232.89 514.447
545 0 74.2372 13.7397 1020 85.2431 1229.85 516.011
546 0 77.2234 14.1019 1089 84.8329 1229.18 516.309
547 0 80.2891 14.7093 1181 85.9119 1228.01 514.388
548 0 81.1341 13.2866 1078 86.7764 1226.61 512.56
549 1 42.0609 9.91419 417 88.6331 1226.34 532.904
550 0 47.0229 9.39967 442 90.1855 1225.11 529.959
551 0 46.0733 10.3314 476 92.1807 1222.89 525.25
552 0 47.0442 8.94903 421 92.6057 1222.64 527.72
553 0 50.0412 11.9701 599 89.5025 1221.39 522.371
554 0 50.0306 12.0726 604 88.5447 1221.09 521.974
555 0 51.0223 12.9551 661 87.5522 1221.3 516.405
556 0 52.4894 13.9838 734 86.233 1218.99 512.236
557 0 54.2034 13.6154 738 86.9024 1218.99 512.634
558 0 56.0536 13.4336 753 86.3373 1221.63 510.575
559 0 57.0777 12.7195 726 88.0882 1223.21 512.778
560 0 59.0751 14.0499 830 86.253 1223.95 504.711
561 0 62.1161 13.185 819 86.9853 1226.05 508.9
562 0 64.0828 13.3733 857 88.1459 1227.77 508.168
563 0 65.0774 13.9065 905 88.6619 1230.16 505.355
564 0 66.0771 13.121 867 90.8662 1233.64 505.672
565 0 70.068 14.7856 1036 88.2046 1236.53 506.26
566 0 70.0749 14.3846 1008 90.5595 1239.17 502.904
567 0 73.1925 14.8786 1089 88.4371 1239.93 502.912
568 0 76.1652 15.0463 1146 88.459 1243.12 509.544
569 0 77.2645 14.8839 1150 86.7252 1244.09 504.464
570 0 79.1767 12.5542 994 91.8773 1243.78 505.597
571 0 80.1827 12.4216 996 93.3524 1244.07 508.731
572 0 84.1924 14.0868 1186 90.3567 1243.96 507.423
573 0 88.1713 14.0182 1236 90.038 1241.68 506.649
574 1 47.0593 9.90239 466 93.088 1240.64 524.73
575 0 50.0255 10.5346 527 90.3359 1239.85 526.467
576 0 51.0471 10.2454 523 92.9598 1237.2 525.078
577 0 52.1356 12.2949 641 88.4337 1234.87 521.61
578 0 52.0631 10.5065 547 89.6435 1233.06 520.611
579 0 55.0659 12.5849 693 78.733 1231.47 518.626
580 0 59.1307 13.6646 808 76.0743 1228.78 521.681
581 0 59.1534 12.6282 747 78.0013 1226.85 518.402
582 0 62.0868 12.6275 784 79.1327 1225.77 514.561
583 0 64.1969 11.4959 738 80.5393 1225.42 517.008
584 0 66.1415 11.8231 782 81.4028 1224.15 510.472
585 0 68.0595 12.8123 872 79.1606 1222.73 509.894
586 0 71.1035 13.6983 974 78.5955 1222.47 507.632
587 0 73.2545 12.5726 921 80.2193 1222.75 506.084
588 0 75.1047 13.4213 1008 80.0159 1221.94 502.66
589 0 78.339 13.6586 1070 79.7449 1221.67 503.773
590 0 79.204 13.4084 1062 80.9774 1221.73 499.482
591 0 82.2202 13.4517 1106 81.5425 1221.27 493.911
592 0 84.0964 13.2586 1115 82.5067 1221.88 492.055
593 1 42.0723 10.5295 443 81.0135 1222.63 515.643
594 0 46.105 10.5628 487 79.2033 1223.36 517.226
595 0 46.0622 10.7897 497 79.7223 1223.7 513.414
596 0 46.1155 11.7531 542 77.7435 1226.6 512.886
597 0 47.166 12.9543 611 77.509 1229.98 510.406
598 0 51.0455 12.1656 621 80.6312 1231.64 513.097
599 0 51.0326 10.3659 529 80.2817 1235.98 516.236
600 0 52.0538 11.2192 584 80.5017 1238.36 512.483
601 0 55.0546 12.0607 664 79.3404 1240.27 516.413
602 0 56.066 11.5935 650 80.7354 1241.4 511.054
603 0 57.0701 11.9327 681 80.4464 1241.81 513.984
604 0 59.0336 10.9768 648 83.4398 1243.63 511.522
605 0 63.1426 12.0363 760 88.0566 1243.72 518.921
606 0 66.1317 12.6566 837 87.7622 1242.57 518.857
607 0 69.0866 13.2153 913 87.0066 1240.58 515.679
608 0 71.0689 14.4086 1024 85.5479 1239.11 517.223
609 0 72.1604 12.2366 883 88.2525 1237.28 512.558
610 0 76.3281 13.9267 1063 85.6933 1234.99 515.206
611 0 78.2462 12.9591 1014 87.3166 1233.57 517.677
612 1 43.1764 9.9823 431 91.4548 1231.93 530.807
613 0 42.1642 9.86618 416 91.226 1228.96 530.923
614 0 46.1481 10.7913 498 90.0422 1229.34 526.89
615 0 47.0851 10.5341 496 89.8105 1226.61 530.496
616 0 47.1381 9.80098 462 90.4004 1225.04 524.214
617 0 50.1033 12.095 606 87.1997 1223.79 524.102
618 0 49.1674 11.7151 576 82.908 1222.3 515.373
619 0 50.1296 12.2881 616 82.526 1222.21 514.606
620 0 52.1348 12.5444 654 77.2844 1220.53 514.306
621 0 52.1094 11.0729 577 79.4922 1219.88 514.459
622 0 55.2036 12.2999 679 77.5788 1220.16 513.295
623 0 55.1636 10.8042 596 80.4111 1219.72 509.455
624 0 56.2501 10.8266 609 81.0378 1219.87 508.177
625 0 58.1488 12.2445 712 80.1208 1220.9 503.213
626 0 62.1257 12.2655 762 80.4239 1221.67 506.4
627 0 63.0631 12.7809 806 80.0558 1223.31 501.068
628 0 65.1222 12.3153 802 79.7581 1225.08 503.719
629 0 69.1436 14.4337 998 77.3958 1227.11 501.254
630 0 70.1392 12.7176 892 81.5572 1228.61 500.027
631 0 75.3413 14.2153 1071 79.0177 1232.19 498.352
632 0 72.1377 10.7849 778 85.1684 1235.03 501.807
633 0 77.0709 12.3133 949 82.4826 1236.26 499.016
634 0 81.1031 14.3891 1167 81.0214 1239.11 498.492
635 0 84.2952 14.1408 1192 83.0369 1240.62 499.69
636 0 87.1141 13.0978 1141 85.3804 1242.22 495.78
637 1 46.1085 9.30413 429 82.5921 1243.01 519.023
638 0 46.1929 12.188 563 80.9663 1242.5 517.282
639 0 46.1423 9.18897 424 84.5778 1242.33 518.493
640 0 49.2655 11.3061 557 81.7594 1242.26 519.05
641 0 54.2457 13.3098 722 86.7382 1241.35 522.884
642 0 55.3519 14.4711 801 85.3333 1239.56 523.261
643 0 57.0871 14.7319 841 85.6754 1237.69 522.25
644 0 58.275 14.2771 832 86.9279 1235.82 521.665
645 0 60.1065 13.6591 821 88.3069 1233.6 521.091
646 0 61.2691 13.4978 827 89.2237 1231.49 522.597
647 0 65.2796 14.8898 972 86.5566 1231.42 520.586
648 0 66.2141 14.3474 950 86.9947 1228.33 516.886
649 0 71.2324 15.1336 1078 85.0362 1226.88 516.114
650 0 72.1657 14.6191 1055 86.3223 1226.76 513.298
651 0 75.1801 15.5094 1166 84.9108 1224.76 508.855
652 1 39.0139 9.97082 389 90.7429 1223.87 524.679
653 0 40.038 10.7897 432 88.7477 1223.37 525.183
654 0 42.0817 11.4301 481 87.4636 1222.36 522.888
655 0 43.0258 10.0405 432 88.831 1221.61 523.312
656 0 43.0139 12.0891 520 88.8846 1221.48 519.4
657 0 45.0829 14.795 667 84.8801 1221.26 518.241
658 0 46.0899 12.8011 590 88.2085 1222.46 516.163
659 0 47.0387 12.0539 567 76.9012 1221.36 515.233
660 0 48.0114 12.3096 591 79.0525 1222.29 513.042
661 0 50.2087 12.3484 620 80.0952 1223.87 510.331
662 0 51.1152 12.6381 646 80.7802 1225.78 510.308
663 0 53.1681 11.7928 627 81.1595 1226.9 511.043
664 0 54.0543 14.8739 804 77.7774 1228.45 511.593
665 0 53.1548 11.8522 630 83.2714 1232.22 508.271
666 0 57.1424 13.1601 752 80.5944 1235.72 513.617
667 0 57.1017 12.1187 692 83.6806 1237.01 511.212
668 0 60.1447 11.755 707 83.9024 1239.14 510.948
669 0 62.0719 12.3244 765 83.2118 1240.85 511.191
670 0 64.1664 12.0312 772 84.2681 1242.21 509.908
671 0 65.1418 10.8379 706 86.4589 1243.35 511.54
672 0 70.1204 11.5943 813 83.9729 1242.81 512.797
673 0 72.1233 11.6051 837 83.8913 1240.66 509.686
674 0 73.1457 11.4019 834 85.205 1239.24 507.556
675 0 76.1444 11.3863 867 84.6032 1237.9 510.411
676 1 44.2201 8.23156 364 79.4588 1237.54 528.168
677 0 40.2454 7.20578 290 83.5379 1233.82 525.397
678 0 47.1844 10.9782 518 84.666 1232.82 529.743
679 0 50.3599 13.1454 662 80.3369 1230.7 527.875
680 0 48.1226 11.0343 531 86.6949 1229.3 527.49
681 0 49.1114 11.8506 582 85.9175 1225.94 525.811
682 0 53.0838 13.7518 730 81.6096 1225.18 525.744
683 0 53.1246 12.4989 664 84.3494 1224.4 522.503
684 0 55.1165 13.3717 737 83.1031 1222.9 521.659
685 0 58.0892 13.376 777 82.0309 1222.63 520.907
686 0 60.088 12.3485 742 82.5418 1221.12 518.636
687 0 61.0699 13.2962 812 80.7993 1220.57 518.291
688 0 63.0868 12.9821 819 81.243 1219.99 513.103
689 0 65.1485 14.1062 919 78.7617 1219.75 513.613
690 0 68.0774 13.9253 948 78.8017 1219.68 510.186
691 0 69.0867 15.1694 1048 78.1727 1220.15 508.238
692 0 71.1341 14.7468 1049 78.062 1220.02 507.822
693 0 73.1329 14.2754 1044 78.9272 1220.57 506.958
694 0 75.1652 13.8628 1042 79.7418 1220.98 503.912
695 0 76.1226 13.8198 1052 80.8736 1222.09 502.207
696 0 77.1173 12.9673 1000 82.888 1224.58 499.848
697 0 71.2318 12.2979 876 83.7272 1225.98 506.234
698 1 43.0545 11.8222 509 84.6031 1229.64 518.053
699 0 43.1669 10.8185 467 88.0578 1232.4 518.334
700 0 44.0163 9.90543 436 89.1101 1234.57 519.878
701 0 47.1166 11.1638 526 88.2471 1236.69 519.968
702 0 48.2813 10.6667 515 90.2388 1238.71 521.569
703 0 51.5574 13.034 672 87.2545 1238.12 516.243
704 0 52.1214 11.5691 603 90.9552 1240.39 522.138
705 0 52.1539 12.6165 658 91.4422 1240.55 523.363
706 0 55.2202 13.0749 722 90.6953 1240.32 523.561
707 0 57.1753 12.4529 712 92.0772 1239.38 522.025
708 0 60.1328 13.5201 813 90.508 1237.33 522.157
709 0 64.1985 13.4271 862 89.6589 1236.49 523.488
710 0 64.1527 14.8552 953 89.6684 1234.14 520.648
711 0 66.1825 13.8103 914 92.0875 1230.93 519.684
712 0 69.1121 13.8471 957 91.047 1229.51 521.598
713 0 72.1992 12.8256 926 93.3207 1227.82 519.596
714 0 74.1642 14.0095 1039 90.1655 1226.31 517.346
715 1 40.1178 11.7404 471 91.8386 1221.87 529.304
716 0 42.1578 10.3184 435 91.9333 1221.49 532.897
717 0 45.0452 11.9658 539 91.3098 1219.24 529.395
718 0 44.0586 11.2577 496 93.8085 1217.49 528.591
719 0 46.0174 12.0172 553 93.3508 1217.16 526.045
720 0 48.0341 12.6369 607 92.2685 1216.95 527.16
721 0 48.1435 13.5636 653 92.6172 1215.87 523.034
722 0 50.0474 13.0476 653 93.6968 1215.35 522.069
723 0 54.0584 13.6519 738 91.4404 1215.49 519.604
724 0 51.0833 12.2153 624 95.899 1215.01 514.728
725 0 55.172 13.6664 754 91.9761 1215.44 514.999
726 0 56.0361 13.7768 772 92.1425 1215.55 513.747
727 0 56.122 14.3259 804 92.0709 1216.04 511.09
728 0 58.0678 12.9676 753 93.9695 1217.37 511.869
729 0 57.101 13.0295 744 95.586 1218.67 509.216
730 0 61.0634 13.2158 807 93.9083 1221.12 512.447
731 0 60.1364 12.3552 743 96.7887 1223.1 512.127
732 0 65.0689 13.2014 859 95.5483 1226.5 513.01
733 0 65.1697 13.5646 884 96.7376 1229.29 513.64
734 0 69.133 14.7108 1017 94.9164 1231.69 510.559
735 0 71.3021 14.3755 1025 96.4341 1234.34 508.942
736 0 73.1863 14.9208 1092 96.978 1236.35 508.266
737 0 75.2123 13.0963 985 100.255 1237.21 509.264
738 0 80.1619 14.8075 1187 95.2772 1238.06 510.521
739 1 44.0208 10.8358 477 99.0566 1237.31 529.067
740 0 42.0357 10.1342 426 104.491 1238.03 530.141
741 0 46.0245 11.8632 546 103.24 1236.35 529.399
742 0 47.0572 12.1979 574 102.948 1235.08 530.62
743 0 51.2256 12.6694 649 102.532 1235.84 530.083
744 0 51.2512 12.7021 651 99.5745 1234.99 530.301
745 0 51.1655 13.2707 679 97.595 1232.79 529.28
746 0 53.0775 12.6419 671 99.0089 1229.92 530.501
747 0 56.0821 12.874 722 98.2424 1228.44 531.032
748 0 56.1615 13.2475 744 98.7621 1227.85 528.188
749 0 59.1086 12.8915 762 97.5787 1225.68 528.319
750 0 59.048 12.2273 722 98.1191 1225.1 526.331
751 0 63.0429 13.2608 836 94.2811 1223.11 523.9
752 0 66.0876 13.013 860 93.9791 1221.69 522.591
753 0 66.1132 12.4332 822 94.7591 1220.32 520.022
754 0 70.1457 12.3172 864 95.0613 1219.85 518.95
755 0 75.1304 15.0272 1129 88.6732 1219.61 515.265
756 0 74.0913 12.7815 947 93.6494 1218.43 514.6
757 0 78.1885 13.3651 1045 92.0431 1218.32 510.076
758 0 81.2052 13.2011 1072 93.278 1218.27 508.15
759 0 84.1829 14.0171 1180 92.3169 1218.89 506.812
760 0 85.1238 12.3702 1053 95.7066 1218.83 502.756
761 0 91.1069 13.8738 1264 91.6384 1219.5 504.32
762 1 49.052 16.1257 791 90.2377 1220.8 518.32
763 0 49.1084 15.2316 748 91.1176 1222.41 518.634
764 0 51.1815 15.8065 809 85.581 1222.86 517.494
765 0 53.0947 14.3517 762 89.101 1225.78 517.976
766 0 54.0595 15.409 833 87.8992 1227.65 516.424
767 0 56.1398 14.0542 789 89.7605 1230.87 516.916
768 0 57.0675 14.1587 808 90.8923 1234.23 516.147
769 0 57.0567 12.4438 710 94.2197 1236.62 518.472
770 0 62.1038 15.1521 941 88.6068 1237.87 517.214
771 0 64.126 15.1109 969 88.8896 1238.9 516.746
772 0 65.1022 15.3605 1000 88.682 1239.27 517.135
773 0 68.1372 15.2193 1037 89.0434 1240.16 517.913
774 0 71.1758 15.5671 1108 88.4892 1239.11 516.799
775 0 74.1364 16.1054 1194 87.6809 1238.94 516.336
776 0 76.095 17.9775 1368 84.3984 1237.19 514.034
777 0 80.1634 17.0028 1363 85.7381 1236.07 513.905
778 0 83.1673 16.557 1377 85.5955 1234.41 513.91
779 0 87.2414 14.9126 1301 88.6656 1232.61 511.829
780 0 90.1215 16.4001 1478 86.2395 1229.26 512.733
781 0 92.1723 15.1021 1392 89.5093 1227.93 509.659
782 1 51.101 12.759 652 93.411 1226.99 531.224
783 0 51.0997 11.8592 606 94.0198 1225.51 532.086
784 0 54.095 12.3856 670 95.2463 1223.8 529.143
785 0 55.0663 14.9456 823 93.1373 1223.01 527.473
786 0 57.0409 13.8322 789 92.9176 1221.79 526.436
787 0 58.0877 15.5799 905 91.0398 1220.69 521.014
788 0 58.0819 13.2227 768 94.4154 1218.21 519.062
789 0 62.0959 15.2989 950 86.6 1217.19 517.898
790 0 62.0782 15.5449 965 87.6435 1216.83 516.385
791 0 65.215 14.7359 961 88.5005 1217.55 512.392
792 0 65.1426 16.3027 1062 86.7684 1216.58 512.526
793 0 68.3311 15.1468 1035 87.7797 1217.82 508.113
794 0 69.3352 17.6822 1226 84.3352 1218.44 507.424
795 0 70.1493 16.0942 1129 87.3162 1218.45 503.562
796 0 72.26 16.579 1198 85.7429 1219.91 505.791
797 0 73.3045 14.4602 1060 89.7236 1221.21 505.012
798 0 78.1629 16.5552 1294 85.6376 1222.96 500.699
799 0 81.2431 16.863 1370 84.9219 1225.5 501.596
800 0 82.2428 16.4148 1350 86.943 1227.85 500.92
801 0 85.3008 16.2015 1382 87.5572 1230.62 500.965
802 0 88.1958 15.5903 1375 88.2793 1234.24 498.882
803 0 93.4411 17.8615 1669 85.0965 1236.05 498.875
804 0 96.2306 15.972 1537 87.9278 1237.81 499.432
805 1 49.0996 13.6661 671 91.4322 1238.43 521.951
806 0 49.0604 12.7802 627 88.4577 1239.03 520.298
807 0 52.1336 13.5229 705 91.5574 1239.62 520.379
808 0 55.0796 15.4867 853 88.6823 1239.57 519.702
809 0 56.2467 15.3431 863 90.8331 1238.54 522.753
810 0 60.2367 16.4684 992 89.3669 1237.29 522.542
811 0 62.1195 15.1804 943 91.9586 1236.05 524.337
812 0 65.1886 15.9384 1039 90.4889 1234.36 522.45
813 0 65.1462 15.9027 1036 91.9015 1232.53 521.203
814 0 69.2057 16.9639 1174 90.6857 1229.67 517.83
815 0 71.2646 16.1371 1150 92.4313 1228.4 517.504
816 0 77.2526 17.0739 1319 89.1024 1226.7 516.992
817 0 76.2406 16.5529 1262 90.4469 1225.13 517.243
818 1 36.0604 12.4513 449 94.0713 1224.94 536.243
819 0 40.1189 13.6594 548 90.4617 1222.92 531.958
820 0 37.2242 12.6531 471 92.8365 1222.16 530.38
821 0 39.223 13.1045 514 85.4922 1220.02 528.64
822 0 41.0969 13.9913 575 87.1026 1220.09 529.243
823 0 41.2213 14.7011 606 88.3944 1218.64 524.551
824 0 44.1245 15.7735 696 85.8779 1218.69 523.182
825 0 47.2173 16.8582 796 81.9648 1218.1 521.255
826 0 44.1173 15.0735 665 88.1654 1217.72 519.671
827 0 49.2318 15.4981 763 84.8388 1218.32 515.972
828 0 49.1695 15.2127 748 86.3783 1218.95 515.163
829 0 50.1191 16.9197 848 85.2925 1220.67 511.538
830 0 53.1545 16.7248 889 84.0574 1220.65 512.579
831 0 51.0588 14.7281 752 89.9814 1222.25 508.512
832 0 56.1304 16.7645 941 86.136 1224.26 508.623
833 0 56.1335 15.7125 882 89.0408 1227.98 509.143
834 0 58.4259 16.3968 958 88.1002 1229.35 507.159
835 0 59.2695 16.484 977 89.4248 1232.18 508.43
836 0 63.3564 15.5154 983 91.6846 1234.19 508.199
837 0 66.5477 16.4544 1095 89.1406 1237.06 508.129
838 0 68.2666 16.5088 1127 89.6202 1238.82 507.544
839 0 73.2497 17.3379 1270 87.289 1239.93 507.107
840 0 74.3089 16.7005 1241 89.2651 1239.88 507.09
841 1 38.196 14.9754 572 96.3829 1241.09 525.406
842 0 37.1792 13.8787 516 98.5233 1239.34 526.386
843 0 42.3002 14.5626 616 96.7532 1237.58 523.459
844 0 42.2225 15.0394 635 96.2331 1235.95 522.787
845 0 44.1355 15.0446 664 96.5 1233.85 523.705
846 0 47.4584 14.8762 706 95.0425 1231.77 521.516
847 0 48.3066 14.8841 719 93.5104 1228.68 522.292
848 0 51.2651 16.9121 867 88.7163 1228.15 520.215
849 0 53.2041 15.4499 822 92.6156 1226.68 519.577
850 0 53.6318 16.3336 876 92.9486 1226.16 518.191
851 0 57.5721 17.5432 1010 90.0762 1222.68 516.525
852 0 60.4631 15.9436 964 92.5031 1221.71 516.283
853 0 61.285 16.3825 1004 93.6205 1221.23 515.237
854 0 63.4642 15.8042 1003 94.1904 1219.75 512.396
855 0 67.4849 16.463 1111 93.1224 1218.89 511.111
856 1 34.5034 14.3754 496 100.762 1218.24 523.159
857 0 34.4627 12.8545 443 103.467 1218.04 521.659
858 0 35.5788 12.6761 451 104.956 1217.68 520.63
859 0 37.5659 13.656 513 102.671 1217.17 519.936
860 0 37.4535 13.8839 520 104.131 1217.42 516.883
861 0 40.4778 13.2171 535 103.497 1218.91 516.211
862 0 40.513 14.9335 605 98.805 1219.04 515.694
863 0 41.6053 15.1663 631 98.8542 1220.3 513.666
864 0 43.4573 16.0157 696 96.7241 1221.99 514.772
865 0 45.1541 14.8159 669 99.6114 1222.87 515.468
866 0 45.3255 13.5906 616 104.222 1225.67 514.459
867 0 47.5079 14.8396 705 102.308 1228.28 512.332
868 0 45.3264 16.0833 729 104.174 1230.88 510.962
869 0 48.4164 13.8796 672 108.295 1232.71 513.116
870 0 51.4039 15.0378 773 104.155 1235.27 516.507
871 0 50.4019 14.5232 732 107.458 1236.71 514.951
872 0 53.127 15.2841 812 103.283 1238.52 513.355
873 0 54.1188 14.3943 779 105.442 1239.1 514.531
874 0 59.1426 15.1498 896 102.03 1239.79 514.209
875 0 61.2251 14.5038 888 103.293 1239.04 513.822
876 0 63.0894 14.0436 886 103.623 1237.9 513.22
877 0 66.3006 14.751 978 103.699 1236.84 512.298
878 0 68.1527 13.7192 935 105.63 1235.42 514.429
879 0 72.4187 16.0042 1159 99.9189 1233.37 511.556
880 0 74.3103 15.7986 1174 100.532 1230.9 511.906
881 0 76.3165 13.9681 1066 103.235 1228.87 513.604
882 0 78.2825 14.8181 1160 102.842 1226.02 508.371
883 0 82.4148 16.4291 1354 99.8567 1224.95 504.575
884 0 86.3318 16.2513 1403 99.459 1224.04 504.356
885 0 86.2356 15.0518 1298 103.503 1221.67 499.167
886 0 87.2866 13.5416 1182 106.071 1220.64 499.179
887 0 87.1715 13.8922 1211 106.597 1219.2 495.288
888 0 96.1275 16.0308 1541 101.121 1218.05 494.057
889 0 99.1411 16.0781 1594 100.509 1217.51 492.479
890 0 105.305 16.7988 1769 99.9271 1216.85 489.001
891 0 109.363 15.3342 1677 102.396 1215.91 484.949
892 0 111.523 16.0774 1793 101.333 1216.83 483.535
893 1 59.2044 10.033 594 99.3737 1215.59 507.118
894 0 59.6558 9.20279 549 103.934 1216.82 506.787
895 0 60.2471 11.3366 683 103.64 1217.57 507.479
896 0 68.3318 14.2393 973 94.5632 1218.29 505.495
897 0 69.2652 13.1957 914 93.9891 1219.12 504.072
898 0 73.4098 12.655 929 93.3584 1221.02 505.102
899 0 73.0878 13.6001 994 91.6056 1223.17 503.729
900 0 77.2265 13.1173 1013 92.3939 1225.37 501.314
901 0 79.1851 11.732 929 94.8687 1229.34 502.869
902 0 82.0834 13.1817 1082 93.8115 1232.05 498.409
903 0 85.1749 13.1846 1123 93.52 1234.7 498.335
904 1 46.0695 9.78956 451 90.5499 1238.02 520.308
905 0 48.0949 6.63273 319 90.8182 1239.2 524.969
906 0 48.0949 6.57035 316 127.88 1240.19 524.883
907 0 52.1546 8.97332 468 90.7949 1239.01 519.795
908 0 57.1093 10.0334 573 89.5096 1239.71 520.159
909 0 58.1446 11.867 690 87.8101 1239.83 520.738
910 0 58.1596 10.3336 601 87.7537 1235.85 520.291
911 0 60.095 11.0658 665 86.5549 1234.72 521.361
912 0 62.2635 11.098 691 87.2344 1232.96 521.528
913 0 65.1651 11.1256 725 87.1572 1230.99 520.869
914 0 66.1939 10.3937 688 89.7456 1228.43 518.637
915 1 38.1464 7.81201 298 87.2819 1226.51 533.436
916 0 36.1071 8.9733 324 86.0463 1224.62 533.497
917 0 35.1036 5.0707 178 88.5112 1223.89 536.382
918 0 41.2132 7.95862 328 85.8354 1221.71 532.174
919 0 39.0604 6.45155 252 86.3929 1220.35 532.746
920 0 40.1764 8.06444 324 86.4599 1218.59 529.333
921 0 43.1601 8.68857 375 85.0507 1218.83 528.541
922 0 45.1225 9.15286 413 85.5787 1216.21 523.949
923 1 26.0566 4.60535 120 88.125 1216.06 533.508
924 0 26.0322 5.33954 139 87.9137 1216.63 532.295
925 0 19.0144 7.94137 151 84.4768 1216.3 532.636
926 0 25.0058 5.95863 149 87.7181 1216.48 529.772
927 0 25.0498 6.62681 166 87.3976 1217.16 530.277
928 0 22.0139 6.76844 149 87.4765 1217.68 530.43
929 0 20.0141 5.14636 103 85.1068 1218.83 532.126
930 0 28.0126 5.71171 160 91.8062 1219.49 524.656
931 0 28.0093 8.17584 229 88.4192 1220.59 525.087
932 0 31.0102 5.83678 181 89.1989 1223.08 524.867
933 0 28.0145 7.78168 218 86.2248 1226.74 524.885
934 0 33.0497 8.13927 269 85.9071 1227.25 524.156
935 0 29.0273 6.13216 178 87.6685 1230.81 525.831
936 0 30.093 8.20788 247 85.7773 1232.77 525.996
937 0 31.0138 4.5786 142 89.9789 1235.44 527.38
938 0 30.0105 6.26448 188 87.2181 1237.41 528.404
939 0 34.0227 5.87843 200 89.845 1239.38 525.665
940 0 34.0258 5.08438 173 92.2486 1239.8 524.145
941 0 38.0605 8.53903 325 85.8185 1242.37 525.997
942 0 43.0732 7.89354 340 85.4706 1242.25 528.697
943 0 41.0495 6.5287 268 87.9142 1240.18 527.418
944 0 42.02 7.61542 320 86.5281 1239.97 527.906
945 0 47.0809 8.62345 406 83.7882 1237.02 529.729
946 0 47.0861 9.83305 463 82.3348 1235.91 528.056
947 0 47.0344 9.95016 468 84.6603 1233.63 528.096
948 0 50.0519 10.589 530 80.3415 1231.13 526.255
949 0 51.1161 11.0728 566 80.1537 1229.39 524.479
950 0 55.0778 12.437 685 77.6204 1227.64 523.18
951 0 56.1216 12.4373 698 79.3209 1225.39 523.107
952 0 57.099 10.1753 581 83.2978 1224.59 521.797
953 0 57.1075 11.9424 682 81.2727 1222.85 518.652
954 0 58.0666 12.2101 709 80.6939 1221.62 517.457
955 0 62.1037 12.5596 780 79.0192 1220.59 514.013
956 0 64.1523 13.9044 892 76.9406 1219.13 511.765
957 0 65.115 12.7313 829 79.1001 1218.87 509.823
958 0 64.1413 11.1005 712 82.6278 1218.74 509.694
959 0 68.1265 11.3025 770 82.2714 1218.31 505.608
960 0 68.0821 11.9415 813 81.1784 1218.4 504.117
961 0 72.0819 12.3193 888 79.3761 1219.1 501.3
962 0 75.1003 13.1957 991 77.1009 1220.13 500.674
963 0 75.0975 12.4771 937 79.19 1220.9 499.93
964 0 79.1349 13.1421 1040 77.9856 1223.15 498.041
965 0 81.1448 12.0156 975 80.0431 1225.07 499.727
966 1 42.0416 9.18139 386 83.8238 1227.93 519.22
967 0 44.054 9.28405 409 84.9535 1230.26 518.66
968 0 46.0289 10.1892 469 85.5778 1233.46 518.128
969 0 48.0735 11.4824 552 82.625 1235.93 517.739
970 0 49.1058 12.0963 594 82.0758 1237.83 515.044
971 0 50.0366 11.7714 589 83.2003 1241 518.902
972 0 52.0342 12.511 651 83.0937 1241.82 517.989
973 0 54.0108 11.2755 609 85.89 1242.43 518.269
974 0 57.023 13.3104 759 81.7997 1242.61 520.219
975 0 58.0423 14.231 826 81.2082 1241.07 519.576
976 0 60.0952 14.0943 847 80.9941 1239.98 522.656
977 0 62.0967 13.3985 832 83.0493 1238.94 520.754
978 0 63.0686 13.5725 856 84.2792 1236.84 519.419
979 0 64.084 13.6384 874 84.0343 1234.46 518.469
980 0 68.1089 13.0233 887 85.3732 1232.13 516.117
981 0 72.0584 14.0719 1014 82.8116 1230.3 515.115
982 0 75.0499 16.1359 1211 79.687 1228.97 512.088
983 1 35.0867 8.77826 308 88.9545 1228.12 531.763
984 0 40.0463 10.3131 413 86.0169 1226.4 529.814
985 0 42.0224 10.8989 458 84.7991 1225.14 526.105
986 0 43.039 12.0124 517 84.5048 1222.67 527.058
987 0 45.4246 12.9225 587 83.075 1219.73 523.129
988 0 46.5478 12.3744 576 84.651 1217.67 519.233
989 0 46.0222 11.6466 536 87.0075 1220.09 516.836
990 0 50.0494 13.207 661 83.413 1219.48 517.579
991 0 52.0825 12.9026 672 84.7321 1219.26 517.445
992 0 55.1309 12.5338 691 84.1259 1219.11 514.469
993 0 55.1604 12.7447 703 83.0725 1220.17 510.175
994 0 56.0741 12.323 691 84.7323 1220.04 509.13
995 0 58.0809 14.0666 817 82.9082 1220.88 509.706
996 0 60.0522 13.022 782 85.9527 1222.47 508.032
997 0 60.1089 13.0596 785 86.6828 1223.78 505.876
998 0 62.0292 13.6549 847 85.6612 1226.94 507.967
999 0 62.1036 12.447 773 89.9534 1229.45 503.806
1000 0 66.1892 14.7456 976 84.7408 1232.19 505.993
1001 0 68.1385 14.5879 994 85.8159 1233.98 504.088
1002 0 71.1266 13.3705 951 87.5005 1237.41 507.248
1003 0 73.0831 12.9031 943 88.4571 1238.59 508.42
1004 0 76.1288 13.9106 1059 86.9641 1241.03 504.889
1005 0 81.1443 13.8149 1121 87.124 1242.3 505.534
1006 1 40.1784 11.3743 457 87.5033 1243.14 526.155
1007 0 43.1373 11.22 484 85.9029 1242.81 528.82
1008 0 43.1828 10.9534 473 86.5116 1242.64 528.256
1009 0 47.1472 12.7897 603 83.5589 1239.81 525.861
1010 0 49.1002 12.3829 608 83.2615 1239.44 525.576
1011 0 50.1737 12.3371 619 84.5186 1237.8 523.622
1012 0 53.0844 13.7893 732 80.0874 1235.94 527.432
1013 0 54.2407 14.3803 780 78.7295 1232.89 527.624
1014 0 58.1263 15.7588 916 75.3035 1231.09 527.499
1015 0 58.0882 14.1337 821 78.7881 1229.17 528.469
1016 0 57.0799 13.0168 743 82.284 1228.13 524.825
1017 0 61.0924 14.7318 900 78.8889 1225.78 524.344
1018 0 62.2188 13.8704 863 79.3975 1225.17 520.335
1019 0 63.2291 15.3727 972 78.5123 1223.16 518.63
1020 0 65.2689 14.9842 978 79.9213 1222.39 517.566
1021 0 64.2785 13.0681 840 83.9929 1220.76 515.642
1022 0 68.1851 14.754 1006 80.1153 1219.41 514.228
1023 0 68.1332 13.9873 953 82.852 1219.45 509.503
1024 0 73.2989 14.1475 1037 81.216 1219.17 508.381
1025 0 73.3843 13.5996 998 81.9629 1219.37 504.806
1026 0 76.1846 14.2023 1082 81.1876 1219.09 505.177
1027 0 77.3541 12.9663 1003 83.7258 1219.18 504.09
1028 1 43.0253 11.6908 503 84.7058 1221.27 520.839
1029 0 44.1783 11.7931 521 84.1919 1222.06 519.75
1030 0 45.0147 12.0627 543 87.1565 1224.5 516.271
1031 0 46.0366 12.338 568 87.5616 1226.09 515.743
1032 0 49.1155 12.155 597 86.3652 1228.15 515.363
1033 0 50.1023 13.9714 700 83.18 1231.77 514.186
1034 0 52.0566 14.0232 730 82.7384 1233.48 515.344
1035 0 53.1173 15.1551 805 82.0248 1235.01 515.128
1036 0 53.1368 13.0606 694 87.2925 1238.02 517.193
1037 0 54.0825 13.5349 732 86.056 1239.15 517.448
1038 0 57.0993 14.7813 844 85.4005 1240.77 514.473
1039 0 59.1351 14.2724 844 86.3744 1241.38 517.194
1040 0 61.1101 16.0039 978 82.5859 1241.08 519.237
1041 0 64.3025 15.5359 999 83.014 1239.65 518.091
1042 0 64.1589 14.7602 947 84.9757 1238.79 517.884
1043 0 67.1718 14.0088 941 85.2083 1236.72 519.963
1044 0 68.1067 15.0352 1024 84.7217 1235.21 518.235
1045 0 72.1938 14.752 1065 85.0113 1232 517.331
1046 0 75.2269 17.2943 1301 80.6234 1229.94 516.156
1047 0 79.2905 15.1468 1201 83.9958 1228.35 514.265
1048 0 80.1424 14.6115 1171 84.8796 1226.6 515.088
1049 0 82.1962 14.6844 1207 85.8708 1224.83 510.48
1050 0 85.1747 14.8871 1268 86.1199 1223.03 511.774
1051 1 45.0251 10.3276 465 91.1484 1222.68 529.335
1052 0 46.0336 10.0144 461 91.8113 1221.31 527.907
1053 0 49.0727 12.8789 632 87.5997 1219.94 526.016
1054 0 49.045 11.3569 557 92.3662 1218.93 524.436
1055 0 52.0669 12.3303 642 90.6433 1217.57 521.357
1056 0 53.1691 13.9179 740 81.4784 1218.13 519.973
1057 0 54.0507 13.2098 714 83.1611 1216.73 519.458
1058 0 55.0798 13.3261 734 83.9401 1215.49 517.894
1059 0 57.0618 13.5993 776 84.1765 1213.44 513.36
1060 0 59.1125 14.4301 853 81.7831 1214.08 510.426
1061 0 60.17 13.8773 835 84.2275 1215.71 509.647
1062 0 62.1411 13.6946 851 84.5558 1216.21 508.417
1063 0 64.1351 14.9372 958 82.8643 1217.88 506.771
1064 0 66.1279 13.7915 912 84.5691 1219.93 505.28
1065 0 69.1364 16.0263 1108 81.2879 1222.31 507.352
1066 0 72.1275 15.0705 1087 82.7176 1224.74 502.641
1067 0 74.2223 15.9117 1181 81.2913 1227.79 502.44
1068 0 76.2188 14.524 1107 84.495 1229.45 503.628
1069 0 80.1262 15.4631 1239 82.837 1231.85 502.474
1070 0 81.0944 15.5621 1262 83.5951 1234.23 503.457
1071 0 82.1722 13.9098 1143 88.5591 1235.17 503.531
1072 1 44.1102 11.834 522 90.8544 1235.18 523.948
1073 0 46.2359 9.14874 423 94.2648 1235 525.22
1074 0 48.1355 9.57713 461 94.3623 1234.89 525.798
1075 0 49.0933 10.8772 534 93.4157 1234.14 525.341
1076 0 51.1383 10.9116 558 90.2796 1232.08 524.839
1077 0 53.1725 12.7698 679 84.1105 1231.97 522.275
1078 0 55.1891 12.122 669 84.4634 1229.98 519.408
1079 0 57.2248 13.5431 775 84.5084 1227.48 523.773
1080 0 58.2134 12.918 752 85.2886 1225.7 519.947
1081 0 59.146 13.1877 780 85.5808 1224.39 522.922
1082 0 62.2412 13.1906 821 85.7905 1223.82 519.659
1083 0 65.31 14.5307 949 82.9146 1222.9 517.921
1084 0 66.2557 13.2064 875 85.6971 1221.1 517.187
1085 0 68.1586 14.2315 970 84.7567 1219.72 514.481
1086 0 70.252 13.8074 970 85.6412 1219.17 512.843
1087 0 73.1838 14.2655 1044 84.5948 1218.55 510.931
1088 0 73.2369 13.3539 978 85.6125 1217.25 507.332
1089 0 79.2272 13.922 1103 83.0435 1216.7 507.123
1090 0 81.232 15.5481 1263 81.2961 1216.95 502.058
1091 1 43.0316 11.8053 508 82.6594 1214.81 522.341
1092 0 41.0619 10.5694 434 87.4401 1215.33 518.53
1093 0 43.0838 11.5821 499 84.7455 1216.58 520.212
1094 0 44.0266 11.6975 515 85.7068 1217.49 517.897
1095 0 48.0285 12.2219 587 85.6065 1219.63 517.896
1096 0 48.0763 12.1682 585 85.8205 1221.7 515.942
1097 0 48.3011 13.0432 630 85.2127 1226.38 512.986
1098 0 49.3659 11.5262 569 88.4815 1228.53 511.78
1099 0 52.5112 12.9687 681 85.7856 1229.65 510.316
1100 0 54.1046 14.2317 770 82.0714 1233.77 514.77
1101 0 56.1291 13.9144 781 83.2394 1234.57 512.905
1102 0 56.0926 13.4064 752 85.125 1237.37 513.887
1103 0 59.0496 13.8866 820 84.4756 1238.76 515.584
1104 0 58.1699 13.4262 781 86.685 1239.39 513.526
1105 0 63.1193 14.132 892 84.63 1240.37 514.16
1106 0 65.1419 14.6143 952 84.104 1240.09 513.083
1107 0 66.05 13.4141 886 86.4503 1239.43 512.391
1108 0 70.1033 15.4058 1080 83.6722 1237.84 513.937
1109 0 71.149 15.2216 1083 85.3444 1236.88 513.029
1110 0 75.1162 15.0966 1134 85.7778 1234.21 512.88
1111 0 78.0577 17.5383 1369 80.7064 1232.73 510.732
1112 0 79.1045 14.6894 1162 86.506 1229.75 508.36
1113 0 80.1629 13.2605 1063 89.7695 1227.16 506.109
1114 0 83.1014 13.8505 1151 89.775 1225.92 505.748
1115 0 86.1526 15.5422 1339 87.5452 1224.14 501.672
1116 1 49.0927 10.9589 538 90.5781 1223.86 523.173
1117 0 50.0324 11.0528 553 90.1356 1222.15 522.201
1118 0 50.1317 10.612 532 93.1579 1220.48 519.536
1119 0 52.1386 11.2009 584 92.274 1220.16 516.649
1120 0 52.3171 13.0741 684 90.2632 1217.61 511.803
1121 0 55.1992 12.4096 685 79.8657 1216.98 506.895
1122 0 57.1546 12.9998 743 78.8493 1215.65 505.022
1123 0 58.0472 13.3512 775 78.9639 1215.92 502.466
1124 0 60.0789 12.5835 756 79.0675 1216.52 501.224
1125 0 62.1217 12.3628 768 79.6589 1217.41 500.499
1126 0 62.1453 10.1054 628 83.7309 1218.36 497.626
1127 0 66.1263 12.34 816 80.9681 1219.89 494.199
1128 0 67.0728 12.2255 820 81.4768 1222.28 497.561
1129 0 70.1351 14.0158 983 79.0885 1224.61 495.212
1130 0 72.2106 13.1144 947 81.6674 1227.12 493.939
1131 1 40.3516 7.85595 317 80.5931 1230.7 514.18
1132 0 41.1533 8.52908 351 80.6553 1233.26 514.014
1133 0 43.1388 11.3123 488 77.7377 1234.8 514.088
1134 0 43.201 8.58776 371 79.6388 1236.82 517.105
1135 0 45.1558 8.57033 387 82.354 1238.32 516.359
1136 0 47.3195 10.3763 491 80.169 1239.13 515.798
1137 0 51.2404 13.9343 714 79.014 1240.43 520.522
1138 0 52.2416 12.691 663 84.1448 1240.98 519.428
1139 0 54.1327 13.9472 755 81.1841 1240.19 521.052
1140 0 55.1491 12.4571 687 81.2984 1237.17 520.444
1141 0 58.3621 14.2216 830 79.1048 1236.4 520.478
1142 0 59.2373 13.0998 776 81.7436 1235.37 519.965
1143 0 63.2184 15.2645 965 78.0373 1231.4 521.52
1144 0 63.1069 14.6418 924 80.5747 1229.46 520.248
1145 0 64.2918 14.0764 905 82.7823 1227.74 519.303
1146 0 68.2135 14.6305 998 82.7745 1226.11 517.085
1147 0 71.2658 15.7579 1123 81.1273 1224.82 516.95
1148 0 70.204 14.7855 1038 86.0973 1223.43 514.961
1149 0 73.2456 14.6493 1073 86.7875 1221.43 512.354
1150 0 76.2134 14.63 1115 87.3354 1219.98 511.401
1151 0 80.2209 15.3825 1234 87.2861 1218.38 509.046
1152 0 81.2217 15.8824 1290 87.6674 1217.08 506.789
1153 0 84.4057 14.5606 1229 90.3515 1217.07 505.398
1154 0 87.2213 15.5696 1358 89.0913 1216.25 501.823
1155 1 46.0503 10.0759 464 95.5431 1216.89 522.944
1156 0 47.0931 11.318 533 94.3358 1217 519.407
1157 0 49.0486 11.8046 579 92.6839 1218.04 517.309
1158 0 51.0763 10.8269 553 94.9747 1218.89 517.306
1159 0 52.1116 12.5116 652 90.5276 1219.85 515.52
1160 0 52.1309 12.0658 629 92.1431 1221.04 514.893
1161 0 55.0709 13.3464 735 89.8599 1222.83 514.903
1162 0 55.0868 13.1066 722 90.669 1226.11 515.223
1163 0 57.1452 12.302 703 92.7895 1227.56 515.053
1164 0 59.1078 13.2131 781 92.3457 1231 515.184
1165 0 62.0523 13.6498 847 91.9138 1233.91 513.503
1166 0 61.1063 13.2229 808 94.2042 1235.96 509.323
1167 0 65.0848 12.9984 846 93.3759 1236.61 513.746
1168 0 66.1714 13.7522 910 91.2253 1237.93 513.562
1169 0 68.2415 13.7893 941 91.9575 1238.86 514.407
1170 0 72.1671 14.12 1019 91.3994 1238.59 514.179
1171 1 37.0916 9.9214 368 95.9511 1238.55 531.598
1172 0 39.0851 10.0806 394 94.3071 1237.28 530.299
1173 0 42.1701 11.667 492 93.3963 1235.37 530.738
1174 0 43.181 11.7644 508 94.6516 1233.49 533.199
1175 0 45.2212 12.3836 560 93.6179 1231.6 532.605
1176 0 45.0401 13.8543 624 91.883 1228.76 530.223
1177 0 49.1668 13.8305 680 91.8088 1226.57 528.309
1178 0 49.0915 13.5665 666 89.8498 1221.34 530.195
1179 0 50.1177 13.9671 700 89.53 1220.14 528.9
1180 0 53.0257 15.0305 797 87.2785 1218.96 526.795
1181 0 54.0995 12.9761 702 89.3006 1216.07 525.554
1182 0 54.1091 12.4009 671 90.5991 1216.06 525.906
1183 0 58.0622 15.2939 888 85.6768 1214.73 522.946
1184 0 58.1563 14.3922 837 89.6499 1214.25 520.208
1185 0 61.2259 15.7776 966 85.6687 1213.34 518.935
1186 0 61.202 13.7577 842 90.747 1211.99 517.471
1187 0 65.0872 15.1182 984 87.3852 1212.53 516.074
1188 0 66.114 15.3069 1012 87.8775 1212.09 512.071
1189 0 66.0896 14.2836 944 89.2309 1213.85 509.329
1190 0 69.0912 12.592 870 91.6609 1214.32 506.539
1191 0 72.0555 15.4464 1113 86.0943 1215.03 505.976
1192 0 74.104 14.79 1096 87.6405 1216.35 503.187
1193 1 39.2512 10.0634 395 91.5139 1218.33 525.478
1194 0 39.2694 12.1723 478 89.6088 1220.94 522.379
1195 0 41.2784 11.1681 461 90.1171 1223.44 524.134
1196 0 40.1111 11.518 462 91.5346 1224.59 522.1
1197 0 44.0694 13.3199 587 86.2777 1227.38 521.905
1198 0 46.0661 13.8062 636 86.4717 1230.42 523.706
1199 0 48.2489 14.7361 711 81.0872 1233.01 522.727
1200 0 49.2405 14.5206 715 82.6112 1234.45 521.123
1201 0 49.0854 13.8534 680 84.1912 1235.65 522.263
1202 0 50.1495 14.716 738 82.9282 1236.39 523.516
1203 0 52.1193 12.9894 677 85.6765 1236.54 524.372
1204 0 56.1519 13.8019 775 83.0142 1235.26 524.368
1205 0 58.1184 15.262 887 77.6077 1234.95 520.947
1206 0 60.1737 13.7269 826 81.3692 1233.86 521.053
1207 0 62.323 12.6759 790 83.0785 1231.7 522.8
1208 0 64.1527 13.7017 879 83.8373 1228.81 519.199
1209 0 67.1894 12.7252 855 85.8304 1226.35 516.91
1210 0 69.2832 14.6356 1014 83.93 1224.38 518.182
1211 0 71.1772 12.6866 903 88.6279 1223.47 516.774
1212 0 75.1744 15.6436 1176 84.4532 1222.54 513.272
1213 0 76.3001 14.7837 1128 87.1817 1219.84 511.018
1214 0 82.1831 15.0639 1238 86.5994 1218.6 511.354
1215 1 42.054 10.7005 450 90.56 1216.33 528.418
1216 0 43.0592 11.5423 497 92.1268 1214.73 524.831
1217 0 48.1482 11.5684 557 90.9031 1214.71 524.063
1218 0 47.1218 11.0352 520 90.7058 1217.55 523.131
1219 0 50.1023 12.5344 628 87.465 1217.72 522.467
1220 0 53.3388 12.2237 652 87.9586 1217.58 521.285
1221 0 53.2516 13.8024 735 87.5401 1216.84 518.925
1222 0 53.0944 13.7114 728 89.1648 1217.21 517.799
1223 0 56.1948 13.8803 780 85.8628 1218.84 516.023
1224 0 57.1753 14.132 808 85.8465 1218.82 513.113
1225 0 59.1945 15.0183 889 84.4691 1221.38 512.072
1226 0 61.1024 15.3676 939 84.1896 1222.78 510.868
1227 0 61.0917 12.735 778 88.901 1226.27 511.012
1228 0 66.1496 15.1475 1002 84.0968 1228.52 510.953
1229 0 66.1985 13.2783 879 89.0501 1231.34 509.119
1230 0 69.1293 13.8147 955 89.6262 1234.06 508.399
1231 0 71.4004 14.4957 1035 88.7159 1235.78 508.947
1232 0 75.2439 15.2039 1144 87.3112 1237.87 508.309
1233 0 78.326 13.4183 1051 90.509 1238.85 508.745
1234 0 80.1381 13.8261 1108 91.1588 1239.83 505.913
1235 0 83.2403 13.0706 1088 91.9853 1239.46 505.676
1236 0 86.1567 14.8218 1277 90.0572 1239.19 504.174
1237 1 46.0391 11.6423 536 91.0019 1239.18 530.196
1238 0 45.0471 10.6111 478 93.3305 1237.74 529.266
1239 0 48.0147 10.226 491 92.9552 1235.76 530.228
1240 0 51.0786 11.081 566 92.1625 1234.85 528.394
1241 0 53.1212 11.7279 623 92.5104 1232.18 526.507
1242 0 54.1009 13.1051 709 89.598 1229.01 528.159
1243 0 58.1211 13.0073 756 88.582 1224.81 523.512
1244 0 60.1901 15.883 956 84.0962 1223.77 522.468
1245 0 59.323 11.7829 699 91.525 1222.54 521.694
1246 0 63.3281 13.9275 882 88.1485 1220.83 519.639
1247 0 63.2375 13.1093 829 91.082 1219.86 519.285
1248 0 66.2557 15.0025 994 87.339 1218.73 517.231
1249 0 68.1688 13.892 947 88.0317 1217.46 516.596
1250 0 71.1886 12.1368 864 89.6088 1216.83 511.376
1251 0 73.261 14.4688 1060 86.1179 1216.62 507.007
1252 0 75.1647 13.3573 1004 87.7928 1216.51 503.925
1253 0 78.2213 13.3979 1048 87.5219 1216 500.833
1254 0 81.1593 14.4161 1170 86.853 1217.03 499.276
1255 0 86.2547 13.3674 1153 86.8977 1217.71 498.236
1256 0 89.2243 15.8141 1411 83.0943 1217.89 495.245
1257 0 92.3661 12.9701 1198 86.3172 1218.62 494.826
1258 1 49.0556 9.56057 469 84.3092 1220.15 514.062
1259 0 48.0792 10.1083 486 83.0329 1222.55 514.817
1260 0 51.0522 11.4001 582 79.9003 1225.35 512.883
1261 0 51.2131 11.911 610 76.7443 1228.17 507.233
1262 0 54.2503 13.6036 738 76.752 1231.03 512.949
1263 0 54.2304 12.0412 653 80.5207 1234.02 513.501
1264 0 55.1458 12.5485 692 80.4306 1235.42 512.96
1265 0 61.1645 14.4365 883 77.2084 1237.58 512.378
1266 0 63.1215 14.3216 904 77.646 1237.54 513.665
1267 0 64.2531 13.12 843 78.8695 1238.3 512.216
1268 0 68.0554 15.4433 1051 75.3359 1238.23 512.797
1269 0 68.216 12.5044 853 80.7808 1237.14 510.916
1270 0 72.0683 13.4456 969 79.0052 1236.55 511.645
1271 0 77.1335 14.0795 1086 77.7385 1234.63 510.556
1272 0 78.1859 15.0411 1176 76.5213 1233.91 507.137
1273 1 43.015 11.2519 484 81.155 1234.13 531.75
1274 0 43.024 11.0868 477 83.9119 1231.91 530.432
1275 0 44.0403 11.5576 509 82.8703 1229.46 531.534
1276 0 45.1601 10.9167 493 82.8276 1228.27 528.333
1277 0 49.2356 13.5877 669 79.8744 1227.44 527.06
1278 0 50.4877 12.8546 649 83.2219 1225.24 522.831
1279 0 50.2227 14.0176 704 81.8366 1223.76 524.196
1280 0 53.3032 13.3575 712 82.0674 1222.58 522.324
1281 0 54.0785 12.7407 689 84.3425 1221.45 519.733
1282 0 54.0895 12.0911 654 86.0474 1220.07 518.812
1283 0 58.2517 13.8708 808 82.4629 1219.31 516.848
1284 0 60.1171 14.7878 889 82.9134 1218 514.157
1285 0 63.0805 15.2821 964 80.0488 1217.54 512.578
1286 0 64.2266 14.044 902 83.061 1217.52 510.437
1287 0 66.3747 14.0867 935 81.907 1217.93 508.826
1288 0 69.2907 17.0874 1184 78.4907 1219.12 504.987
1289 0 69.1512 13.7525 951 86.0179 1221.18 505.438
1290 0 72.2147 13.5983 982 85.112 1221.77 502.645
1291 0 76.1245 15.1068 1150 82.3339 1224.56 502.985
1292 0 78.2217 15.6734 1226 82.7219 1226.49 501.008
1293 0 81.1977 14.7541 1198 85.182 1228.99 501.691
1294 0 83.3072 14.9687 1247 84.6792 1231.27 500.217
1295 1 44.2065 11.8761 525 90.1105 1234.57 518.137
1296 0 45.0721 12.1805 549 90.5464 1237.54 517.862
1297 0 48.0439 12.6967 610 88.7754 1239.19 519.379
1298 0 51.2605 13.5972 697 85.7073 1238.76 519.769
1299 0 51.2496 14.1465 725 82.6317 1238.71 518.261
1300 0 53.3095 12.343 658 85.1322 1238.69 519.714
1301 0 53.0807 12.6788 673 85.0193 1238.75 519.85
1302 0 61.1463 14.8496 908 82.3722 1235.16 517.176
1303 0 62.2169 13.1636 819 84.7375 1233.24 518.083
1304 0 65.1516 14.167 923 83.2763 1231.95 516.31
1305 0 67.2056 15.2071 1022 81.3787 1230.04 514.339
1306 0 69.1385 14.5794 1008 83.1915 1228.18 512.449
1307 0 71.1028 15.4706 1100 82.3673 1226.32 511.187
1308 0 72.2576 13.6733 988 85.8765 1224.56 511.061
1309 0 77.2796 14.247 1101 84.7103 1223.44 508.23
1310 1 39.0557 10.1906 398 90.799 1220.88 527.58
1311 0 43.0233 11.6681 502 88.4622 1218.27 525.404
1312 0 45.1494 12.1818 550 87.2036 1217.71 523.653
1313 0 49.067 13.023 639 88.7621 1215.99 520.515
1314 0 50.0584 12.4654 624 87.9503 1214.6 515.659
1315 0 53.0603 14.4741 768 86.0026 1214.09 512.107
1316 0 54.0605 13.5589 733 87.7831 1214.27 514.475
1317 0 56.064 15.1791 851 84.3619 1214.38 511.537
1318 0 56.0467 13.4531 754 87.6207 1215.5 510.936
1319 0 59.0702 14.796 874 84.4474 1217.24 511.295
1320 0 62.1352 16.3353 1015 81.069 1217.23 509.623
1321 0 63.0974 14.8817 939 84.9052 1219.74 508.422
1322 0 65.1609 14.257 929 85 1222.69 508.705
1323 0 68.1327 15.0295 1024 83.3662 1224.82 507.996
1324 0 68.2516 12.7762 872 86.1067 1227.97 507.854
1325 0 71.1694 13.6014 968 86.874 1229.98 510.598
1326 0 74.1291 14.4208 1069 85.4022 1232.05 509.677
1327 0 76.1526 13.0265 992 88.1885 1232.91 507.628
1328 1 40.0959 10.5996 425 91.6635 1233.39 528.209
1329 0 44.0567 10.6 467 89.4111 1233.72 530.758
1330 0 43.0919 9.25928 399 93.7945 1233.64 529.945
1331 0 44.1639 11.3441 501 91.2156 1234 530.317
1332 0 47.3375 12.3792 586 85.7406 1233.51 529.831
1333 0 50.3808 13.4178 676 83.3299 1231.21 531.791
1334 0 50.0912 12.2776 615 83.9366 1230.95 532.982
1335 0 50.0873 12.0989 606 84.231 1227.56 533.917
1336 0 54.0799 12.9808 702 81.339 1225.48 534.316
1337 0 56.1591 13.7823 774 81.3966 1223.55 534.395
1338 0 59.0653 13.7136 810 80.6247 1221.14 532.825
1339 0 59.0926 14.0796 832 80.7728 1220.31 532.023
1340 0 63.1978 16.8677 1066 75.2167 1218.57 532.415
1341 0 62.1311 13.1174 815 82.2282 1216.56 527.232
1342 0 65.2063 14.8299 967 79.4157 1215.59 524.979
1343 0 66.1781 13.237 876 81.4315 1214.02 523.034
1344 0 69.2852 14.5486 1008 79.5486 1212.81 521.718
1345 0 70.3167 14.7476 1037 79.6972 1211.46 518.836
1346 0 74.619 13.2004 985 81.9279 1211.02 515.635
1347 1 38.2018 10.5231 402 85.9279 1210.93 535.925
1348 0 42.1183 12.7973 539 82.3135 1211.62 532.653
1349 0 39.0368 10.6822 417 86.1391 1211.91 531.739
1350 0 39.1491 11.5456 452 84.1748 1213.25 530.535
1351 0 41.1059 8.44162 347 88.147 1212.58 530.597
1352 0 44.1495 13.1825 582 82.2423 1214.1 524.098
1353 0 45.1664 11.048 499 84.8717 1216.47 525.81
1354 0 48.2007 13.3816 645 83.0558 1218.53 524.436
1355 0 48.2447 13.0584 630 87.7032 1219.2 523.387
1356 0 51.2317 14.8931 763 83.7746 1221.29 523.189
1357 0 52.3282 12.4789 653 88 1225.34 521.64
1358 0 55.071 15.3257 844 82.1528 1225.8 523.97
1359 0 55.0347 13.2099 727 86.0688 1227.13 525.006
1360 0 57.0771 13.4205 766 86.3982 1228.84 525.24
1361 0 61.0814 13.8995 849 86.3286 1229.57 522.886
1362 0 64.028 13.619 872 86.8911 1229.22 523.45
1363 0 66.046 13.2938 878 87.7005 1228.88 522.185
1364 0 70.1117 13.4642 944 86.7299 1227.94 523.058
1365 0 72.042 13.7559 991 86.3148 1226.9 522.574
1366 0 76.122 14.4899 1103 85.1904 1226.35 521.442
1367 0 79.0519 15.9515 1261 83.4512 1224.41 521.504
1368 0 80.0741 14.2993 1145 88.0271 1219.67 522.138
1369 0 85.1982 14.2726 1216 87.509 1217.52 520.229
1370 0 88.1416 13.7166 1209 88.7792 1214.97 516.818
1371 0 89.1063 15.5657 1387 86.788 1213.84 514.355
1372 1 52.0598 11.6597 607 89.2554 1212.07 532.42
1373 0 52.0783 10.5418 549 89.6958 1210.69 533.581
1374 0 51.0409 11.0108 562 90.6904 1208.43 530.918
1375 0 53.1218 12.9702 689 87.5864 1206.99 531.044
1376 0 58.0564 14.6065 848 84.7618 1206.57 527.849
1377 0 60.1225 14.5203 873 83.7468 1206.5 525.55
1378 0 60.0785 14.8472 892 82.8621 1206.93 524.203
1379 0 62.1396 14.3548 892 83.9271 1207.92 520.18
1380 0 62.1225 14.7773 918 85.1634 1208.68 518.928
1381 0 68.1418 16.1868 1103 83.4742 1208.81 514.794
1382 0 67.2715 15.3111 1030 86.7913 1210.3 514.9
1383 0 70.1709 15.3197 1075 88.4121 1211.99 513.436
1384 0 73.2602 15.6019 1143 88.7813 1214.05 513.341
1385 0 77.4357 17.9245 1388 84.9078 1216.94 511.838
1386 0 77.5447 14.727 1142 91.9124 1220.07 509.75
1387 0 79.4492 14.9655 1189 93.9445 1222.33 508.026
1388 0 82.5123 14.9069 1230 96.4033 1224.72 507.551
1389 1 46.2207 11.1855 517 99.8046 1228.08 527.044
1390 0 48.2198 12.8578 620 96.5532 1229.94 526.232
1391 0 47.3307 11.7471 556 100.383 1231.79 527.906
1392 0 49.2917 11.4624 565 94.0442 1231.3 525.85
1393 0 51.181 12.661 648 91.1836 1232.65 525.378
1394 0 54.1337 12.7093 688 86.8561 1232.78 526.445
1395 0 56.1176 13.5965 763 86.9292 1233.06 525.005
1396 0 57.0546 12.7597 728 89.5563 1230.93 526.054
1397 0 61.0639 14.6404 894 84.8154 1229.8 526.066
1398 0 59.0413 12.1949 720 91.7986 1227.44 524.707
1399 0 64.0691 13.6727 876 88.5719 1223.78 522.844
1400 0 64.1258 12.2883 788 92.3858 1219.72 521.943
1401 0 69.256 14.8868 1031 87.1794 1218.07 520.59
1402 0 73.1567 14.6808 1074 86.9041 1216.04 519.435
1403 0 74.1132 13.358 990 90.0091 1214.25 520.466
1404 0 77.1043 14.0978 1087 90.2613 1212.65 515.92
1405 0 79.1295 14.9755 1185 88.6726 1211.47 514.977
1406 0 81.2378 12.765 1037 92.243 1209.68 513.755
1407 1 42.0094 10.212 429 91.7203 1208.34 530.103
1408 0 44.0311 9.31161 410 89.678 1207.02 532.671
1409 0 47.0283 11.929 561 88.1212 1208.07 525.74
1410 0 49.0496 11.7636 577 89.8839 1207.94 525.851
1411 0 49.2068 13.9005 684 86.3962 1207.48 524.857
1412 0 51.1274 13.4566 688 94.7805 1208.44 521.519
1413 0 54.1075 13.9907 757 93.1651 1209.48 520.905
1414 0 57.0986 13.9058 794 94.4307 1210.03 521.98
1415 0 58.168 14.7676 859 88.1711 1213.68 521.073
1416 0 60.0517 13.0221 782 89.7199 1215.63 524.054
1417 0 59.2705 13.0756 775 92.4077 1218.2 519.569
1418 0 62.177 13.7993 858 90.5513 1220.45 520.247
1419 0 65.0749 13.6919 891 90.7834 1223.62 520.251
1420 0 66.1881 13.2048 874 90.9462 1226.11 520.882
1421 0 70.0327 13.051 914 91.3206 1228.05 520.337
1422 0 74.2575 14.948 1110 88.0937 1228.57 520.508
1423 0 76.1269 13.8322 1053 90.7844 1229.58 521.121
1424 0 79.2161 13.2928 1053 91.434 1230 520.485
1425 0 84.2467 13.1519 1108 91.1471 1228.52 522.472
1426 1 47.1162 11.6733 550 83.2764 1226.25 543.302
1427 0 48.258 10.8583 524 85.7405 1226.27 541.744
1428 0 50.2882 14.3572 722 85.9086 1224.3 544.421
1429 0 52.1733 13.7235 716 87.4609 1222.65 543.332
1430 0 55.1655 15.3719 848 83.0248 1220.56 541.238
1431 0 55.0997 14.3195 789 85.7807 1218.05 540.157
1432 0 58.0725 14.6885 853 86.4103 1215.43 536.49
1433 0 59.0811 14.4716 855 88.0269 1214.14 536.557
1434 0 61.0955 13.7326 839 89.7878 1212.53 536.117
1435 0 63.2003 12.943 818 90.6858 1211.35 535.231
1436 0 67.1996 14.0626 945 88.3989 1210.63 532.352
1437 0 69.0986 13.98 966 88.4607 1208.92 529.228
1438 0 73.1262 16.3143 1193 84.9899 1207.82 526.31
1439 0 73.1812 13.2548 970 89.9299 1208 525.586
1440 0 77.1411 14.817 1143 87.2012 1207.78 523.759
1441 0 80.2023 15.9721 1281 86.555 1207.35 517.048
1442 1 40.1986 11.3934 458 92.0218 1208.91 538.814
1443 0 43.1399 12.8188 553 92.4828 1209.29 534.515
1444 0 45.1396 15.0201 678 90.3717 1210.72 532.976
1445 0 44.0572 12.8923 568 95.2835 1212.89 531.808
1446 0 46.1965 12.62 583 96.4322 1213.7 529.616
1447 0 49.1271 14.2488 700 93.5943 1215.25 530.344
1448 0 49.2783 13.6166 671 94.8554 1217.05 527.462
1449 0 52.3062 14.7401 771 95.9805 1219.54 527.498
1450 0 54.1956 14.1709 768 93.8424 1222.9 528.487
1451 0 55.176 14.1728 782 93.4885 1223.84 526.716
1452 0 58.1487 13.9298 810 89.384 1227.11 524.849
1453 0 60.1609 14.777 889 89.6682 1228.43 523.981
1454 0 63.1124 14.292 902 91.1197 1228.52 519.943
1455 0 66.0993 14.2664 943 92.0011 1228.97 521.074
1456 0 68.1947 13.6081 928 94.1024 1229.6 524.769
1457 0 68.1672 13.4082 914 95.7681 1228.78 521.412
1458 0 72.137 13.1417 948 96.0812 1226.79 520.25
1459 0 78.1939 16.101 1259 90.2216 1225.6 520.17
1460 0 80.1999 16.0349 1286 91.4844 1223.53 519.667
1461 0 82.1183 14.9784 1230 94.0171 1221.31 519.654
1462 0 84.119 14.4438 1215 94.8115 1219.99 518.986
1463 0 89.1443 16.019 1428 90.3172 1217.96 517.513
1464 0 92.2299 15.4397 1424 93.5878 1215.99 516.343
1465 1 50.0589 11.067 554 96.1877 1216.09 539.794
1466 0 52.0394 12.8749 670 94.9149 1214.36 537.61
1467 0 52.1149 11.9927 625 95.7536 1213.03 537.094
1468 0 55.0239 13.9939 770 97.3961 1212.64 535.117
1469 0 54.2389 11.855 643 100.124 1209.97 528.862
1470 0 59.3116 14.0782 835 94.5437 1209.18 528.844
1471 0 59.1405 13.9836 827 96.8948 1209.51 528.099
1472 0 64.1244 15.1892 974 91.7587 1208.6 526.661
1473 0 66.1277 15.213 1006 92.5905 1209.2 523.655
1474 0 66.1864 14.852 983 94.3357 1209.88 520.6
1475 0 70.1529 14.6965 1031 94.3569 1211.63 521.97
1476 0 71.1412 15.5184 1104 94.9728 1212.6 519.062
1477 0 74.1008 15.1011 1119 96.7265 1213.66 518.963
1478 0 76.1603 15.7431 1199 96.945 1216.43 516.119
1479 0 78.1124 14.876 1162 100.412 1218.94 518.535
1480 0 82.2821 15.3739 1265 101.3 1221.89 516.091
1481 0 85.3236 14.2399 1215 102.979 1224.8 516.917
1482 0 88.1874 14.73 1299 103.454 1227.64 514.912
1483 1 45.2125 11.3022 511 102.429 1228.9 538.125
1484 0 49.4239 11.8364 585 101.658 1230.91 538.612
1485 0 51.4647 13.893 715 98.5944 1230.89 535.827
1486 0 51.2869 12.9273 663 103.069 1230.73 535.52
1487 0 55.2827 13.5485 749 100.626 1229.68 536.725
1488 0 55.4349 13.0062 721 102.915 1227.5 537.58
1489 0 59.0667 14.7122 869 102.386 1225.52 538.769
1490 0 61.0547 15.6908 958 103.092 1223.16 538.972
1491 0 63.2069 13.3213 842 109.559 1221.87 537.234
1492 0 65.1938 14.8634 969 107.346 1218.42 539.191
1493 0 66.2526 13.7353 910 111.242 1216.67 535.822
1494 0 70.2859 14.3983 1012 107.939 1215.35 534.049
1495 0 74.4376 15.0461 1120 107.999 1212.85 531.336
1496 0 77.8754 15.5505 1211 106.496 1210.65 529.122
1497 0 77.5295 15.9165 1234 107.771 1208.56 527.146
1498 0 80.6499 14.2592 1150 110.672 1207.68 522.455
1499 0 82.4691 15.5088 1279 108.921 1206.26 520.543
1500 0 86.6787 15.194 1317 108.98 1205.2 517.963
1501 0 88.4639 14.8535 1314 109.643 1205.11 516.107
1502 0 89.4769 15.6577 1401 108.101 1205.38 513.134
1503 1 54.4884 13.4524 733 103.143 1204.41 531.843
1504 0 52.3906 11.0325 578 108.785 1204.85 531.052
1505 0 56.6 12.9152 731 107.966 1206.82 526.305
1506 0 56.4093 11.5052 649 109.716 1206.95 527.268
1507 0 57.3811 13.1402 754 107.731 1208.91 524.663
1508 0 63.5237 14.3568 912 103.925 1211.29 522.194
1509 0 66.5168 15.7404 1047 102.862 1213.2 520.251
1510 0 67.4598 14.4827 977 107.48 1215.36 517.093
1511 0 69.5449 14.0628 978 109.132 1218.2 517.965
1512 0 72.7606 16.3 1186 104.668 1221.02 516.445
1513 0 74.7094 14.7906 1105 108.24 1223.93 516.452
1514 0 78.4742 15.8906 1247 107.706 1225.44 518.022
1515 0 81.582 15.7265 1283 108.174 1227.73 517.281
1516 0 82.423 16.1969 1335 109.491 1228.85 517.142
1517 0 85.5067 15.9169 1361 111.799 1229.4 514.19
1518 0 90.5234 16.7691 1518 108.915 1228.87 516.038
1519 0 92.4371 15.8162 1462 111.942 1228.15 512.127
1520 0 92.7027 14.0988 1307 116.871 1226.4 511.671
1521 1 48.4935 10.5581 512 114.932 1225.59 535.512
1522 0 51.4339 12.8709 662 109.826 1223.45 534.846
1523 0 51.3051 12.9812 666 110.635 1221.55 535.011
1524 0 53.2636 14.3062 762 108.585 1219.58 536.831
1525 0 58.2346 13.978 814 107.961 1217.61 535.966
1526 0 60.2539 14.9866 903 105.718 1216.29 533.57
1527 0 59.0983 14.4505 854 113.227 1214.45 531.258
1528 0 61.1123 14.2852 873 113.034 1212.04 530.718
1529 0 64.0776 14.1859 909 112.807 1210.99 529.928
1530 0 68.0748 14.205 967 112.941 1209.47 526.087
1531 0 70.1233 13.0199 913 114.754 1209.5 528.143
1532 0 74.1628 15.3177 1136 109.591 1207.75 523.655
1533 0 74.0764 15.3085 1134 111.481 1207.47 522.163
1534 0 77.1011 15.7585 1215 109.257 1207.47 519.514
1535 0 78.1231 14.5027 1133 112.117 1207.21 515.57
1536 0 81.1982 14.8402 1205 112.64 1208.5 515.296
1537 0 85.256 15.7877 1346 109.36 1209.11 514.17
1538 0 88.1912 15.1376 1335 110.64 1211.7 511.906
1539 0 89.2133 14.9641 1335 111.881 1212.92 511.01
1540 0 93.2486 15.8823 1481 109.063 1215.86 508.12
1541 1 51.0665 9.92823 507 109.026 1218.83 532.661
1542 0 55.1316 10.6654 588 109.986 1222.31 531.148
1543 0 54.1027 9.57438 518 110.413 1225.64 530.963
1544 0 59.1265 12.4817 738 107.707 1227.7 528.343
1545 0 60.0643 11.7707 707 109.581 1228.67 527.796
1546 0 64.196 13.0538 838 105.242 1229.99 526.754
1547 0 65.0364 12.3623 804 106.211 1230.01 528.716
1548 0 69.1507 12.8994 892 103.636 1229.94 528.566
1549 0 72.1839 13.1747 951 103.675 1229.27 525.662
1550 0 76.1215 12.9398 985 102.982 1227.99 524.751
1551 0 79.2356 14.2991 1133 100.529 1225.88 523.155
1552 0 82.1441 13.5494 1113 104.174 1223.61 524.244
1553 0 85.2405 14.1834 1209 102.896 1220.83 523.253
1554 0 89.3229 13.8934 1241 104.472 1218.74 522.202
1555 1 55.1454 9.12135 503 102.757 1217.86 539.94
1556 0 53.0911 8.51366 452 101.978 1215.01 540.688
1557 0 55.2652 8.23303 455 103.158 1214.64 534.919
1558 0 53.1826 9.06312 482 91.1307 1211.35 530.272
1559 0 54.1141 9.97892 540 92.2981 1211.11 528.422
1560 0 60.0886 9.81884 590 91.178 1209.15 526.534
1561 0 65.2511 11.1263 726 87.8444 1206.43 526.156
1562 0 63.31 10.3775 657 90.1948 1206.18 523.983
1563 0 69.2467 10.9608 759 88.8432 1204.99 524.296
1564 0 70.3355 12.1702 856 89.1308 1204.55 519.304
1565 1 36.1358 5.94978 215 88.3488 1203.51 539.847
1566 0 41.0928 8.07928 332 88.241 1204.57 536.066
1567 0 39.0603 8.14127 318 90.1855 1205.02 535.214
1568 0 35.0597 5.84717 205 94.0488 1205.61 535.444
1569 0 38.1582 5.94892 227 94.1189 1207.57 533.793
1570 0 42.132 6.7882 286 91.8601 1210.35 529.892
1571 0 43.0882 7.19455 310 91.0129 1211.91 531.313
1572 0 44.091 7.25772 320 90.5781 1215.77 530.419
1573 0 45.2077 8.05173 364 91.7225 1217.98 526.637
1574 0 46.1319 6.95831 321 92.6168 1220.12 527.651
1575 0 50.0723 10.6047 531 91.2015 1220.83 531.51
1576 0 52.0424 11.1447 580 95.5569 1227.4 530.826
1577 0 55.318 11.6779 646 93.4721 1228.47 528.07
1578 0 56.2408 10.3306 581 96.9088 1229.6 526.802
1579 0 57.1167 10.7324 613 96.8483 1229.41 528.365
1580 0 60.1053 12.162 731 95.8906 1229.97 529.319
1581 0 62.1179 12.5407 779 97.0436 1228.14 530.021
1582 0 62.0722 11.9699 743 99.9354 1226.21 529.195
1583 0 66.1001 13.7367 908 96.2037 1225.06 528.969
1584 0 69.1775 14.3399 992 101.688 1223.53 529.386
1585 0 69.126 13.555 937 105.624 1221.68 529.073
1586 0 73.0989 13.5022 987 105.372 1218.99 529.278
1587 0 75.0298 13.9678 1048 103.651 1217.76 525.949
1588 1 39.0332 8.30063 324 110.009 1216.75 544.278
1589 0 41.028 10.505 431 106.095 1215.63 543.32
1590 0 43.0104 10.7416 462 103.377 1214.96 544.885
1591 0 45.0862 10.4467 471 104.13 1212.99 541.242
1592 0 45.0843 11.7779 531 103.898 1212.6 539.463
1593 0 46.0813 12.1307 559 103.964 1212.33 537.698
1594 0 48.3895 12.6267 611 102.686 1211.45 532.817
1595 0 49.3384 14.7755 729 99.2291 1210.25 528.923
1596 0 49.1024 12.8711 632 103.954 1212.63 528.884
1597 0 52.073 12.9242 673 103.186 1213.82 527.431
1598 0 51.0447 12.0678 616 104.828 1213 530.015
1599 0 54.0273 12.7713 690 103.223 1215.67 524.839
1600 0 56.0562 13.4151 752 102.148 1218.14 523.695
1601 0 58.0567 12.8495 746 102.865 1220.28 524.631
1602 0 58.0593 13.1934 766 102.422 1221.78 524.35
1603 0 60.0912 12.1981 733 103.963 1224.77 522.88
1604 0 60.0756 12.8338 771 102.948 1228.59 524.254
1605 0 64.031 13.2436 848 101.572 1229.86 524.249
1606 0 66.0829 14.9963 991 97.9596 1232.67 522.605
1607 0 67.0543 12.6614 849 103.234 1233.98 523.548
1608 0 69.1741 12.8083 886 103.843 1233.98 523.324
1609 0 73.1823 13.5825 994 102.055 1233.91 524.312
1610 0 77.1114 14.2262 1097 98.1778 1232.64 521.999
1611 0 79.1307 14.0527 1112 98.7293 1231.11 524.798
1612 1 39.1543 10.5736 414 103.988 1229.82 541.331
1613 0 41.1111 9.1946 378 101.976 1228.53 544.034
1614 0 45.1717 9.40854 425 102.969 1225.95 544.536
1615 0 45.1102 10.4633 472 100.521 1223.72 544.445
1616 0 47.1295 11.5002 542 101.098 1222.19 542.107
1617 0 47.1919 10.5527 498 102.817 1220.28 541.177
1618 0 50.2008 12.7687 641 98.961 1218.03 539.869
1619 0 54.1231 13.2845 719 95.128 1216.97 537.471
1620 0 55.0925 13.6135 750 91.0773 1215.27 535.212
1621 0 56.1231 13.4348 754 91.4854 1213.8 534.732
1622 0 58.1282 12.5756 731 93.0233 1212.67 532.568
1623 0 61.1205 14.1687 866 89.1455 1211.42 530.278
1624 0 64.0976 15.57 998 86.2285 1211.23 530.159
1625 0 65.1099 14.0839 917 90.0393 1210.95 526.144
1626 0 66.1617 14.1623 937 90.7257 1211.29 521.425
1627 0 69.1705 14.1968 982 90.7077 1211.22 519.896
1628 0 72.0707 14.2083 1024 90.8477 1212.8 518.008
1629 0 75.1805 15.2167 1144 89.2771 1213.46 518.689
1630 0 76.2662 14.4756 1104 89.8161 1214.73 514.372
1631 0 78.073 13.244 1034 93.4691 1215.95 513.948
1632 0 84.1273 16.6296 1399 85.5583 1218.03 514.973
1633 0 85.1756 14.3703 1224 91.0123 1219.68 510.608
1634 1 47.0486 11.9026 560 95.7125 1224.44 532.246
1635 0 47.079 11.0665 521 98.5393 1226.11 531.052
1636 0 49.0404 11.5823 568 99.5194 1228.77 530.62
1637 0 50.099 12.3156 617 98.0989 1230.54 532.225
1638 0 51.0315 11.7378 599 100.491 1230.17 533.693
1639 0 56.0498 12.6852 711 95.7117 1232.12 529.579
1640 0 56.224 12.4858 702 93.7621 1230.95 528.9
1641 0 57.0491 13.2693 757 88.144 1229.66 528.001
1642 0 58.128 12.9886 755 90.0543 1227.08 528.099
1643 0 62.1542 13.1447 817 88.5239 1226.83 531.124
1644 0 64.1446 12.3627 793 90.0454 1224.77 528.821
1645 0 68.1069 14.0074 954 87.7075 1222.13 528.455
1646 0 70.2011 12.7776 897 89.9264 1221.04 528.577
1647 0 74.1102 13.8443 1026 88.6969 1218.81 527.161
1648 0 74.2264 12.7313 945 92.4095 1215.85 522.929
1649 1 37.1199 8.2705 307 92.6775 1212.86 539.785
1650 0 41.1064 9.07402 373 90.7587 1211.17 538.335
1651 0 42.2819 8.86905 375 91.112 1210.13 536.44
1652 0 45.2888 10.0908 457 93.1094 1208.56 533.794
1653 0 41.0929 9.80706 403 93.397 1207.27 529.285
1654 0 49.2449 12.3871 610 89.2459 1206.3 531.57
1655 0 51.1576 14.3674 735 93.2231 1205.43 530.465
1656 0 53.1299 15.2268 809 91.9011 1205.08 530.054
1657 0 54.1147 14.1366 765 96.8876 1205.14 525.242
1658 0 54.1629 13.4409 728 99.5893 1206.21 522.151
1659 0 55.1045 12.8846 710 102.204 1206.54 521.946
1660 0 59.0786 15.691 927 97.1446 1210.34 519.929
1661 0 62.1407 13.1476 817 99.6291 1214.54 522.19
1662 0 64.1831 15.0507 966 97.0776 1216.69 517.692
1663 0 64.1105 14.3502 920 99.2565 1219.38 516.168
1664 0 68.1191 14.2838 973 97.4923 1221.55 517.306
1665 0 70.1379 15.7262 1103 96.0798 1223.71 516.532
1666 0 74.1851 15.2322 1130 96.2947 1225.58 516.962
1667 0 76.1458 16.1401 1229 96.1456 1228.05 516.173
1668 0 79.1766 15.3328 1214 97.8443 1230.03 515.343
1669 0 83.3159 16.7915 1399 94.7234 1231.36 514.503
1670 0 84.1257 14.3119 1204 102.252 1229.48 515.771
1671 0 89.2447 15.0933 1347 102.454 1228.96 514.452
1672 1 48.0881 11.4165 549 107.991 1228.3 537.457
1673 0 50.2092 13.6031 683 103.7 1228.6 535.18
1674 0 49.2374 12.1858 600 108.198 1227.72 536.072
1675 0 53.0637 13.2671 704 105.332 1225.75 535.203
1676 0 54.0622 15.2972 827 97.7981 1223.49 535.716
1677 0 57.1817 13.4134 767 101.104 1221.74 535.518
1678 0 57.0867 13.9787 798 99.4336 1219.47 533.564
1679 0 61.0608 14.6248 893 97.8163 1218.84 532.652
1680 0 63.0631 14.5093 915 98.5027 1217.43 532.908
1681 0 63.2048 13.5433 856 100.532 1215.67 530.759
1682 0 67.1709 14.0239 942 98.3822 1214.92 528.317
1683 0 72.1952 12.8817 930 99.1753 1212.96 525.473
1684 0 72.1663 15.0624 1087 96.0653 1212.01 522.996
1685 0 71.265 14.1584 1009 98.9306 1211.43 521.986
1686 0 76.2329 14.2327 1085 98.3493 1210.38 519.981
1687 0 78.2826 14.3199 1121 98.554 1209.66 512.307
1688 0 79.2943 13.2796 1053 101.924 1210.25 512.824
1689 0 82.3444 13.565 1117 101.323 1210.6 510.092
1690 0 85.5494 13.6763 1170 100.596 1212.15 507.074
1691 0 88.4612 15.2722 1351 99.5936 1212.79 502.858
1692 0 91.5635 14.7876 1354 103.289 1214.53 502.716
1693 0 94.2033 13.991 1318 99.5061 1217.58 503.3
1694 0 96.113 13.7442 1321 102.194 1219.4 504.347
1695 0 99.292 14.412 1431 100.936 1221.71 503.145
1696 0 102.248 12.9391 1323 104.589 1225.37 501.875
1697 0 105.55 13.5954 1435 103.82 1228.58 496.968
1698 0 110.43 13.7734 1521 104.81 1230.53 495.735
1699 0 114.348 14.9456 1709 103.045 1232.54 493.196
1700 0 118.328 14.8148 1753 103.735 1233.67 492.693
1701 0 124.297 14.409 1791 104.335 1233.58 494.604
1702 0 130.213 15.3211 1995 103.26 1232.52 495.015
1703 0 133.454 14.327 1912 105.623 1231.35 492.606
1704 0 141.445 15.2638 2159 103.943 1230.12 490.05
1705 0 145.421 13.8288 2011 107.351 1227.4 488.262
1706 0 154.484 16.5519 2557 100.215 1225.79 486.808
1707 0 157.372 14.7994 2329 104.384 1222.35 487.773
1708 0 163.426 15.8053 2583 103.367 1220.91 483.878
1709 0 169.466 15.2066 2577 104.522 1218.74 478.809
1710 0 176.408 17.074 3012 102.012 1217.87 473.321
1711 0 178.447 16.3802 2923 104.303 1215.76 468.282
1712 0 183.599 14.4717 2657 108.192 1213.57 470.187
1713 0 192.444 16.1917 3116 105.408 1213.63 469.343
1714 0 198.428 15.3154 3039 107.01 1212.32 465.202
1715 0 205.347 17.3073 3554 104.416 1211.17 458.211
1716 0 209.782 14.8106 3107 109.432 1210.08 451.143
1717 0 219.681 17.58 3862 104.812 1209.91 447.394
1718 0 226.723 16.8885 3829 106.973 1210 439.962
1719 0 231.371 14.8074 3426 111.342 1211.13 436.73
1720 0 238.581 15.0054 3580 110.764 1211.22 437.285
1721 1 192.391 10.2708 1976 111.343 1212.88 477.748
1722 0 191.363 14.5378 2782 109.212 1213.49 457.282
1723 1 201.683 15.6632 3159 107.959 1214.89 452.381
1724 0 205.426 14.8715 3055 110.943 1218.21 447.292
1725 0 215.691 16.7786 3619 105.545 1220.58 440.555
1726 0 222.611 16.4233 3656 108.382 1223.33 435.74
1727 0 228.55 15.4846 3539 111.089 1226.04 430.677
1728 0 238.749 16.222 3873 110.17 1228.57 428.317
1729 0 240.729 12.9731 3123 113.195 1230.54 438.001
1730 0 241.555 9.99771 2415 113.445 1231.75 457.12
1731 0 247.967 13.647 3384 81.479 1231.77 459.007
1732 0 244.447 11.2172 2742 110.45 1231.77 455.268
1733 0 245.686 12.3369 3031 110.269 1231.26 450.972
1734 0 243.534 12.2652 2987 109.788 1229.29 451.729
1735 0 243.819 16.2826 3970 104.979 1228.03 432.518
1736 1 190.538 11.8297 2254 110.874 1226.09 466.504
1737 0 192.545 13.763 2650 106.273 1224.05 466.791
1738 0 198.429 13.6673 2712 107.638 1221.34 459.14
1739 0 208.637 14.796 3087 106.037 1220.06 450.475
1740 0 218.658 16.8986 3695 102.48 1217.51 445.512
1741 0 228.621 17.3606 3969 102.766 1216.73 439.109
1742 0 236.882 15.5056 3673 108.191 1214.29 435.448
1743 0 246.586 15.7024 3872 107.304 1213.06 427.227
1744 0 256.885 17.0504 4380 103.393 1211.48 421.977
1745 0 255.811 12.56 3213 112.198 1210.7 428.594
1746 0 255.983 9.34437 2392 111.018 1210.01 453.89
1747 1 97.4561 10.7536 1048 104.923 1211.13 500.426
1748 0 103.384 11.8104 1221 103.056 1210.06 496.657
1749 0 108.488 11.3008 1226 100.287 1210.12 500.804
1750 1 76.2914 10.8662 829 106.545 1209.68 499.293
1751 0 83.2271 11.3425 944 103.811 1210.87 500.512
1752 0 88.4636 13.6892 1211 96.1495 1211.45 499.87
1753 0 93.8431 14.3964 1351 99.4619 1213.61 504.788
1754 0 95.528 13.9226 1330 100.747 1215.98 501.459
1755 0 100.549 15.0175 1510 97.247 1218.02 502.334
1756 0 105.345 14.4382 1521 98.545 1220.03 502.11
1757 1 45.3395 13.2555 601 91.9617 1224.38 521.524
1758 0 40.1528 9.56347 384 96.4036 1227.36 521.521
1759 1 54.3795 10.5187 572 88.6469 1230.23 527.788
1760 0 55.3022 11.175 618 87.9968 1231.49 528.222
1761 0 54.4421 11.4617 624 88.3526 1231.58 525.258
1762 0 61.1036 14.9746 915 75.5213 1232.66 525.161
1763 0 68.0708 16.2625 1107 72.935 1233.34 520.823
1764 0 69.1746 16.0319 1109 75.5762 1231.65 524.266
1765 0 69.328 11.7557 815 86.1166 1230.13 526.909
1766 0 70.1193 14.7606 1035 80.7932 1229 525.804
1767 0 70.1193 14.4611 1014 82.7929 1226.59 528.668
1768 0 69.1706 13.4017 927 86.8306 1224.08 528.579
1769 0 77.2696 17.2901 1336 77.003 1221.74 521.78
1770 0 73.1607 11.2219 821 90.3264 1219.92 526.79
1771 0 75.2238 12.9746 976 87.126 1217.72 524.276
1772 0 80.2028 15.5605 1248 82.6258 1216.52 523.125
1773 0 80.2625 12.9949 1043 87.3615 1215.23 518.828
1774 0 82.4546 11.8611 978 88.2515 1213.59 516.131
1775 0 85.208 12.8861 1098 87.4991 1212.59 515.797
1776 1 48.2066 11.5337 556 87.6079 1212.74 533.845
1777 0 48.1807 11.2908 544 89.7096 1211.86 529.947
1778 0 52.246 10.7951 564 88.5798 1211.59 529.872
1779 0 50.1267 11.3712 570 80.4509 1210.67 519.174
1780 0 52.1338 9.62907 502 82.5757 1209.27 519.335
1781 0 53.2174 10.9363 582 78.6942 1209.65 517.885
1782 0 55.128 10.0675 555 79.2991 1210.39 517.178
1783 0 55.1695 10.5312 581 78.7745 1212.26 518.267
1784 0 58.1152 12.5613 730 75.9397 1214.64 518.444
1785 0 59.1315 12.6329 747 76.3226 1215.61 515.179
1786 0 62.1507 10.8768 676 79.6524 1218.25 516.157
1787 0 62.151 12.18 757 78.7199 1221.25 514.993
1788 0 65.118 11.7633 766 78.8786 1223.85 516.433
1789 0 64.2164 10.5269 676 81.1627 1226.47 515.821
1790 1 30.0414 4.66023 140 82.3714 1229.06 537.171
1791 0 36.2541 9.35067 339 80.2507 1230.21 532.805
1792 0 38.1703 9.22182 352 80.0909 1231.32 535.855
1793 0 42.0868 12.1178 510 81.7176 1232.23 538.859
1794 0 43.1145 11.713 505 84.4317 1231.18 538.339
1795 0 45.0395 11.2346 506 81.9209 1232.42 537.953
1796 0 49.1207 11.0341 542 81.1587 1230.73 539.208
1797 0 49.1347 10.8681 534 81.7228 1228.66 539.888
1798 0 51.123 12.9492 662 79.6314 1226.66 539.174
1799 0 52.1885 12.6273 659 81.2944 1223.19 535.065
1800 0 55.1613 13.8503 764 80.0366 1221.33 537.732
1801 0 58.0766 14.6014 848 82.0873 1220.8 535.604
1802 0 59.1308 15.2881 904 81.1305 1219.77 534.341
1803 0 61.0933 14.2569 871 82.2537 1217.85 534.285
1804 0 62.104 13.2842 825 84.5152 1216.04 532.745
1805 0 64.1845 13.9753 897 84.087 1215.52 530.889
1806 0 65.1378 14.5231 946 83.9863 1213.53 526.464
1807 0 67.0733 13.2542 889 86.0439 1213.25 524.829
1808 0 70.0975 16.1775 1134 82.0265 1212.09 522.75
1809 0 70.1606 14.0392 985 86.3117 1212.73 522.256
1810 0 72.0867 14.5242 1047 86.6743 1211.77 517.815
1811 0 76.0686 15.8278 1204 86.1196 1212.52 516.024
1812 0 79.1646 16.9899 1345 84.1078 1213.14 516.038
1813 0 84.156 17.4676 1470 82.8469 1213.76 514.764
1814 0 84.198 16.4256 1383 85 1214.92 509.522
1815 0 89.1311 17.6369 1572 83.4313 1216.01 509.253
1816 0 90.098 16.8483 1518 86.3281 1218.41 509.953
1817 0 91.1195 15.2218 1387 90.1017 1220.66 509.128
1818 0 97.222 16.4675 1601 87.4966 1222.65 507.117
1819 0 98.206 18.0233 1770 87.3215 1225.57 503.965
1820 1 55.1334 12.3156 679 97.975 1226.87 526.465
1821 0 59.111 11.1654 660 94.5955 1227.59 528.161
1822 0 59.0921 11.4905 679 93.8586 1228.7 529.258
1823 0 61.194 12.1907 746 94.9678 1229.68 524.956
1824 0 65.1689 14.7923 964 90.5104 1229.96 528.604
1825 0 68.1872 14.7242 1004 95.0807 1229.08 528.152
1826 0 69.1371 16.1563 1117 93.2355 1228.47 526.89
1827 0 72.234 15.6575 1131 95.038 1227.26 527.224
1828 0 77.197 16.8012 1297 90.6769 1225.07 528.058
1829 0 78.4021 14.617 1146 97.7871 1223.62 524.401
1830 0 82.3397 14.8531 1223 97.1717 1221.79 527.424
1831 0 85.2778 14.5642 1242 95.5902 1219.7 525.745
1832 0 87.2004 13.9105 1213 93.5812 1217.71 520.926
1833 0 90.2112 13.8675 1251 95.8673 1215.66 520.285
1834 0 93.3932 14.0588 1313 95.0678 1213.9 516.423
1835 1 51.0935 11.3713 581 92.6644 1214.57 540.093
1836 0 52.2316 11.5639 604 90.4189 1213.47 537.411
1837 0 52.2346 11.6207 607 91.7496 1212.45 535.684
1838 0 56.1791 13.5638 762 88.9173 1211.58 531.869
1839 0 57.3254 13.31 763 91.5491 1209.58 527.974
1840 0 61.4026 14.2502 875 89.6411 1209.43 524.335
1841 0 61.1054 14.2704 872 92.7007 1208.31 526.095
1842 0 62.136 15.5626 967 90.5832 1209.42 522.588
1843 0 63.0685 13.0335 822 94.135 1209.07 522
1844 0 66.0527 13.7163 906 91.7296 1210.82 521.957
1845 0 68.1487 13.72 935 90.2214 1212.91 519.167
1846 0 71.1047 15.0342 1069 89.1188 1214.13 517.628
1847 0 72.1385 14.4028 1039 92.3503 1216.85 518.334
1848 0 76.0867 14.7463 1122 91.4733 1219.31 515.029
1849 0 78.1452 14.6266 1143 94.1479 1222.19 514.812
1850 0 82.0801 15.6554 1285 91.7152 1224.82 513.762
1851 0 84.2489 13.9468 1175 92.1243 1227.21 513.873
1852 0 87.2295 14.1925 1238 91.3134 1229.34 512.734
1853 0 91.1278 15.2094 1386 91.1609 1229.82 513.654
1854 1 47.1895 9.38768 443 95.9661 1229.09 534.185
1855 0 50.0559 10.708 536 92.9664 1230.91 536.172
1856 0 53.2139 10.6175 565 95.1841 1231.17 533.752
1857 0 59.2253 13.5922 805 87.2211 1228.77 535.224
1858 0 60.1661 13.2633 798 89.6115 1227.71 534.68
1859 0 63.0809 12.8089 808 90.5173 1226.77 534.292
1860 0 65.039 14.2222 925 90.7038 1224.23 530.31
1861 0 67.3315 15.342 1033 84.3466 1222.16 530.69
1862 0 70.1568 14.5816 1023 86.045 1220.12 531.464
1863 0 71.1189 14.9749 1065 86.507 1218.81 528.621
1864 0 75.1457 14.0793 1058 86.7958 1217.59 528.888
1865 0 77.0711 14.1298 1089 87.5868 1215.79 524.376
1866 0 79.0878 14.3511 1135 87.422 1214.18 523.118
1867 0 83.0989 14.9701 1244 86.1399 1212.66 520.56
1868 0 86.3172 14.8059 1278 86.5368 1211.64 517.67
1869 0 89.1691 16.1042 1436 85.39 1210.87 515.909
1870 1 48.2124 11.0345 532 95.359 1211.34 531.118
1871 0 50.1039 11.4163 572 93.486 1210.8 528.967
1872 0 51.2294 12.1024 620 92.4758 1211.31 528.226
1873 0 51.0955 12.1146 619 93.6074 1211.51 525.774
1874 0 55.151 11.4232 630 94.054 1211.81 523.906
1875 0 56.1719 12.4795 701 87.7874 1213.73 524.016
1876 0 60.1843 13.9239 838 83.5644 1214.33 519.561
1877 0 63.1384 14.7612 932 79.4528 1214.81 522.966
1878 0 62.2137 12.7464 793 82.7957 1217.78 521.319
1879 0 66.0577 13.352 882 82.0737 1219.24 519.817
1880 0 69.2643 13.7733 954 82.3574 1221.95 516.802
1881 0 69.1012 13.3428 922 84.564 1224.15 518.958
1882 0 72.1244 12.8805 929 85.3434 1226.99 517.236
1883 1 37.0398 6.85749 254 88.3543 1228.15 539.402
1884 0 39.0723 9.72556 380 88.3447 1228.57 535.874
1885 0 36.0249 8.18878 295 90.2407 1230.23 539.088
1886 0 44.0338 9.92419 437 89.2929 1230.98 537.579
1887 0 46.1135 10.8428 500 88.662 1230.04 535.28
1888 0 49.0912 10.1851 500 90.286 1228.47 537.56
1889 0 50.1633 13.6953 687 83.2314 1227.76 537.221
1890 0 55.1267 12.5529 692 83.0723 1226.07 537.243
1891 0 57.0483 12.5508 716 83.2277 1224.9 539.279
1892 0 59.2828 15.2489 904 80.4325 1223.49 535.496
1893 0 61.3631 13.9172 854 82.9133 1221.67 528.718
1894 0 63.1023 13.3117 840 84.7167 1220.18 533.546
1895 0 63.0693 14.4603 912 82.0526 1217.58 533.217
1896 0 67.188 14.2734 959 81.6142 1216.07 534.008
1897 0 68.129 13.4011 913 85.9135 1215.18 530.619
1898 0 69.1682 13.0407 902 86.6031 1213.25 528.613
1899 0 72.244 14.3818 1039 86.2185 1212.29 524.269
1900 0 75.1032 13.9541 1048 86.9036 1210.82 522.719
1901 0 75.0912 12.1319 911 92.3809 1210.75 520.644
1902 0 78.2247 13.295 1040 89.9683 1210.98 519.131
1903 0 80.1998 13.1048 1051 91.8287 1209.65 516.021
1904 0 86.1846 15.0375 1296 86.7431 1209.1 513.5
1905 0 87.1583 13.9861 1219 87.927 1209.89 509.296
1906 0 92.0706 14.4563 1331 86.8911 1210.26 508.582
1907 1 50.0334 12.3318 617 88.7504 1213.22 528.583
1908 0 51.0207 10.6623 544 91.7868 1214.54 530.048
1909 0 55.1493 11.4598 632 89.3149 1216.5 528.082
1910 0 56.3036 12.7878 720 88.6944 1217.66 525.596
1911 0 56.5192 12.1552 687 91.4891 1220.57 523.128
1912 0 56.2471 13.5296 761 91.0526 1223.72 525.873
1913 0 61.3984 14.072 864 90.4676 1226.89 523.644
1914 0 63.7055 14.6455 933 98.1254 1228.33 521.168
1915 0 64.1714 13.7756 884 94.0532 1229.95 523.585
1916 0 68.1716 15.0209 1024 92.1436 1231.2 523.878
1917 0 69.2624 14.2935 990 94.4657 1230.81 522.457
1918 0 74.3685 14.8584 1105 92.6253 1230.95 522.346
1919 0 78.2078 14.909 1166 91.6715 1230.38 524.181
1920 0 81.3664 15.0676 1226 91.3157 1229.11 521.221
1921 0 84.7498 14.8083 1255 94.0367 1227.49 517.436
1922 0 88.5989 15.4404 1368 93.7544 1226.53 517.028
1923 1 48.4576 11.5771 561 95.6667 1224.06 538.8
1924 0 47.343 12.0398 570 98.0719 1221.68 536.895
1925 0 52.5403 12.0669 634 98.6388 1219.71 535.58
1926 0 52.3883 13.419 703 98.7923 1217.69 532.22
1927 0 54.3005 12.0993 657 99.3577 1216.14 530.957
1928 0 59.7261 13.9303 832 95.9387 1214.6 528.233
1929 0 52.4371 11.2897 592 105.424 1212.75 523.757
1930 0 62.539 14.8228 927 96.3722 1211.83 525.256
1931 0 64.1582 14.246 914 98.6586 1211.53 527.274
1932 0 66.2294 14.6914 973 99.1213 1210.65 523.156
1933 0 68.4403 14.2022 972 99.9444 1209.67 518.067
1934 0 67.5287 14.3347 968 101.586 1210.3 514.901
1935 0 71.6105 15.0816 1080 99.7417 1210.37 512.086
1936 0 74.5933 14.8137 1105 99.8968 1211.57 511.236
1937 0 78.5559 15.7849 1240 97.2806 1212.22 508.985
1938 0 79.5598 14.9573 1190 100.102 1214.08 507.905
1939 0 81.4621 14.4484 1177 103.222 1215.1 505.076
1940 0 84.6935 15.0425 1274 100.998 1216.95 503.45
1941 0 86.4358 14.6583 1267 102.454 1219.07 504.109
1942 0 87.6759 15.1239 1326 102.446 1221.69 502.633
1943 0 94.6945 15.5975 1477 102.21 1224.87 503.214
1944 0 95.6136 15.4058 1473 103.426 1227.59 499.723
1945 0 98.4456 16.0596 1581 101.698 1229.28 501.556
1946 0 102.534 15.907 1631 103.503 1231.04 501.451
1947 0 106.417 16.4636 1752 104.291 1231.78 498.466
1948 0 110.527 15.6071 1725 105.904 1231.8 496.933
1949 0 114.593 15.8997 1822 106.236 1231.78 496.604
1950 0 118.51 15.8721 1881 105.63 1231.06 493.908
1951 0 125.507 16.3258 2049 104.019 1230.45 493.133
1952 0 130.546 16.9825 2217 103.763 1228 491.228
1953 0 133.778 15.294 2046 106.563 1225.59 486.331
1954 0 141.071 15.8289 2233 104.241 1223.84 488.405
1955 0 147.775 16.0649 2374 102.908 1222.47 486.187
1956 1 81.6394 12.9717 1059 102.653 1219.77 518.558
1957 0 85.7711 13.093 1123 101.242 1218.82 517.293
1958 0 85.5162 14.8978 1274 99.1091 1217.31 516.151
1959 0 88.3971 12.885 1139 104.713 1215.24 508.822
1960 0 94.6649 14.8418 1405 101.522 1214.71 509.779
1961 0 95.661 12.9729 1241 106.689 1213.2 504.402
1962 0 98.6786 13.9544 1377 104.358 1212.15 499.94
1963 0 104.573 14.9179 1560 100.984 1211.94 500.178
1964 0 107.507 14.148 1521 102.048 1210.91 495.694
1965 0 113.606 14.8056 1682 100.115 1210.69 494.389
1966 1 60.6485 10.4042 631 98.0872 1211.04 519.231
1967 0 62.4308 10.9081 681 97.9971 1211.24 516.038
1968 0 63.4987 11.8585 753 97.757 1212.39 515.032
1969 0 67.5087 11.5689 781 100.681 1213.52 510.557
1970 0 69.4403 13.22 918 94.646 1215.52 510.297
1971 0 72.1978 12.5627 907 92.9482 1217.36 512.182
1972 0 73.1801 12.2438 896 93.0179 1219.5 508.233
1973 0 78.1711 13.7647 1076 89.3773 1222.43 510.602
1974 0 80.3162 13.4842 1083 90.3721 1225.77 508.41
1975 0 84.2014 13.7171 1155 91.226 1226.56 508.306
1976 0 86.1502 14.1381 1218 90.8103 1229.09 506.464
1977 0 90.1319 13.447 1212 92.6287 1231.52 506.063
1978 0 92.0952 12.5957 1160 94.856 1233.44 507.143
1979 0 96.0675 12.8347 1233 96.1995 1233.77 505.685
1980 0 98.2255 13.8151 1357 95.2189 1233.07 505.449
1981 0 102.228 13.9003 1421 97.145 1232.22 506.296
1982 0 106.373 12.7475 1356 100.794 1230.24 501.312
1983 0 112.343 14.2777 1604 97.7226 1228.58 502.46
1984 0 114.347 12.6807 1450 101.475 1226.7 500.886
1985 0 120.392 14.0209 1688 99.0912 1224.56 495.956
1986 0 127.447 13.841 1764 98.9206 1223.2 496.42
1987 1 67.17 12.3418 829 91.3655 1221.13 528.304
1988 0 67.1244 11.4415 768 93.8164 1219.6 526.271
1989 0 69.2809 11.5761 802 95.5985 1217.36 524.949
1990 0 71.0869 12.2808 873 97.7526 1216.18 521.711
1991 0 73.3762 13.6011 998 95.2926 1213.62 520.127
1992 0 76.2609 12.195 930 96.5516 1212.73 515.883
1993 0 81.1685 13.0839 1062 92.1704 1212.92 519.214
1994 0 83.224 13.9503 1161 91.3816 1211.57 514.839
1995 0 83.3589 11.9243 994 96.7636 1211.04 510.711
1996 0 86.2319 13.139 1133 94.594 1211.73 511.111
1997 0 89.2421 12.763 1139 94.8297 1212.07 506.154
1998 0 93.1988 13.2834 1238 97.8861 1213.5 505.706
1999 0 94.3451 12.1045 1142 101.422 1213.98 501.7
2000 0 99.273 12.3901 1230 99.1333 1214.71 500.232
2001 1 57.0791 8.35683 477 101.996 1216.59 523.706
2002 0 59.2905 9.91728 588 100.162 1218.56 521.923
2003 0 60.3096 11.1425 672 99.4658 1220.99 520.874
2004 0 63.1794 11.7127 740 96.4 1222.82 518.151
2005 0 64.2171 12.629 811 94.8915 1225.07 519.577
2006 0 63.2154 10.6778 675 100.738 1228.25 517.953
2007 0 66.1769 12.1946 807 99.7881 1229.51 514.622
2008 0 69.3318 12.8368 890 101.146 1232.01 514.37
2009 0 73.0919 12.4364 909 102.081 1234.02 513.499
2010 0 75.122 13.711 1030 97.6971 1234.79 513.416
2011 0 79.0734 13.0512 1032 96.7054 1235.07 516.373
2012 0 82.124 12.3715 1016 98.2677 1233.91 514.554
2013 0 85.1363 11.6284 990 99.9545 1232.62 512.837
2014 0 88.1181 12.2903 1083 98.7682 1231.08 513.061
2015 0 90.1657 12.9983 1172 97.3157 1229.87 513.259
2016 0 94.1753 13.2837 1251 97.8185 1227.75 512.742
2017 0 95.0847 12.5362 1192 100.516 1225.39 508.893
2018 0 98.2151 12.5744 1235 101.364 1222.93 511.539
2019 0 99.1373 12.4877 1238 101.852 1221.08 506.86
2020 1 56.0761 9.50494 533 98.5947 1219.94 530.377
2021 0 58.0517 11.3692 660 93.2364 1218.18 533.574
2022 0 59.0809 9.47853 560 96.7304 1216.83 531.755
2023 0 61.0879 10.313 630 96.8635 1215.83 527.902
2024 0 60.1017 11.2143 674 94.27 1214.36 526.361
2025 0 60.1742 11.3005 680 93.25 1212.71 522.165
2026 0 64.1476 11.8009 757 95.465 1213.19 521.662
2027 0 63.3788 11.6916 741 91.6343 1211.87 521.49
2028 0 65.3229 11.7111 765 92.9281 1212.43 516.935
2029 0 66.3695 12.8975 856 90.8855 1213.18 517.883
2030 0 67.2239 13.0162 875 91.1714 1213.43 514.895
2031 0 66.2004 11.9335 790 93.819 1214.45 514.959
2032 0 69.2425 10.7737 746 93.4692 1216.09 516.075
2033 0 66.2936 11.3736 754 95.2984 1217.46 512.707
2034 0 72.2809 13.0048 940 90.4202 1219.82 515.774
2035 0 69.3208 10.8481 752 95.7912 1222.65 513.142
2036 0 71.2644 11.6047 827 94.757 1224.56 513.103
2037 0 73.2946 12.1974 894 93.3345 1227.39 514.456
2038 0 76.365 12.6236 964 91.2614 1228.8 515.241
2039 0 76.0541 12.2281 930 91.3194 1228.38 516.327
2040 0 74.1098 11.6854 866 95.933 1229.15 513.416
2041 1 40.0548 10.8601 435 92.0667 1230.1 531.736
2042 0 40.0468 8.71481 349 96.1032 1229.98 533.499
2043 0 38.0086 9.12951 347 94.4121 1229.58 537.496
2044 0 36.0553 9.12487 329 95.0365 1228.39 538.258
2045 0 41.1401 10.1604 418 91.8517 1226.93 536.297
2046 0 42.1678 9.81791 414 91.6063 1225.78 536.937
2047 0 43.0856 9.79446 422 92.5095 1224.92 538.448
2048 0 44.2388 8.65756 383 94.0574 1222.81 539.606
2049 0 45.1971 9.64664 436 92.6972 1220.78 532.002
2050 0 46.291 8.85702 410 91.2732 1218.92 534.844
2051 0 45.5287 10.0157 456 91.0197 1216.73 529.3
2052 0 49.404 9.9992 494 88.7794 1215.06 528.429
2053 0 49.3016 9.99967 493 90.5822 1214.28 527.221
2054 1 20.0099 7.24641 145 92.0828 1210.35 541.752
2055 0 24.0046 6.58208 158 94.2342 1209.21 541.133
2056 0 27.0312 7.87979 213 91.1737 1212.46 542.277
2057 0 33.09 5.13751 170 92.2059 1208 530.959
2058 0 37.0308 8.3444 309 90.2654 1208.69 524.906
2059 0 27.0493 8.57693 232 83.9871 1208.22 534.789
2060 0 30.0642 9.51297 286 87.1503 1208.72 527.972
2061 0 30.1613 7.29412 220 89.0409 1207.84 526.841
2062 0 27.0806 5.05897 137 89.438 1209.81 528.599
2063 1 40.2011 6.11923 246 92.4634 1210.44 523.65
2064 0 37.1933 5.9957 223 91.583 1212.26 523.561
2065 0 33.0583 3.6602 121 93.3884 1213.64 526.893
2066 0 32.3705 8.09379 262 89.7481 1216.1 524.897
2067 0 37.1197 6.62721 246 92.9756 1218.07 520.89
2068 0 43.1154 8.23372 355 91.3408 1220.07 521.189
2069 0 41.158 7.55625 311 97.4116 1221.69 516.305
2070 0 39.1418 9.58056 375 90.1627 1225.94 524.901
2071 0 38.1217 8.23679 314 94.879 1227.91 523.283
2072 0 38.1564 6.00161 229 98.3013 1228.79 526.376
2073 1 69.3069 10.8647 753 94.1992 1230.08 509.754
2074 0 72.3213 12.3615 894 90.8915 1229.06 511.3
2075 0 71.2498 11.3965 812 95.0998 1228.98 510.894
2076 0 73.1886 11.7505 860 93.6 1228.45 513.119
2077 0 72.3675 10.7507 778 97.2481 1227.11 511.72
2078 0 74.1297 11.7362 870 95.8908 1224.78 514.738
2079 0 73.172 9.5665 700 101.973 1222.92 514.499
2080 0 72.0823 11.1678 805 101.83 1219.99 512.884
2081 0 76.1174 12.5464 955 98.1853 1218.74 511.474
2082 0 78.2584 12.2798 961 98.3809 1216.85 514.257
2083 0 79.2185 13.3176 1055 97.4929 1215.15 512.332
2084 0 76.2958 11.9535 912 99.0329 1213.58 509.462
2085 0 78.133 11.3524 887 98.4295 1212.17 509.356
2086 0 79.2258 13.0766 1036 97.6332 1210.84 504.04
2087 0 80.1383 12.0042 962 101.152 1210.16 505.525
2088 0 83.092 13.467 1119 98.7489 1209.33 503.715
2089 0 83.1789 12.5753 1046 101.012 1208.29 500.657
2090 0 84.096 12.89 1084 101.123 1207.8 501.009
2091 0 83.108 13.1756 1095 102.296 1207.96 501.282
2092 0 81.077 12.1859 988 104.621 1208.32 497.218
2093 0 86.1881 14.3871 1240 98.425 1208.82 495.923
2094 0 86.1012 13.8326 1191 99.0647 1209.73 494.101
2095 0 96.3737 15.1909 1464 91.5895 1210.27 499.035
2096 0 95.192 16.2199 1544 90.7623 1212.41 497.207
