time division length width area intensity CMx CMy
0 0 39.0188 15.736 614 105.695 359.07 510.713
1 0 39.0273 15.1433 591 104.301 361.599 512.802
2 0 43.0194 16.6669 717 91.145 362.432 512.593
3 0 43.0531 15.4925 667 102.591 363.334 511.093
4 0 42.0112 14.9722 629 103.523 362.453 513.095
5 0 43.0182 15.9467 686 108.805 362.688 513.777
6 0 43.0235 14.1086 607 116.031 363.079 514.325
7 0 46.0515 16.2427 748 102.305 360.27 515.007
8 0 48.0562 15.4819 744 104.644 360.098 515.974
9 0 49.0856 15.2591 749 102.401 357.32 516.797
10 0 49.0777 16.4637 808 104.821 355.472 514.557
11 0 51.0156 16.7204 853 98.6928 354.618 514.331
12 0 50.1111 15.3858 771 113.488 351.208 514.741
13 0 52.1653 15.4509 806 110.599 350.227 517.185
14 0 53.1055 15.4033 818 116.171 348.878 515.984
15 0 57.0534 15.7046 896 105.607 347.463 515.695
16 0 57.0918 15.4313 881 108.914 344.829 514.138
17 0 59.1524 16.0095 947 107.544 342.962 514.18
18 0 63.0314 16.6584 1050 104.028 340.95 512.75
19 0 65.0892 16.4236 1069 106.26 338.315 509.09
20 0 68.0948 15.7281 1071 110.571 334.214 507.302
21 0 70.1267 15.6146 1095 110.591 334.307 506.674
22 0 72.0296 15.6464 1127 110.453 335.241 505.001
23 0 74.0648 15.662 1160 109.514 336.357 501.472
24 0 78.0925 17.1463 1339 104.906 335.99 500.577
25 0 79.0888 17.0694 1350 106.076 337.739 499.838
26 0 82.1569 16.5537 1360 105.268 339.934 497.29
27 0 84.1181 16.1915 1362 103.083 341.941 494.817
28 0 87.1002 16.7049 1455 103.533 344.794 493.895
29 0 90.2025 16.6514 1502 103.85 346.859 493.764
30 0 95.1392 18.0998 1722 97.4245 349.254 491.221
31 0 97.1682 17.9071 1740 98.8523 350.957 492.393
32 0 101.133 17.6796 1788 98.9575 351.731 493.215
33 0 103.135 16.9099 1744 99.9306 353.96 491.759
34 0 111.273 18.2254 2028 94.8092 353.339 488.293
35 1 56.0874 13.1402 737 106.631 354.113 519.288
36 0 58.0996 14.2858 830 104.333 352.646 519.643
37 0 62.1017 15.1042 938 104.461 352.914 519.801
38 0 64.138 15.186 974 104.885 351.625 519.788
39 0 65.1185 15.3413 999 106.142 351.297 517.276
40 0 68.1606 14.4365 984 108.169 348.862 518.055
41 0 71.2522 17.0942 1218 103.023 346.419 517.75
42 0 73.1804 15.0177 1099 106.743 344.95 517.278
43 0 76.1749 16.0158 1220 104.523 343.217 516.07
44 0 79.1725 16.3441 1294 104.924 340.068 515.069
45 0 80.1494 16.7063 1339 104.814 337.925 514.429
46 0 83.1526 14.5395 1209 110.5 337.048 512.506
47 0 87.2247 15.2136 1327 107.258 335.213 512.665
48 0 89.1391 16.1321 1438 105.962 333.079 510.078
49 0 92.1712 15.0372 1386 109.673 331.309 506.403
50 0 93.181 15.1533 1412 110.484 329.853 505.121
51 0 96.1456 15.6741 1507 109.101 329.46 500.33
52 0 100.116 15.1424 1516 110.429 327.891 497.977
53 1 53.1366 10.1813 541 113.669 325.985 521.505
54 0 56.1352 12.2027 685 106.778 325.978 521.003
55 0 56.0932 10.9996 617 114.306 325.603 514.82
56 0 60.0326 12.3433 741 109.717 327.318 510.881
57 0 61.114 12.5339 766 102.896 329.212 508.664
58 0 64.0448 12.9128 827 105.885 330.516 507.688
59 0 67.0463 13.7517 922 103.024 331.613 508.003
60 0 69.163 14.3718 994 106.413 333.959 508.031
61 0 71.1457 14.393 1024 106.663 335.734 506.962
62 0 73.1257 13.7024 1002 110.099 337.717 505.922
63 0 77.1036 15.2392 1175 105.707 340.631 508.449
64 0 79.1667 15.1074 1196 107.319 341.875 504.992
65 0 78.0868 13.5362 1057 109.213 343.409 505.569
66 0 78.0868 13.5234 1056 147.009 345.417 505.603
67 0 87.0997 13.4903 1175 108.495 345.048 507.014
68 1 45.0624 9.69766 437 110.108 345.842 528.455
69 0 46.0168 9.47481 436 112.225 343.943 528.518
70 0 48.036 10.846 521 109.837 342.259 530.146
71 0 49.0467 9.90892 486 107.984 341.648 530.609
72 0 48.0714 10.1724 489 104.736 342.636 525.047
73 0 51.095 12.5844 643 100.137 340.151 527.207
74 0 50.3851 11.2335 566 104.106 338.475 525.122
75 0 51.1648 10.8864 557 103.973 335.655 527.345
76 0 53.0967 12.2042 648 100.935 335.489 527.988
77 0 55.174 11.7447 648 101.471 333.207 522.995
78 0 57.1817 12.5215 716 100.003 331.067 523.906
79 0 60.1339 12.8048 770 99.339 328.764 522.509
80 0 60.1883 10.517 633 104.404 328.24 522.641
81 0 62.3041 11.6044 723 101.148 326.333 519.158
82 0 63.0499 10.5631 666 106.772 324.428 516.871
83 0 67.1413 11.945 802 102.514 322.576 515.266
84 0 71.2116 12.8771 917 98.711 322.146 512.183
85 0 75.1041 13.7942 1036 96.6979 321.719 509.875
86 0 77.0904 12.2973 948 100.876 320.662 509.657
87 1 36.044 6.3256 228 94.7632 319.75 531.145
88 0 36.044 6.43658 232 135.651 318.776 530.966
89 0 36.0447 6.49194 234 135.59 317.735 530.697
90 0 36.0471 6.63021 239 134.992 316.711 530.661
91 0 41.0456 8.89254 365 92.3507 323.323 523.581
92 0 44.0334 10.7646 474 89.2637 323.797 523.614
93 0 46.0575 10.2046 470 91.2596 327.132 522.704
94 0 46.0506 10.5536 486 100.331 330.455 521.444
95 0 48.0549 9.38511 451 100.967 333.588 521.372
96 0 50.0301 11.0533 553 97.5389 336.62 521.958
97 0 51.0746 12.4328 635 94.8803 339.567 521.403
98 0 51.0852 11.4319 584 96.5445 340.099 519.628
99 0 54.056 12.2651 663 94 340.326 523.91
100 0 56.0537 12.0063 673 93.8841 342.878 523.449
101 0 58.0399 11.9228 692 88.0708 341.058 522.48
102 0 60.06 12.9204 776 86.4214 341.66 525.265
103 0 60.1009 11.9299 717 90.0432 340.589 524.555
104 0 63.0257 11.6778 736 89.981 340.091 524.018
105 0 65.0559 12.3125 801 96.1436 337.874 524.024
106 0 68.1222 14.3712 979 90.9326 337.152 523.859
107 0 67.0523 11.3941 764 94.8861 334.754 520.982
108 0 69.0332 12.1536 839 96.4315 332.911 521.116
109 0 72.1442 12.5166 903 91.8937 331.788 522.189
110 0 76.2151 12.6353 963 92.8349 330.468 518.529
111 1 40.0271 8.64415 346 95.4856 328.815 536.546
112 0 40.0577 7.16466 287 93.5923 327.094 536.819
113 0 40.0605 8.58702 344 95.4041 326.163 532.605
114 0 45.0269 9.52764 429 91.9161 323.604 536.315
115 0 43.0253 8.62283 371 129.601 320.472 535.03
116 0 47.1049 10.5085 495 91.497 320.962 532.723
117 0 45.0882 10.668 481 125.757 319.975 533.239
118 0 47.0529 9.83998 463 97.4104 316.829 531.907
119 0 49.0287 9.95335 488 97.5881 316.102 529.662
120 0 47.0297 9.12189 429 137.291 315.142 531.096
121 0 51.0533 12.5163 639 103.656 315.859 527.493
122 0 54.1181 13.3966 725 100.79 314.811 526.73
123 0 53.0432 11.8017 626 104.527 314.965 525.695
124 0 56.1484 11.7902 662 104.767 316.107 526.272
125 0 55.139 12.6952 700 106.083 318.461 523.359
126 0 59.2231 12.3263 730 104.507 320.429 523.09
127 0 59.1004 12.3519 730 105.919 322.907 522.73
128 0 63.1669 13.124 829 104.027 325.891 522.065
129 0 63.1228 12.7529 805 106.404 327.225 520.28
130 0 65.1332 13.1116 854 105.143 328.707 521.211
131 0 66.0925 11.9529 790 109.051 330.966 521.757
132 0 68.1008 12.2759 836 108.913 334.752 521.346
133 0 74.2167 13.5414 1005 105.424 335.571 520.789
134 0 73.1826 11.8471 867 108.681 336.732 520.534
135 0 76.1413 13.1992 1005 105.853 337.034 520.535
136 1 42.0416 9.70468 408 106.064 335.726 541.735
137 0 43.0244 11.0402 475 105.897 336.251 539.707
138 0 43.0536 10.545 454 104.936 334.247 541.304
139 0 45.0375 10.2359 461 107.62 333.499 540.412
140 0 48.0627 12.13 583 103.693 331.926 539.804
141 0 48.059 12.1517 584 104.918 329.265 539.771
142 0 49.041 11.99 588 105.532 327.469 539.425
143 0 51.0546 14.553 743 103.081 326.672 536.991
144 0 50.1324 10.971 550 107.044 325.74 538.56
145 0 52.0657 12.6379 658 104.366 322.998 534.913
146 0 54.1631 12.647 685 102.406 323.093 538.591
147 0 56.1093 12.0123 674 103.918 320.539 535.972
148 0 58.1351 12.1097 704 103.787 319.707 535.511
149 0 59.1448 13.0865 774 102.598 318.559 533.61
150 0 61.2112 12.7264 779 103.651 317.368 532.56
151 0 62.0865 13.4812 837 102.779 316.063 529.515
152 0 66.1342 12.9887 859 103.818 314.236 526.132
153 0 68.1235 14.7673 1006 101.48 313.637 522.367
154 0 71.1147 13.6118 968 102.782 313.815 522.507
155 0 72.1636 12.5409 905 106.388 313.393 518.823
156 0 73.1373 12.5791 920 106.616 314.113 515.941
157 1 39.0291 10.7868 421 104.62 315.028 533.382
158 0 44.0574 11.4169 503 101.38 316.036 534.237
159 0 45.0362 10.8135 487 101.756 318.363 532.957
160 0 47.0237 11.9514 562 99.9733 318.988 532.185
161 0 46.0134 10.9316 503 102.823 321.038 530.845
162 0 47.0552 11.7522 553 98.3526 324.134 531.302
163 0 48.1166 12.2203 588 96.9558 327.189 532.289
164 0 49.072 12.1862 598 98.8746 329.585 531.396
165 0 50.0997 12.2755 615 97.3236 331.343 531.896
166 0 52.1324 11.6051 605 98.0678 332.691 529.998
167 0 54.1237 11.8987 644 96.4519 333.536 533.77
168 0 54.1737 12.0907 655 97.487 334.102 533.545
169 0 56.1048 13.0648 733 95.7367 335.053 532.595
170 0 58.1443 12.7614 742 95.7143 334.042 534.322
171 0 60.1214 12.9571 779 94.9782 333.403 533.257
172 0 62.0986 12.8988 801 93.8052 332.204 531.169
173 0 62.1134 12.445 773 95.1436 331.217 530.398
174 0 64.2519 10.5678 679 97.9072 330.29 531.971
175 0 67.1664 11.7916 792 96.3207 327.955 529.506
176 0 69.1436 12.9296 894 94.1432 326.422 528.408
177 0 69.2895 12.0364 834 96.801 324.697 526.054
178 0 74.1879 13.5871 1008 92.6478 322.492 526.188
179 0 76.1575 12.5923 959 93.6444 321.295 526.5
180 0 78.1272 12.4796 975 93.2287 319.906 524.476
181 1 42.2425 11.1026 469 95.3966 318.595 540.889
182 0 43.1531 10.7988 466 96.7232 316.981 539.174
183 0 45.2102 11.0373 499 95.8677 315.914 537.18
184 0 47.1125 13.4359 633 88.7978 312.782 535.196
185 0 48.0969 12.2253 588 92.3469 311.029 533.985
186 0 47.2162 12.3263 582 95.4021 311.679 531.83
187 0 48.2819 11.3914 550 96.7945 311.545 530.211
188 0 50.2492 12.1992 613 95.2006 311.507 528.346
189 0 52.2139 12.6786 662 95.1057 312.479 525.713
190 0 52.1905 12.1286 633 96.3823 313.616 526.103
191 0 55.1804 12.3413 681 95.7107 314.181 523.486
192 0 56.1694 12.5869 707 95.5545 316.543 524.058
193 0 55.1089 11.5226 635 99.0126 318.274 522.343
194 0 59.1703 13.1654 779 95.3697 320.041 523.996
195 0 61.2445 14.5156 889 93.2666 322.549 520.331
196 0 61.2129 13.3632 818 96.2054 326.545 525.009
197 0 63.2047 12.8155 810 98.642 329.265 520.662
198 0 65.1808 13.3475 870 97.7713 331.202 522.659
199 0 68.1453 14.4984 988 96.3613 333.562 520.622
200 0 68.0977 13.3632 910 99.9868 335.71 520.359
201 0 71.1591 14.32 1019 97.2022 335.792 520.006
202 0 75.1177 14.9366 1122 100.088 336.391 521.496
203 0 76.2311 14.1937 1082 102.73 337.275 520.7
204 1 41.0453 10.6224 436 102.33 335.282 539.761
205 0 41.0444 9.30699 382 102.804 333.602 542.652
206 0 42.1303 9.5893 404 102.351 332.908 543.775
207 0 41.0553 9.13401 375 104.789 331.216 542.931
208 0 44.1006 11.3377 500 100.57 329.752 542.074
209 0 45.0923 12.3746 558 98.4158 328.116 543.199
210 0 47.1469 11.9838 565 100.402 325.788 541.129
211 0 47.1469 11.9202 562 139.662 320.786 541.116
212 0 54.1521 14.6255 792 95.4924 323.16 535.299
213 0 55.0972 13.1767 726 99.781 317.961 537.289
214 0 55.1962 13.9502 770 99.1532 317.334 537.697
215 0 56.127 13.5229 759 101.227 315.605 533.835
216 0 56.127 13.5942 763 144.073 313.579 533.921
217 0 60.1302 14.5684 876 101.142 314.032 530.45
218 0 61.187 14.6927 899 102.218 312.068 531.39
219 0 62.1084 13.6213 846 105.803 311.509 528.762
220 0 63.1248 14.2258 898 105.954 311.548 526.183
221 0 66.1349 14.0622 930 106.367 311.485 525.898
222 0 69.1133 14.3388 991 106.52 313.223 522.818
223 0 68.1193 13.4323 915 111.244 312.846 521.258
224 0 70.1137 13.7634 965 110.435 314.638 520.816
225 0 74.1094 15.4232 1143 106.547 317.05 518.752
226 0 75.1297 14.5748 1095 110.476 318.932 517.215
227 1 41.1005 11.6544 479 112.595 321.582 534.132
228 0 42.0476 10.2741 432 114.164 324.308 535.66
229 0 43.0913 12.021 518 110.917 326.929 535.319
230 0 43.0807 12.465 537 112.091 330.246 536.274
231 0 45.0936 11.332 511 113.078 332.229 535.652
232 0 46.2207 14.236 658 106.938 333.143 533.894
233 0 48.1916 14.1518 682 106.117 334.773 536.397
234 0 49.0388 12.9082 633 108.106 334.908 537.04
235 0 52.2027 14.2138 742 105.24 335.492 537.632
236 0 54.0359 13.8241 747 105.897 333.063 536.861
237 0 55.0912 14.0857 776 105.566 332.615 537.686
238 0 58.0808 14.3937 836 103.652 331.889 538.191
239 0 60.0995 14.9918 901 103.462 329.093 535.522
240 0 62.1688 13.8333 860 106.158 328.324 536.363
241 0 63.1981 13.6396 862 105.862 326.589 536.492
242 0 63.1094 13.437 848 107.132 324.876 535.716
243 0 68.1319 13.8408 943 103.783 322.48 535.218
244 0 70.1438 13.0161 913 105.428 320.575 534.192
245 0 73.1685 14.4051 1054 103.12 319.935 533.557
246 0 74.1829 13.6554 1013 105.351 318.061 531.71
247 1 38.113 10.7312 409 107.892 315.531 548.421
248 0 38.0539 11.2472 428 107.942 313.234 545.935
249 0 41.066 12.1025 497 106.889 312.628 544.4
250 0 43.1804 12.552 542 106.05 312.116 541.363
251 0 43.1813 11.5559 499 106.397 312.238 541.347
252 0 46.1941 13.6381 630 100.179 310.875 537.394
253 0 48.268 13.5908 656 100.805 312.558 534.046
254 0 50.3048 13.8357 696 99.4009 310.747 531.661
255 0 49.5157 13.3695 662 108.804 310.992 529.943
256 0 52.3638 13.6927 717 107.651 312.113 527.591
257 0 53.2886 14.5247 774 105.999 312.906 524.567
258 0 56.2974 14.4767 815 105.066 314.21 524.953
259 0 58.382 13.1205 766 108.345 315.42 523.894
260 0 59.306 14.0458 833 108.246 317.292 521.657
261 0 61.4613 14.139 869 106.868 320.115 522.255
262 0 63.3717 13.334 845 109.456 323.2 520.86
263 1 34.2856 10.9667 376 105.965 328.069 538.346
264 0 36.3522 10.7834 392 108.888 329.14 534.153
265 0 35.1864 10.2028 359 109.474 332.092 535.618
266 0 38.208 10.7046 409 108.844 334.606 535.824
267 0 39.2341 9.83837 386 110.956 336.549 536.692
268 0 41.2863 10.3666 428 110.834 336.523 536.986
269 0 42.0396 11.7746 495 108.224 337.822 537.22
270 0 42.2151 12.9575 547 107.005 333.119 537.925
271 0 44.3095 11.7808 522 110.996 334.201 539.548
272 0 46.2701 12.6864 587 109.726 334.123 536.91
273 0 48.2761 13.6299 658 107.752 330.675 536.374
274 0 50.3271 14.6839 739 105.823 329.606 536.061
275 0 49.4491 14.5604 720 108.39 328.229 534.311
276 0 52.2712 14.2526 745 106.573 326.133 535.6
277 0 52.2499 13.9713 730 108.681 324.155 534.589
278 0 54.3742 13.1864 717 109.414 323.188 535.548
279 0 56.267 14.5378 818 106.627 321.996 533.191
280 0 59.2888 14.033 832 106.279 320.994 533.242
281 0 62.3005 14.5906 909 104.396 319.129 532.744
282 0 63.2077 13.8274 874 107.358 317.152 529.027
283 0 62.208 14.0014 871 150.231 315.157 529.062
284 1 34.0736 10.6828 364 106.591 316.783 542.528
285 0 37.1692 9.49712 353 108.326 314.788 540.456
286 0 37.1235 10.7748 400 107.595 315.152 535.69
287 0 40.0635 10.109 405 109.83 314.723 534.602
288 0 41.0579 11.7395 482 105.506 314.842 532.71
289 0 41.0348 10.7713 442 96.8213 312.068 532.473
290 0 41.0697 12.2718 504 98.2679 313.115 530.01
291 0 39.1906 10.9465 429 108.562 312.38 529.72
292 0 43.1757 11.5111 497 106.157 314.511 529.038
293 0 44.1686 11.9768 529 105.624 315.974 526.834
294 0 45.0806 11.5349 520 106.815 317.525 525.84
295 0 47.1153 12.6498 596 106.653 321.535 529.732
296 0 49.1322 12.2323 601 107.255 324.018 528.168
297 0 52.0757 13.7684 717 102.273 327.085 527.788
298 0 52.1153 12.1653 634 106.505 329.593 527.492
299 0 55.1063 13.1383 724 105.011 331.837 529.544
300 0 56.105 13.1183 736 105.635 334.061 527.674
301 0 57.0657 13.2128 754 107.749 333.607 527.926
302 0 59.0552 11.3792 672 110.746 335.134 532.124
303 0 61.1049 13.6978 837 106.798 335.671 530.606
304 0 63.1922 13.8308 874 107.11 336.01 529.342
305 0 64.1197 13.35 856 108.992 333.35 527.546
306 0 67.1337 15.7745 1059 103.733 332.924 527.33
307 0 70.0871 15.2239 1067 104.278 332.258 527.452
308 0 72.1455 14.5678 1051 105.627 329.648 525.804
309 1 37.0463 9.31268 345 103.136 328.487 544.771
310 0 41.0746 11.613 477 100.516 325.887 543.908
311 0 38.1384 10.3832 396 104.386 324.093 543.79
312 0 44.1097 10.7006 472 103.896 322.894 540.409
313 0 45.0603 12.339 556 103.192 321.935 539.665
314 0 46.1236 12.5749 580 108.209 320.862 539.869
315 0 48.3165 13.246 640 107.905 318.264 538.231
316 0 48.2786 14.1056 681 104.874 318.031 535.758
317 0 48.2748 12.9467 625 108.317 316.339 536.12
318 0 52.213 13.1768 688 107.767 314.638 535.897
319 0 54.3185 14.0468 763 104.917 313.591 530.543
320 0 55.2105 13.9829 772 103.692 313.484 530.241
321 0 56.3354 14.0232 790 105.565 313.704 527.947
322 0 58.1943 13.6439 794 107.606 312.727 524.168
323 0 58.3482 13.608 794 108.106 312.272 521.705
324 0 59.2527 13.0289 772 110.579 312.087 519.987
325 0 65.2196 15.2255 993 103.69 313.142 518.362
326 0 67.2717 14.4637 973 105.095 314.607 516.722
327 0 67.2557 15.1511 1019 105.62 316.715 515.92
328 0 70.1831 15.6875 1101 104.134 320.062 514.554
329 0 69.1648 13.5329 936 110.699 322.073 514.434
330 0 72.1909 14.4478 1043 109.018 325.542 514.45
331 0 75.2335 14.4484 1087 108.534 328.327 513.551
332 0 76.2487 14.9773 1142 108.139 330.749 515.052
333 0 79.2127 13.9372 1104 110.75 332.282 513.061
334 0 81.236 16.1135 1309 105.798 333.647 513.957
335 0 85.1769 14.9923 1277 108.585 333.759 514.709
336 1 44.097 11.4294 504 114.065 335.232 534.298
337 0 46.1442 8.77684 405 115.484 336.358 538.385
338 0 51.097 11.2335 574 110.401 334.702 531.84
339 0 50.1572 12.1817 611 109.417 333.548 538.01
340 0 51.1592 12.2363 626 108.334 332.347 538.938
341 0 53.2753 11.3561 605 111.207 330.742 536.165
342 0 57.1319 14.3002 817 105.594 327.655 535.947
343 0 60.259 15.4002 928 100.946 326.51 536.191
344 0 60.235 13.1817 794 107.125 325.429 532.747
345 0 62.2758 12.4607 776 107.232 323.286 530.827
346 0 66.2163 14.5131 961 101.009 320.637 532.294
347 0 66.204 13.5792 899 104.944 320.042 529.127
348 0 67.1437 12.9126 867 103.755 318.963 530.308
349 0 71.1864 12.7553 908 103.134 317.683 526.508
350 0 74.1686 13.8199 1025 101.495 315.634 523.41
351 0 77.19 14.1599 1093 100.396 314.873 519.149
352 0 78.4152 12.4083 973 103.843 312.99 516.169
353 1 44.1001 11.4512 505 104.388 313.812 532.402
354 0 46.1395 10.7717 497 103.821 312.418 531.614
355 0 45.1142 10.7283 484 106.574 312.308 528.857
356 0 52.1845 11.651 608 100.604 313.266 528.949
357 0 51.1138 12.5211 640 100.831 313.934 525.086
358 0 55.1615 13.5964 750 95.4413 310.415 526.545
359 0 56.0415 13.6863 767 93.3246 312.11 527.128
360 0 58.0841 13.2222 768 94.431 314.578 524.471
361 0 58.0804 12.9131 750 94.5067 316.439 521.056
362 0 62.0678 14.8225 920 89.9544 318.713 522.235
363 0 63.1868 12.2336 773 94.9793 322.494 521.486
364 0 65.1369 12.3739 806 94.4826 325.589 523.012
365 0 66.1695 12.3773 819 93.3932 327.852 521.923
366 0 70.1139 12.3941 869 93.458 330.067 520.618
367 0 75.0903 15.5013 1164 86.4751 331.051 519.754
368 1 37.0502 9.47363 351 98.1652 332.556 538.627
369 0 40.0227 9.41965 377 98.13 332.538 541.411
370 0 42.0187 10.1859 428 97.8551 332.194 540.439
371 0 42.038 12.0367 506 96.751 331.808 540.427
372 0 45.1404 11.719 529 97.1682 331.316 539.344
373 0 45.1348 13.5372 611 93.4697 329.869 540.56
374 0 47.2325 12.936 611 93.4337 328.704 541.635
375 0 48.2112 12.4038 598 95.9833 326.945 539.803
376 0 50.339 12.1377 611 96.2259 325.152 540.565
377 0 51.2062 13.2992 681 94.5198 323.797 541.909
378 0 53.2152 13.5487 721 96.0735 321.477 539.039
379 0 55.1964 13.3886 739 97.1137 320.405 539.18
380 0 54.1942 12.8981 699 100.863 319.401 535.954
381 0 58.1845 13.5947 791 98.7181 317.091 534.786
382 0 58.1951 12.6815 738 101.782 315.985 533.492
383 0 60.2049 12.0754 727 101.55 314.959 534.085
384 0 63.1948 13.1973 834 98.4652 314.245 533.011
385 0 64.2231 12.8614 826 100.654 312.571 528.743
386 0 66.2162 14.1959 940 98.6543 311.086 525.228
387 0 68.2675 14.1063 963 99.7674 310.844 521.798
388 0 69.166 12.2604 848 102.846 309.895 520.598
389 0 73.1823 13.3092 974 99.2587 310.398 520.839
390 0 76.4842 12.9177 988 95.7621 311.55 518.467
391 0 76.0858 11.6316 885 99.6396 311.469 512.716
392 1 41.0661 10.4222 428 92.5397 312.628 533.631
393 0 44.2777 10.1631 450 92.5956 314.016 532.013
394 0 48.2846 11.8879 574 88.8641 315.951 530.268
395 0 47.213 11.7976 557 90.9138 319.686 529.056
396 0 49.1136 13.3568 656 89.2637 321.415 528.41
397 0 51.1143 13.9687 714 90.7689 322.798 530.714
398 0 52.0927 13.2456 690 91.258 326.274 532.281
399 0 56.0954 14.1545 794 89.3866 328.606 529.059
400 0 56.1493 13.8203 776 90.5709 330.549 530.338
401 0 58.1202 13.6613 794 90.7846 332.635 531.23
402 0 59.1189 14.5131 858 90.8601 333.184 531.036
403 0 61.1586 12.9172 790 94.4696 333.389 532.967
404 0 65.1636 14.7015 958 90.762 332.736 534.495
405 0 66.0825 15.1023 998 91.1333 331.89 532.69
406 1 34.0191 11.4936 391 93.7059 330.379 548.143
407 0 31.0336 10.5692 328 93.0183 328.216 548.235
408 0 34.009 10.8501 369 92.7832 326.344 549.417
409 0 37.0566 12.2785 455 91.4747 324.24 549.411
410 0 38.0857 11.1328 424 95.6274 322.354 547.788
411 0 40.0746 11.6283 466 93.6846 320.893 548.504
412 0 41.1492 12.2238 503 92.5547 319.879 548.839
413 0 42.1073 13.0381 549 93.561 318.641 544.989
414 0 43.0644 11.9356 514 95.1323 317.51 541.255
415 0 44.0921 13.0409 575 92.8504 315.353 542.57
416 0 47.1131 13.8815 654 90.8073 314.497 542.613
417 0 48.0605 13.1917 634 92.1877 311.932 537.752
418 0 48.1662 12.8929 621 93.2947 311.462 537.849
419 0 47.0984 11.9962 565 95.3947 310.131 535.416
420 0 51.0771 12.8433 656 92.5884 310.017 534.262
421 0 54.2133 14.9225 809 87.5303 309.634 530.92
422 0 57.118 15.8794 907 84.7398 310.238 530.626
423 0 58.1245 15.0711 876 88.1975 308.548 531.036
424 0 58.1951 12.166 708 93.1003 309.007 525.959
425 0 61.0806 13.3921 818 91.6712 309.894 523.23
426 0 62.076 14.6272 908 90.0617 311.449 522.144
427 0 63.0498 13.3704 843 92.9051 312.537 520.81
428 0 68.1093 15.3283 1044 87.8889 315.764 521.798
429 0 69.1742 13.9937 968 91.8791 319.635 521.229
430 0 72.2007 14.3489 1036 92.4517 321.255 522.058
431 0 73.1605 14.024 1026 93.924 324.685 520.736
432 1 37.1085 10.6445 395 100.228 327.78 536.861
433 0 40.1024 10.6228 426 99.615 329.136 539.669
434 0 40.1886 12.0183 483 97.5549 331.768 539.791
435 0 39.0463 9.93692 388 101.876 332.273 540.755
436 0 45.1437 10.7213 484 100.107 333.684 541.169
437 0 46.2232 11.1416 515 100.004 333.516 540.348
438 0 45.1375 10.8114 488 102.182 332.285 541.717
439 0 48.139 12.547 604 97.7351 331.232 539.616
440 0 50.1681 12.3983 622 101.096 330.727 537.611
441 0 54.2311 14.1985 770 96.5377 329.417 536.06
442 0 53.1834 14.1209 751 93.6884 326.616 536.15
443 0 58.0975 14.1486 822 92.1874 324.945 535.512
444 0 60.0787 13.2493 796 94.3568 322.989 535.472
445 0 61.2093 13.5764 831 95.4248 320.723 536.044
446 0 64.1579 13.3109 854 95.8607 319.311 536.597
447 0 66.1856 13.5226 895 96.9676 318.009 531.874
448 0 69.1971 13.8879 961 96.1498 316.028 532.818
449 0 69.1192 13.672 945 98.7619 315.834 527.859
450 0 72.1224 12.451 898 100.836 315.018 527.001
451 0 74.2864 13.0172 967 98.9411 314.029 526.551
452 0 78.129 15.4744 1209 93.8462 312.175 524.684
453 0 78.2882 13.6802 1071 98.9449 309.442 522.74
454 0 82.2894 14.9959 1234 97.453 309.682 520.399
455 0 83.0873 14.2501 1184 99.6723 310.88 518.744
456 0 85.3074 15.0632 1285 98.0786 310.339 512.016
457 0 89.1797 15.0371 1341 98.5727 310.637 510.35
458 0 91.2343 14.534 1326 98.819 312.127 509.653
459 0 94.1507 15.0185 1414 98.2044 311.602 507.946
460 0 97.2513 14.7144 1431 99.4458 313.432 505.116
461 0 99.3039 14.5311 1443 99.4948 316.408 506.992
462 0 105.322 17.3942 1832 92.3772 319.179 501.993
463 0 106.202 13.8698 1473 100.887 321.656 502.188
464 0 110.271 14.7455 1626 98.4446 325.225 501.617
465 1 57.2771 13.2339 758 99.4868 329.165 524.962
466 0 59.1619 12.6602 749 100.211 331.87 524.653
467 0 62.1478 14.4333 897 96.5485 332.284 525.408
468 0 62.0231 13.5917 843 97.6062 332.624 527.097
469 0 62.076 12.6458 785 94.2433 333.82 526.555
470 0 68.1244 13.2992 906 91.4801 333.147 526.595
471 0 69.1234 13.6423 943 92.7158 332.66 524.444
472 0 74.1042 13.2516 982 92.2556 332.05 528.338
473 0 75.1566 14.6361 1100 91.6073 331.445 526.575
474 0 79.1403 14.6954 1163 91.2201 329.6 524.024
475 0 79.2758 12.5763 997 95.8796 327.344 519.953
476 0 81.0823 12.9498 1050 96.0695 325.071 521.154
477 0 85.1475 13.0127 1108 96.4594 323.618 520.104
478 0 95.1191 18.5031 1760 82.3665 322.004 510.519
479 0 97.1664 16.199 1574 88.0826 321.018 512.825
480 0 98.1275 15.8875 1559 89.2219 318.08 513.012
481 0 97.1827 14.2103 1381 94.0862 316.547 511.478
482 0 101.158 13.3751 1353 95.2498 315.599 513.698
483 1 54.0441 9.60327 519 92.9576 314.47 533.944
484 0 55.0372 11.4468 630 92.054 313.435 532.611
485 0 56.0954 10.4465 586 91.4181 312.794 533.273
486 0 58.1092 11.6161 675 90.88 312.646 531.802
487 0 60.0354 12.5259 752 90.1582 311.999 526.891
488 0 63.0909 12.4424 785 91.2535 308.609 523.456
489 0 65.1186 11.7632 766 92.1384 308.796 520.604
490 0 68.0345 12.2585 834 91.4197 309.29 518.742
491 0 70.0391 12.1075 848 92.6981 309.775 514.938
492 0 73.1062 12.5297 916 92.3483 310.094 513.201
493 0 75.0332 12.4612 935 92.6877 311.06 514.473
494 0 76.031 12.9026 981 94.5117 313.862 511.064
495 0 82.0916 13.4971 1108 93.139 315.536 512.363
496 0 85.0467 13.7807 1172 93.6374 318.078 510.189
497 0 88.1289 13.0945 1154 95.9861 321.003 507.528
498 1 49.0761 9.4547 464 87.9763 323.627 535.457
499 0 48.0715 9.48586 456 92.2654 326.114 531.833
500 0 50.0538 8.91041 446 91.7085 328.099 533.274
501 0 53.06 10.3468 549 87.2532 332.013 532.443
502 0 54.1296 11.5094 623 89.4109 331.315 531.319
503 0 56.2407 12.6243 710 93.9113 331.328 531.744
504 0 58.0875 12.1197 704 91.9276 331.713 540.234
505 0 61.1068 13.1082 801 91.3233 329.67 535.775
506 0 62.1495 12.7113 790 93.3013 329.36 536.142
507 0 63.0876 12.6966 801 94.4245 328.494 534.492
508 0 68.1009 12.643 861 93.2149 326.575 535.269
509 0 71.2812 14.1412 1008 90.6806 325.125 535.003
510 0 70.0771 13.4994 946 93.4894 321.564 534.753
511 0 74.1404 13.3665 991 93.4299 319.68 530.716
512 0 77.0942 12.1669 938 95.5075 318.628 531.189
513 0 79.1555 13.4545 1065 94.0836 318.091 527.195
514 0 81.125 12.5116 1015 96.1232 314.782 524.894
515 0 85.171 13.6549 1163 94.3104 314.16 525.254
516 0 88.0916 14.3714 1266 92.8152 313.172 521.911
517 1 46.0485 8.59962 396 96.4545 311.52 541.7
518 0 50.0662 8.62857 432 95.1435 310.859 539.505
519 0 50.0256 10.1348 507 92.7396 308.673 538.726
520 0 51.0941 9.68802 495 94.0687 308.584 535.497
521 0 51.089 9.826 502 92.6833 309.922 536.185
522 0 54.1404 10.8237 586 91.5751 308.72 529.742
523 0 53.1089 10.3937 552 88.8134 308.784 526.014
524 0 55.1463 11.8956 656 80.6357 309.538 523.486
525 0 57.1746 11.1938 640 81.5609 310.63 526.223
526 0 58.1766 10.7431 625 83.4288 310.077 524.714
527 0 61.1149 12.9428 791 79.8597 312.258 523.594
528 0 63.1303 11.009 695 89.7079 315.365 520.836
529 0 63.0889 11.254 710 88.5225 317.821 521.107
530 0 66.1643 11.8493 784 87.625 321.435 520.147
531 0 66.2104 9.78698 648 92.2855 323.897 520.133
532 0 69.0837 10.7695 744 91.7997 326.38 520.831
533 0 69.0956 10.9558 757 93.7411 329.144 518.345
534 0 73.1833 11.0818 811 92.4944 329.996 520.792
535 0 75.1702 10.8421 815 93.3386 330.974 519.142
536 0 78.177 10.6937 836 94.8134 332.248 517.402
537 0 83.1611 11.604 965 92.9824 332.046 518.086
538 0 85.1054 11.2449 957 94.9572 332.009 516.697
539 0 90.1511 12.9227 1165 92.0112 331.425 520.289
540 0 93.1698 12.7831 1191 92.9589 329.915 519.583
541 0 96.132 12.2852 1181 95.315 328.268 515.441
542 1 50.1724 6.91615 347 92.196 324.804 542.513
543 0 53.1617 10.6468 566 88.4523 323.693 539.283
544 0 57.145 8.88967 508 91.1102 319.992 537.337
545 0 56.0936 9.60894 539 90.8942 318.596 537.427
546 0 58.111 10.3423 601 87.1364 316.832 533.155
547 0 59.2966 10.5402 625 86.8448 316.693 533.288
548 0 62.215 11.6692 726 84.4711 315.694 531.552
549 0 65.2105 10.5658 689 87.2003 313.698 531.501
550 0 63.1955 9.90578 626 89.6502 312.685 524.663
551 0 68.2277 11.9453 815 85.6908 311.465 522.888
552 0 69.135 11.8175 817 87.3892 310.441 524.552
553 0 70.2164 11.6212 816 88.6336 309.79 521.173
554 0 74.2421 12.2707 911 86.7574 308.532 517.888
555 0 76.1756 11.4078 869 89.3072 308.829 515.806
556 0 80.2058 12.7547 1023 85.5963 309.067 514.381
557 0 81.3764 12.6818 1032 85.6105 309.057 514.971
558 0 83.267 11.6973 974 88.846 310.058 508.387
559 1 44.2267 8.93125 395 85.4911 311.504 531.848
560 0 44.4468 8.97703 399 86.3484 311.065 526.702
561 0 48.0444 10.5527 507 92.1183 311.124 527.114
562 0 48.0107 9.62286 462 93.5281 312.907 530.24
563 0 51.021 11.6031 592 92.603 316.465 527.258
564 0 52.0464 12.1046 630 89.4032 320.151 522.876
565 0 52.0947 9.34836 487 87.9507 323.335 527.474
566 0 55.096 9.65588 532 85.4981 327.291 526.308
567 0 55.1346 10.0119 552 86.3514 329.277 525.748
568 0 58.1156 10.4447 607 85.1186 331.932 532.156
569 0 59.1654 9.70161 574 86.7927 331.34 528.502
570 0 60.1607 9.77383 588 86.432 332.611 530.145
571 0 63.1468 11.9721 756 83.2275 331.963 531.312
572 0 64.1492 10.2729 659 86.5357 330.199 529.094
573 0 67.1389 9.77079 656 87.1143 329.558 528.151
574 0 71.1363 12.4831 888 82.0619 329.012 528.186
575 1 35.0618 9.1838 322 80.9037 326.37 546.77
576 0 36.2092 6.79386 246 84.8089 323.943 547.504
577 0 37.1194 8.6747 322 83.677 321.637 545.208
578 0 41.2919 9.5176 393 82.1883 320.695 544.87
579 0 38.08 9.16492 349 85.2636 319.16 543.576
580 0 43.0891 10.0954 435 82.6207 317.356 543.89
581 0 44.0687 11.0736 488 82.6516 316.176 544.598
582 0 47.1458 12.0053 566 82.4364 314.917 542.415
583 0 46.1112 12.1662 561 89.3351 313.535 543.086
584 0 49.1258 11.9693 588 87.8792 311.577 539.044
585 0 49.0824 12.6929 623 87.4703 309.933 540.233
586 0 49.1655 11.4308 562 90.3648 310.187 537.772
587 0 51.127 11.5203 589 90.8031 309.654 538.56
588 0 53.2318 12.6992 676 88.3654 309.632 535.549
589 0 53.0897 11.8667 630 91.4175 309.302 536.436
590 0 55.1657 13.2691 732 88.5765 309.716 533.568
591 0 57.2233 12.2677 702 90.1624 309.154 529.672
592 0 57.2139 12.3047 704 91.5582 310.392 527.834
593 0 59.1428 12.6981 751 92.3542 310.72 526.262
594 0 61.0796 12.5574 767 92.2594 311.025 525.07
595 0 65.1081 15.9581 1039 85.5111 313.598 525.022
596 0 65.0902 12.5979 820 93.1756 315.73 526.252
597 0 69.2724 13.0066 901 93.4883 318.325 523.347
598 0 71.1637 13.2511 943 94.4867 321.989 522.188
599 0 71.1319 13.8475 985 95.1624 325.716 521.195
600 0 74.2975 14.3612 1067 94.537 326.354 519.804
601 0 78.147 14.9462 1168 94.8253 329.249 523.283
602 0 73.0537 12.4566 910 99.8396 330.382 523.508
603 1 44.0153 7.86091 346 103.156 330.913 541.72
604 0 47.0533 11.6464 548 99.7883 331.651 540.367
605 0 48.0569 10.3835 499 102.754 331.299 540.687
606 0 52.0677 10.9665 571 105.389 330.292 541.974
607 0 52.1341 11.8732 619 106.019 329.662 539.015
608 0 53.1725 12.356 657 105.073 328.549 543.247
609 0 55.1249 13.2789 732 105.012 326.357 539.1
610 0 58.2736 14.3118 834 103.311 324.103 539.813
611 0 58.1816 14.0938 820 104.33 322.274 543.224
612 0 59.1296 14.0708 832 103.147 320.501 538.588
613 0 62.235 13.7382 855 102.608 318.664 538.837
614 0 66.1982 13.4596 891 102.483 316.807 536.938
615 0 64.1959 13.4432 863 165.02 314.822 536.333
616 0 69.1681 14.3708 994 102.566 314.454 530.405
617 0 71.2074 13.2149 941 106.433 311.041 529.383
618 0 74.1552 13.9977 1038 103.896 310.862 528.156
619 0 73.1648 12.6154 923 105.9 309.814 525.751
620 0 76.2372 13.6416 1040 103.583 309.41 523.06
621 0 81.31 14.8198 1205 99.8747 309.471 522.195
622 1 43.2244 9.87868 427 106.307 308.351 539.974
623 0 45.16 9.74315 440 106.059 308.434 536.848
624 0 45.1202 11.8572 535 101.854 308.536 538.219
625 0 45.215 11.2131 507 106.432 310.536 532.817
626 0 49.0849 13.0386 640 98.6875 311.364 535.012
627 0 49.0713 12.6551 621 99.9404 312.417 532.332
628 0 52.1512 13.2691 692 98.1127 313.75 531.263
629 0 53.1062 14.1038 749 96.5234 314.81 528.174
630 0 55.0781 14.198 782 96.3581 317.893 526.385
631 0 55.081 14.6693 808 96.1869 320.911 525.183
632 0 58.1235 14.4004 837 95.9486 323.076 528.305
633 0 59.126 13.9532 825 96.8824 326.512 526.876
634 0 60.0959 13.6781 822 97.6898 328.81 528.766
635 0 62.0526 13.827 858 97.5 330.677 529.921
636 0 65.1737 14.6838 957 94.2915 330.748 530.366
637 0 66.1608 13.5276 895 96.7274 331.841 530.244
638 0 69.0909 14.6184 1010 95.1881 332.32 528.687
639 0 70.0754 14.6699 1028 96.999 331.895 528.393
640 0 75.1903 15.095 1135 93.585 329.973 529.361
641 0 76.2588 13.6771 1043 98.9175 328.594 528.197
642 0 80.164 14.9319 1197 96.5305 326.669 524.251
643 0 83.1514 15.0689 1253 97.0208 325.075 522.9
644 1 43.004 10.4176 448 103.623 323.103 542.752
645 0 45.1024 10.5094 474 100.787 318.684 546.998
646 0 46.0257 10.7331 494 102.559 318.162 545.47
647 0 47.1095 10.3801 489 100.264 317.121 546.307
648 0 48.0622 11.5683 556 99.6637 314.991 540.694
649 0 52.0705 12.0222 626 97.7572 315.105 541.54
650 0 52.0776 13.9407 726 93.9931 313.318 537.89
651 0 56.145 15.8696 891 86.4893 311.333 536.822
652 0 54.0997 12.8097 693 95.8398 311.019 534.117
653 0 57.0626 14.0547 802 93.1097 310.824 532.761
654 0 58.0452 14.058 816 92.8272 309.526 530.575
655 0 59.0674 13.5608 801 93.2522 309.362 531.848
656 0 62.043 14.2482 884 91.8314 308.326 526.575
657 0 62.1022 14.7177 914 91.8381 308.976 527.675
658 0 64.078 14.2795 915 92.3104 308.986 525.024
659 0 67.1748 14.4846 973 90.9794 310.491 525.26
660 0 69.2527 14.8586 1029 91.4101 310.54 522.448
661 0 70.1959 14.3171 1005 93.3353 312.528 519.504
662 0 73.3189 14.8802 1091 92.2126 313.695 519.476
663 0 75.2195 13.9592 1050 93.3743 317.251 519.249
664 0 75.2055 12.765 960 96.7938 319.576 518.64
665 1 38.2026 10.7323 410 98.9293 322.215 538.059
666 0 36.2826 11.1899 406 99.8842 325.478 540.532
667 0 43.1424 10.8014 466 96.97 325.781 539.53
668 0 41.0757 11.1745 459 99.6471 328.695 539.643
669 0 43.0718 11.7014 504 97.3512 331.109 539.085
670 0 47.0608 12.3457 581 94.5043 332.451 541.532
671 0 46.0296 12.2747 565 96.6124 332.372 540.18
672 0 47.1598 13.1468 620 93.8436 332.953 542.936
673 0 50.1374 14.9788 751 88.9987 331.451 541.063
674 0 51.1941 13.8883 711 92 329.184 541.314
675 0 53.0892 14.4097 765 90.1307 327.77 541.889
676 0 54.0989 14.418 780 91.332 325.786 540.082
677 0 58.1008 16.0411 932 87.2854 322.911 541.749
678 0 59.0908 15.197 898 89.2283 320.445 539.79
679 0 61.1112 14.2691 872 91.2477 318.568 537.478
680 0 64.224 14.9944 963 90.026 317.173 538.709
681 0 63.1469 14.5217 917 92.0851 315.688 535.6
682 0 67.1915 14.4512 971 92.6869 313.385 534.585
683 0 68.1049 14.742 1004 92.51 312.171 531.287
684 0 71.1438 14.3512 1021 93.1557 310.831 532.868
685 0 74.2142 14.4177 1070 94.2748 310.142 529.449
686 0 74.1928 14.2871 1060 95.7726 309.521 525.486
687 0 78.1045 15.5433 1214 92.3781 309.099 523.7
688 0 78.1737 13.7386 1074 96.8548 308.393 524.066
689 0 82.1701 14.9933 1232 99.0674 308.968 521.382
690 0 84.238 14.5303 1224 100.269 308.4 519.718
691 1 42.134 11.1786 471 100.096 306.11 538.244
692 0 45.1098 9.19977 415 102.504 307.21 537.94
693 0 46.0814 11.2193 517 98.8723 307.511 536.863
694 0 47.0734 12.1725 573 96.199 307.735 534.85
695 0 48.0846 12.3948 596 98.1141 309.225 533.339
696 0 51.3589 12.9676 666 92.2823 311.745 531.137
697 0 52.1398 14.2118 741 90.0675 313.555 530.526
698 0 53.0896 13.4678 715 92.4769 316.834 529.242
699 0 57.0609 13.4768 769 92.0195 319.159 530.289
700 0 57.0759 14.5771 832 91.113 320.916 529.583
701 0 60.1005 14.2262 855 91.2667 323.978 527.919
702 0 62.15 13.0008 808 93.9666 325.975 528.938
703 1 31.0324 8.70058 270 99.6407 326.9 546.056
704 0 34.0556 10.659 363 95.2948 327.744 547.072
705 0 36.0232 9.16076 330 97.3061 327.903 549.845
706 0 37.0707 10.2777 381 98.1024 327.984 547.722
707 0 40.063 11.9312 478 94.5146 326.751 549.222
708 0 39.075 10.723 419 98.5155 325.678 549.482
709 0 42.0629 12.1009 509 96.3792 323.904 549.542
710 0 43.2191 13.6051 588 61.301 320.048 553.495
711 0 46.1442 14.4113 665 93.9308 318.97 546.917
712 0 45.2321 11.5847 524 88.5744 319.761 546.981
713 0 45.2436 12.3111 557 88.7989 318.393 545.634
714 0 46.3055 12.5903 583 88.9691 315.859 543.765
715 0 49.1877 13.7433 676 87.1272 315.939 542.219
716 0 48.153 11.5673 557 92.4129 313.707 543.743
717 0 50.1921 11.6353 584 92.2123 311.272 542.709
718 0 51.1961 12.1884 624 91.0753 311.409 540.285
719 0 54.1735 13.4937 731 89.3434 309.78 536.297
720 0 56.143 12.86 722 88.9141 309.695 536.604
721 0 61.0807 9.44652 577 94.8111 308.908 535.288
722 0 57.0854 12.9806 741 91.7463 308.511 527.208
723 0 59.2066 13.6302 807 93.4362 307.01 529.032
724 0 59.2283 12.2408 725 95.8483 307.85 526.657
725 0 61.1474 12.936 791 95.4172 306.837 522.759
726 0 63.2659 12.076 764 97.6217 307.114 522.266
727 0 65.12 12.1007 788 97.9886 307.8 520.784
728 0 67.1541 13.4169 901 94.8091 309.143 520.848
729 0 69.0738 12.6097 871 92.4604 311.479 520.015
730 0 71.1189 13.3157 947 96.2408 311.609 522.973
731 0 73.1058 13.4736 985 96.9279 314.747 522.296
732 0 75.1491 13.5331 1017 98.2439 317.364 524.727
733 0 79.2091 14.8341 1175 96.257 320.479 521.449
734 0 79.1646 13.8951 1100 98.4009 322.789 519.696
735 0 82.1027 13.3126 1093 99.3632 325.385 520.377
736 0 85.1484 14.5276 1237 97.924 326.824 519.583
737 1 43.0741 9.91315 427 99.6956 328.155 541.991
738 0 43.0851 11.3264 488 98.1865 328.711 540.684
739 0 49.0415 11.6636 572 97.6661 329.666 541.526
740 0 49.0423 10.8478 532 98.9492 328.464 544.735
741 0 52.1389 12.7544 665 97.2466 326.986 540.869
742 0 52.2378 13.2471 692 95.2587 326.059 541.199
743 0 55.0572 13.2589 730 95.3068 324.166 541.441
744 0 57.196 13.7422 786 93.7214 323.302 542.117
745 0 59.051 13.7 809 93.7417 320.991 540.649
746 0 61.1072 13.4354 821 94.402 318.618 538.544
747 0 63.1122 14.5138 916 90.9793 315.951 539.326
748 0 66.1491 14.9057 986 89.9371 314.705 538.56
749 0 67.1185 14.7798 992 90.5675 313.649 536.539
750 0 70.0811 16.0814 1127 87.6584 312.266 535.707
751 0 73.0827 16.8439 1231 85.6028 310.539 530.567
752 0 73.0731 14.4376 1055 91.0237 309.918 531.974
753 0 79.1812 14.6626 1161 89.801 310.193 529.118
754 0 80.1392 15.0738 1208 89.8767 308.559 527.145
755 0 81.1854 14.4731 1175 92.0162 307.934 525.326
756 0 86.1753 15.0043 1293 89.5019 308.438 524.345
757 0 83.2349 13.6241 1134 94.4286 308.252 518.978
758 0 89.2603 15.0347 1342 90.5462 308.73 518.596
759 1 47.1325 9.44147 445 96.0854 308.076 541.234
760 0 49.1767 10.7978 531 94.7401 307.827 536.412
761 0 47.1249 10.5465 497 96.668 308.694 537.332
762 0 50.0759 11.6423 583 97.9022 309.458 532.494
763 0 53.0612 11.5904 615 98.1463 310.623 532.519
764 0 53.126 12.4233 660 95.2561 312.312 533.658
765 0 56.1636 13.6921 769 93.5943 316.719 531.477
766 0 57.2204 13.1422 752 92.5931 316.871 526.589
767 0 59.1333 13.0045 769 92.0689 320.121 529.411
768 0 62.2038 14.758 918 87.6296 323.092 528.698
769 0 64.2369 14.431 927 89.0313 325.26 530.529
770 0 67.2119 14.1642 952 89.4674 327.441 530.35
771 0 69.2598 14.3518 994 90.3139 327.802 530.77
772 0 71.1963 13.7648 980 92.3235 328.687 528.383
773 0 73.1676 14.87 1088 91.3097 329.179 529.303
774 0 77.1722 14.2797 1102 91.7132 329.759 528.074
775 0 79.1577 13.8079 1093 93.7658 328.362 527.751
776 0 83.1769 14.7276 1225 91.2441 326.773 527.033
777 0 85.0931 15.0071 1277 91.9514 325.351 525.587
778 0 90.14 16.907 1524 88.0184 323.171 525.199
779 0 92.0751 15.3027 1409 92.1377 320.132 522.075
780 0 96.2112 15.1022 1453 94.1019 318.526 525.483
781 0 98.2102 14.5199 1426 96.7013 317.454 520.2
782 1 53.1368 9.22147 490 102.292 315.2 542.029
783 0 54.2228 11.0286 598 104.328 314.56 542.12
784 0 59.2819 12.2972 729 100.551 312.213 538.221
785 0 59.1398 12.7664 755 103.22 311.673 536.72
786 0 60.1403 12.8367 772 152.683 311.696 537.058
787 0 65.2533 12.9342 844 92.9076 310.512 529.327
788 0 64.1719 12.7938 821 91.8331 309.016 526.445
789 0 64.164 12.3278 791 95.3477 308.077 526.465
790 0 69.3173 12.5654 871 93.3835 308.292 521.935
791 0 70.3031 12.1616 855 93.5287 307.441 523.085
792 0 72.4939 12.6907 920 95.0228 308.21 518.711
793 0 74.3053 12.9735 964 93.0674 308.895 518.568
794 0 77.3188 13.9164 1076 92.2119 308.938 515
795 0 79.1462 13.4182 1062 94.645 309.369 511.884
796 0 80.239 13.2978 1067 94.5052 310.483 512.919
797 0 85.1912 14.2503 1214 94.5923 311.172 510.769
798 0 89.21 13.3393 1190 96.7639 312.444 510.764
799 0 90.2676 13.9142 1256 97.6959 315.5 508.888
800 0 93.3147 14.0171 1308 99.6154 317.622 508.445
801 0 95.1815 13.3324 1269 104.258 321.485 510.67
802 0 101.274 13.9029 1408 101.81 323.263 510.849
803 1 51.1754 9.45767 484 105.333 324.818 534.471
804 0 54.2918 10.7014 581 102.577 327.305 533.205
805 0 56.14 12.9498 727 98.1266 328.703 534.283
806 0 57.2117 13.0742 748 98.9987 329.312 534.634
807 0 62.2001 14.0354 873 95.0309 330.156 535.549
808 0 61.1124 13.4343 821 94.5554 331.268 527.738
809 0 64.2446 12.7948 822 94.7908 329.442 529.367
810 0 68.0938 13.966 951 92.2881 329.102 531.523
811 0 69.1458 12.6978 878 96.4226 326.861 530.6
812 0 70.1942 12.2232 858 97.5536 324.81 529.009
813 0 72.2248 12.3642 893 97.7144 322.803 528.066
814 0 75.1769 12.3708 930 98.9548 320.431 525.744
815 0 77.069 13.0792 1008 97.4613 319.178 524.659
816 0 79.2245 13.2408 1049 97.9199 317.255 523.156
817 0 82.2161 13.0996 1077 97.8542 316.52 524.901
818 0 87.2714 14.5294 1268 95.6317 314.796 523.845
819 0 89.1315 13.6203 1214 101.265 313.537 521.362
820 0 91.1454 14.3507 1308 101.349 313.158 517.953
821 0 95.1159 15.2656 1452 100.234 310.793 517.207
822 0 95.1351 13.7278 1306 107.821 308.571 515.364
823 0 100.14 15.2387 1526 104.385 307.183 511.257
824 1 56.0944 11.2845 633 105.011 307.084 534.322
825 0 57.1006 9.7197 555 105.625 306.004 533.229
826 0 61.0363 11.9601 730 100.174 306.696 532.879
827 0 60.027 10.7618 646 101.735 307.268 527.404
828 0 60.07 10.2214 614 92.1042 309.629 522.055
829 0 60.07 10.2547 616 128.849 311.648 522.068
830 0 66.1866 11.6942 774 96.5749 309.969 516.906
831 0 67.1629 12.8791 865 95.1734 313.775 514.612
832 0 66.134 11.1138 735 98.1292 316.42 516.494
833 0 72.3157 13.1368 950 93.7947 318.277 517.937
834 0 74.2591 12.6045 936 94.5267 319.999 517.187
835 0 77.2654 13.1624 1017 94.7896 323.593 515.386
836 0 79.2551 11.545 915 99.5148 324.906 514.481
837 0 86.2808 12.5868 1086 95.7219 328.279 515.037
838 0 88.2881 12.4366 1098 95.9982 329.584 511.402
839 1 47.1959 9.64066 455 89.7297 330.103 536.277
840 0 48.3528 9.92703 480 90.1333 330.827 537.956
841 0 49.2906 10.3265 509 92.0806 330.961 535.45
842 0 50.1032 9.40061 471 94.0573 329.178 537.172
843 0 56.3516 11.1621 629 91.1622 326.512 535.345
844 0 55.0528 10.7533 592 101.274 324.628 535.806
845 0 59.0427 13.4479 794 99.5919 322.704 535.574
846 0 62.0794 13.6438 847 98.8335 320.23 534.387
847 0 66.1494 13.7416 909 98.5204 318.399 534.255
848 0 67.3012 13.6253 917 97.7481 317.269 533.744
849 0 68.23 13.4838 920 100.324 315.743 531.326
850 0 72.1816 15.3502 1108 96.9116 312.449 530.905
851 0 75.2257 15.1411 1139 97.6348 311.824 528.889
852 0 76.1529 13.6173 1037 101.15 311.746 529.075
853 0 79.1354 13.6475 1080 102.039 309.349 527.906
854 1 41.1899 9.88106 407 103.258 308.305 545.096
855 0 42.0903 10.4775 441 104.388 307.415 546.349
856 0 44.1851 11.6555 515 103.524 306.913 542.12
857 0 44.0775 11.5478 509 104.289 306.914 537.735
858 0 46.2021 13.982 646 100.101 305.824 535.859
859 0 47.2804 13.3459 631 101.759 306.975 533.236
860 0 49.1966 13.0903 644 101.716 307.304 534.258
861 0 49.0836 12.9167 634 97.1767 307.696 534.216
862 0 50.202 12.7086 638 96.9545 307.973 533.951
863 0 50.1741 13.0346 654 96.5122 309.538 531.242
864 0 52.1635 12.1733 635 97.8094 310.326 530.359
865 0 53.2055 11.8033 628 99.508 312.672 530.003
866 0 54.2353 12.7777 693 99.3146 316.105 528.439
867 0 56.1739 12.1943 685 99.6307 318.445 527.258
868 0 59.2352 11.4459 678 99.9204 320.406 528.984
869 0 59.1724 13.2832 786 98.7506 322.545 523.113
870 0 61.2734 11.9628 733 100.902 326.116 524.829
871 0 65.3576 15.0403 983 95.2543 328.41 524.529
872 0 67.6369 11.9314 807 100.919 330.114 524.497
873 0 67.4192 12.1479 819 102.358 329.683 525.128
874 0 72.6226 12.7508 926 101.091 329.978 525.251
875 0 75.567 14.689 1110 97.4126 329.498 524.79
876 1 38.4651 11.6209 447 105.45 328.157 538.235
877 0 41.4254 9.05242 375 105.971 327.109 542.803
878 0 43.3353 11.7918 511 104.656 324.928 540.374
879 0 44.4326 9.52004 423 107.704 322.922 541.596
880 0 45.3197 10.9665 497 105.435 321.107 543.113
881 0 48.2314 12.1083 584 104.36 318.483 540.216
882 0 50.4769 13.1347 663 101.214 317.51 538.701
883 0 53.2448 14.3676 765 98.5451 316.596 535.539
884 0 54.3125 14.2324 773 98.577 314.829 535.141
885 0 54.3125 14.2509 774 147.536 313.84 535.15
886 0 58.3285 13.6468 796 98.8191 311.755 534.255
887 0 59.3824 13.792 819 97.939 310.935 532.676
888 0 61.1425 13.9347 852 98.189 309.331 528.73
889 0 63.3632 14.0934 893 97.0526 308.582 528.137
890 0 65.2597 13.6991 894 98.8781 307.213 527.261
891 0 67.2415 14.8718 1000 95.861 307.138 524.367
892 0 68.1525 15.3333 1045 95.3445 307.477 521.859
893 0 71.3418 14.4375 1030 96.8175 307.463 521.636
894 0 71.2443 15.117 1077 95.2581 309.032 519.148
895 0 73.2553 13.3096 975 102.359 309.073 520.073
896 0 71.2144 13.4804 960 103.7 309.236 516.288
897 0 75.3027 14.3687 1082 99.7403 310.214 514.396
898 0 76.1747 15.3594 1170 97.1231 312.58 515.748
899 0 79.1509 15.2241 1205 97.1303 314.996 514.753
900 0 78.2267 14.3685 1124 98.6326 317.89 515.238
901 0 80.2286 14.5709 1169 99.432 320.527 513.435
902 0 84.237 14.1387 1191 99.424 322.928 515.147
903 0 85.2514 13.8649 1182 100.857 325.143 513.048
904 0 90.1302 14.1462 1275 98.4188 325.864 514.979
905 0 92.1478 15.4534 1424 96.0576 327.594 512.763
906 0 96.1167 14.8985 1432 97.2919 328.199 510.784
907 0 100.269 15.1791 1522 96.7792 327.676 506.274
908 0 106.352 15.2418 1621 94.8754 328.529 510.365
909 0 110.26 15.4453 1703 96.0822 327.371 506.941
910 0 115.329 14.8966 1718 97.3184 326.292 506.321
911 0 120.434 15.278 1840 97.1429 325.609 502.882
912 1 64.2749 10.3462 665 97.9158 325.233 532.901
913 0 67.442 11.5507 779 98.4134 321.896 531.227
914 0 73.1893 13.1167 960 95.3396 317.856 531.578
915 0 76.2269 14.2469 1086 92.1372 316.097 530.686
916 0 76.2269 14.142 1078 134.131 315.125 530.653
917 0 80.25 13.4455 1079 94.9138 314.132 527.581
918 0 84.1678 12.6414 1064 96.36 311.868 524.763
919 0 86.0948 13.5897 1170 94.8128 310.829 521.568
920 0 89.101 14.7024 1310 93.0351 310.132 518.311
921 0 91.2296 12.7042 1159 97.0362 307.594 516.588
922 1 48.0922 9.39862 452 93.0199 306.876 539.263
923 0 52.0858 8.39 437 94.4302 306.387 537.151
924 0 54.2189 10.0519 545 91.4 304.536 534.002
925 0 56.1242 11.3498 637 88.9215 304.435 534.593
926 0 59.1543 13.1013 775 86.3923 305.049 530.144
927 0 61.0736 13.1645 804 87.2376 305.471 527.644
928 0 64.0823 13.2798 851 89.5805 305.486 528.268
929 0 62.1603 11.1969 696 91.4483 307.309 528.3
930 0 66.1825 13.2663 878 88.1822 307.549 524.502
931 0 67.127 12.9456 869 88.3118 310.395 524.941
932 0 70.1993 12.8776 904 88.4458 311.965 522.656
933 0 70.3024 11.8061 830 91.5494 314.187 522.469
934 0 73.1663 11.8634 868 90.2615 316.225 524.116
935 0 78.2118 13.7575 1076 88.2416 319.951 518.097
936 1 42.0304 9.56452 402 91.3433 320.871 527.689
937 0 43.0278 9.85411 424 90.5708 323.84 531.111
938 0 45.0519 9.18941 414 90.285 326.184 536.022
939 0 46.0187 9.56133 440 89.0318 327.336 538.784
940 0 47.0238 12.9083 607 82.5387 327.629 538.718
941 0 49.0737 12.0227 590 82.0407 329.107 540.72
942 0 50.1149 12.2518 614 80.741 327.435 542.588
943 0 53.1924 13.3854 712 79.2444 327.924 539.133
944 0 52.1611 12.9982 678 80.3171 326.894 540.521
945 0 54.2322 11.9118 646 81.9489 322.994 540.325
946 0 57.2029 12.8315 734 79.3406 321.386 538.82
947 0 57.0909 12.629 721 81.0582 320.207 539.811
948 0 61.2325 13.4406 823 79.7728 316.852 537.933
949 0 64.3147 13.434 864 85.2431 315.565 537.727
950 0 65.2865 12.897 842 87.6734 315.184 534.215
951 0 66.2246 12.7747 846 88.7459 313.69 534.843
952 0 68.2384 11.7383 801 90.9888 312.579 532.057
953 0 68.2347 12.032 821 92.2205 310.784 527.507
954 0 75.207 13.9083 1046 87.1157 308.692 526.767
955 1 39.2618 10.4427 410 89.4878 308.632 542.812
956 0 39.0838 10.0297 392 90.2219 306.936 543.339
957 0 41.1411 9.99 411 90.2944 307 540.153
958 0 41.1898 9.51693 392 91.2296 305.679 540.202
959 0 43.1771 11.0475 477 90.8595 305.887 536.262
960 0 45.1826 12.1285 548 89.7682 305.86 533.73
961 0 47.0963 10.7227 505 90.9822 305.511 532.673
962 0 48.1008 13.1183 631 86.9937 306.697 531.933
963 0 50.0768 13.639 683 81.612 308.769 533.264
964 0 49.1214 13.0697 642 84.0109 311.798 532.047
965 0 51.0718 11.5915 592 84.6943 312.655 532.554
966 0 53.0414 13.1218 696 82.046 315.31 531.875
967 0 53.0848 12.3953 658 84.193 317.19 532.763
968 0 52.0695 11.8687 618 87.2476 321.579 532.649
969 0 55.0656 13.602 749 84.1202 323.789 531.19
970 0 57.024 12.5561 716 86.0768 324.545 531.492
971 0 59.0613 14.0871 832 84.1659 327.871 530.784
972 0 60.1172 13.823 831 86.1925 328.295 530.013
973 0 62.1662 14.1556 880 86.4886 330.053 531.869
974 0 64.1732 14.2739 916 87.3472 329.532 531.054
975 0 67.1606 14.0856 946 87.13 327.749 533.716
976 0 67.1272 13.3478 896 91.1016 326.757 530.107
977 0 70.1726 14.1223 991 89.9384 324.4 528.764
978 0 74.1357 14.1767 1051 89.4938 323.697 530.775
979 1 41.1404 10.2089 420 93.7548 321.033 549.157
980 0 40.0564 10.9346 438 93.774 317.973 546.397
981 0 41.1406 10.9381 450 94.5578 316.827 546.467
982 0 46.2291 11.5295 533 94.1163 315.113 544.233
983 0 45.2195 11.2783 510 95.3569 313.408 543.798
984 0 49.162 13.1606 647 91.2303 312.338 542.38
985 0 50.0656 12.8431 643 88.7636 310.078 542.498
986 0 50.1595 12.9387 649 90.0693 309.052 540.206
987 0 53.1192 16.1523 858 84.8298 308.291 536.527
988 0 55.0633 13.7841 759 87.0369 307.611 536.377
989 0 56.149 13.9985 786 88.4402 306.796 532.542
990 0 56.0835 13.5334 759 89.6364 306.212 532.646
991 0 58.1155 13.5936 790 88.7987 305.985 530.203
992 0 60.0804 13.8148 830 87.8928 306.345 527.116
993 0 60.1853 13.0431 785 90.1541 306.424 526.013
994 0 63.168 15.5617 983 85.6348 306.506 524.099
995 0 66.0493 14.7314 973 86.7873 307.063 522.835
996 0 66.0974 15.0082 992 87.501 308.916 520.056
997 0 68.1447 14.2491 971 89.1514 311.099 520.523
998 0 68.1353 13.165 897 91.9621 313.302 518.039
999 0 73.1531 14.6952 1075 89.1693 315.821 517.481
1000 0 75.1182 13.6052 1022 90.8728 318.898 518.55
1001 1 39.0584 11.1628 436 88.8945 320.681 538.064
1002 0 41.1281 10.5281 433 90.7159 322.813 538.471
1003 0 41.1022 10.5104 432 93.8866 325.859 537.801
1004 0 47.0843 10.7467 506 92.5573 327.721 538.715
1005 0 44.0685 10.6198 468 94.7308 327.312 536.494
1006 0 46.012 11.5622 532 93.2218 328.444 539.88
1007 0 48.0824 13.7056 659 89.1214 329.977 537.83
1008 0 50.1033 14.5699 730 87.3521 327.629 538.952
1009 0 51.0927 14.4639 739 87.9716 326.801 538.248
1010 0 53.1602 13.0737 695 89.4086 325.541 540.099
1011 0 56.1875 15.8932 893 83.5476 324.345 538.04
1012 0 56.2204 13.7317 772 88.6101 321.633 538.186
1013 0 58.1713 14.4057 838 87.963 319.699 537.905
1014 0 62.0829 15.2699 948 85.097 317.588 536.239
1015 0 65.3247 15.2163 994 83.7646 316.278 538.299
1016 0 64.1762 13.7122 880 89.6636 315.11 535.21
1017 0 67.2693 15.1778 1021 87.569 314.33 534.062
1018 0 69.2504 15.9855 1107 85.3939 313.304 532.558
1019 0 72.1924 16.2482 1173 84.5277 312.141 533.792
1020 0 76.2497 15.4099 1175 87.3923 310.263 529.62
1021 0 77.4199 15.3191 1186 88.1779 310.313 525.598
1022 0 79.2866 14.3152 1135 89.4326 309.019 524.737
1023 0 81.3417 13.8182 1124 90.3479 308.242 520.959
1024 0 83.4317 14.7786 1233 89.335 308.187 517.34
1025 0 86.5729 14.7159 1274 89.4207 308.015 515.941
1026 0 93.6584 17.425 1632 83.3689 308.263 511.461
1027 1 47.4685 12.008 570 92.1807 308.353 530.565
1028 0 46.4189 11.547 536 91.4832 309.323 532.737
1029 0 51.3745 10.8225 556 92.2932 310.791 528.813
1030 0 53.135 11.4049 606 85.5248 310.805 531.574
1031 0 53.2463 12.4704 664 84.387 313.875 528.758
1032 0 56.2232 14.5669 819 79.8571 315.825 528.685
1033 0 55.1312 13.5495 747 83.6305 317.933 526.556
1034 0 57.0796 13.1395 750 83.6373 319.741 527.755
1035 0 59.1251 11.6194 687 83.9389 323.288 532.568
1036 0 63.1766 13.2486 837 82.7467 325.319 529.56
1037 0 62.1578 11.9535 743 85.9542 326.74 529.296
1038 0 65.1939 12.2864 801 84.7516 327.669 528.428
1039 0 68.2437 13.4957 921 82.4615 327.654 528.497
1040 0 71.2605 13.7804 982 82.4481 328.804 526.765
1041 0 73.1774 13.2828 972 82.7222 327.754 526.312
1042 0 78.2419 13.356 1045 81.7636 326.62 528.915
1043 1 40.0675 10.7818 432 83.1759 324 547.775
1044 0 42.0899 11.9506 503 81.4215 321.998 547.879
1045 0 45.1094 11.2393 507 80.9349 319.807 548.29
1046 0 46.1344 10.2743 474 83.6435 319.289 546.494
1047 0 47.0782 10.8755 512 82.9805 316.809 545.197
1048 0 52.0509 11.7577 612 79.3954 315.319 544.627
1049 0 52.1638 13.4001 699 77.4478 312.987 542.738
1050 0 53.1802 12.6739 674 79.2092 311.441 541.843
1051 0 55.1962 14.4032 795 76.7736 309.638 540.726
1052 0 54.2714 12.8981 700 79.8786 309.517 537.937
1053 0 57.1294 14.0558 803 77.9054 307.913 536.173
1054 0 56.15 13.5708 762 79.248 307.316 533.745
1055 0 60.3048 13.266 800 78.675 307.021 531.421
1056 0 62.132 13.6001 845 78.8876 305.723 528.879
1057 0 64.1845 15.0192 964 78.1203 304.794 525.02
1058 0 65.1263 13.4201 874 81.2975 305.378 525.887
1059 0 67.084 12.2235 820 82.6256 305.222 524.407
1060 0 68.2942 13.3247 910 80.7769 306.33 521.57
1061 0 71.2094 14.0852 1003 78.7468 307.722 522.108
1062 0 73.2196 13.6439 999 79.6516 309.582 521.04
1063 0 77.1073 14.0972 1087 78.8703 310.226 516.971
1064 0 77.1382 14.0138 1081 80.0166 311.956 516.139
1065 0 82.0851 14.5702 1196 78.7467 314.571 515.737
1066 1 42.0621 10.1992 429 82.1492 316.79 534.448
1067 0 41.0626 11.2024 460 82.6283 318.248 533.744
1068 0 43.0511 9.68617 417 85.235 320.799 534.772
1069 0 45.0841 12.0442 543 80.8122 324.23 532.901
1070 0 45.1555 9.96557 450 85.5422 325.064 533.509
1071 0 48.1107 12.201 587 83.9319 326.45 533.356
1072 0 50.2328 13.0194 654 79.5367 326.098 534.142
1073 0 52.2827 12.528 655 81.8763 325.553 533.826
1074 0 55.1249 13.805 761 78.9093 325.887 534.338
1075 0 55.1201 12.7177 701 82.6134 323.69 533.502
1076 0 59.0529 13.6996 809 80.7009 322.998 535.205
1077 0 61.0729 15.1458 925 78.88 322.832 533.017
1078 0 62.0768 12.5973 782 83.6368 320.183 531.581
1079 0 65.2142 13.678 892 82.4753 318.145 533.346
1080 0 67.1072 13.3667 897 83.7492 317.241 531.76
1081 0 65.1899 13.6831 892 85.5852 316.031 530.663
1082 0 70.1318 14.1305 991 85.0232 314.474 529.332
1083 0 73.1935 15.0423 1101 83.911 314.893 528.94
1084 0 75.0859 13.358 1003 88.0399 313.034 527.911
1085 0 76.1577 13.669 1041 88.4707 310.141 522.552
1086 0 78.1683 13.9187 1088 126.973 307.166 521.891
1087 0 84.1129 14.5756 1226 87.4625 308.639 519.348
1088 0 84.1496 15.7576 1326 86.233 308.021 518.416
1089 0 89.2088 15.0546 1343 87.8183 309.085 512.829
1090 0 92.0981 15.6789 1444 87.1821 307.249 509.833
1091 1 50.072 10.445 523 92.3556 306.153 532.21
1092 0 49.024 10.9538 537 95.3017 307.184 529.51
1093 0 51.033 11.228 573 92.7539 307.129 531.735
1094 0 51.0289 11.0917 566 96.7332 308.58 527.502
1095 0 55.1221 13.2252 729 92.2908 310.903 525.646
1096 0 58.2502 13.4764 785 90.3936 315.86 524.112
1097 0 56.3059 13.3734 753 90.8061 318.066 523.819
1098 0 61.2706 15.1296 927 86.8457 319.162 523.21
1099 0 62.2485 13.0766 814 91.3182 321.98 523.373
1100 0 67.2278 14.3839 967 88.4778 325.309 523.132
1101 0 67.3033 13.3723 900 92.0778 326.812 522.728
1102 0 71.2122 14.9553 1065 89.415 329.35 520.784
1103 0 74.199 14.4342 1071 90.465 330.27 521.931
1104 0 73.3571 14.2045 1042 93.3964 330.324 520.138
1105 0 77.4579 13.0393 1010 96.1673 330.6 521.72
1106 0 80.1366 13.7515 1102 91.0082 330.935 520.764
1107 0 83.2164 13.8675 1154 91.8189 330.593 518.613
1108 0 87.2124 13.8398 1207 92.1798 328.841 518.089
1109 0 90.418 13.8136 1249 90.0416 325.849 513.287
1110 0 97.2112 15.8829 1544 84.6755 323.763 511.942
1111 0 98.4623 15.478 1524 87.269 322.877 509.564
1112 0 100.596 14.4041 1449 91.0642 319.092 509.363
1113 0 102.364 13.6473 1397 93.2627 317.62 508.696
1114 1 54.2024 10.1656 551 92.1343 316.154 531.051
1115 0 58.2334 11.7458 684 89.8377 313.857 530.529
1116 0 61.3743 11.7639 722 88.1731 312.95 529.362
1117 0 61.0592 12.2995 751 88.3648 310.613 525.915
1118 0 65.1407 13.1101 854 87.1417 310.356 523.245
1119 0 69.1152 13.3979 926 86.0605 308.712 522.646
1120 0 68.2597 13.4047 915 87.5104 307.408 517.857
1121 0 69.2659 12.6036 873 90.1294 307.332 514.6
1122 0 73.1712 12.8056 937 89.223 306.296 516.014
1123 0 75.19 14.1375 1063 87.81 307.005 510.547
1124 0 77.2793 13.6777 1057 90.7219 307.192 506.886
1125 0 80.3089 14.1578 1137 92.1143 308.53 506.857
1126 0 82.2658 13.9548 1148 94.473 309.124 506.145
1127 0 86.2191 14.9039 1285 97.0319 311.251 505.639
1128 1 44.1737 10.255 453 98.9669 314.898 528.192
1129 0 48.1603 10.2159 492 96.9411 317.024 529.246
1130 0 49.0654 11.6375 571 97.7741 320.452 526.709
1131 0 50.1896 11.3569 570 96.3263 321.749 526.161
1132 0 53.1324 12.61 670 94.897 324.139 525.031
1133 0 54.1638 12.5545 680 94.8221 326.432 526.021
1134 0 55.0758 11.7474 647 98.4529 326.425 527.439
1135 0 58.0937 12.5659 730 97.5027 327.984 527.04
1136 0 60.096 13.3453 802 96.0461 328.031 526.098
1137 0 60.0626 12.6202 758 97.091 329.425 529.041
1138 0 65.1153 12.8848 839 95.3421 328.986 530.061
1139 0 65.0823 11.9695 779 98.9564 327.321 528.268
1140 0 70.127 13.005 912 96.0515 326.458 526.564
1141 0 70.0805 13.0136 912 97.4934 325.268 525.277
1142 0 73.1028 13.1459 961 96.1342 322.711 526.797
1143 0 76.1215 12.5457 955 97.0586 319.842 527.48
1144 0 77.2319 12.0675 932 98.9163 319.314 523.709
1145 0 85.0765 14.4811 1232 92.8417 316.532 522.58
1146 0 88.1997 12.9479 1142 96.3249 314.547 519.867
1147 0 89.2368 14.2766 1274 94.8218 314.048 518.86
1148 0 93.2013 12.9826 1210 96.5124 311.414 519.039
1149 0 93.1107 13.5752 1264 96.9581 309.787 515.225
1150 0 94.3073 13.0425 1230 98.961 309.006 510.143
1151 0 100.335 13.4649 1351 97.3346 307.902 508.509
1152 0 104.35 13.5219 1411 92.2771 307.522 506.634
1153 0 105.47 12.9137 1362 94.4251 306.429 501.485
1154 0 108.45 15.362 1666 101.338 305.698 504.454
1155 1 59.2093 11.9576 708 102.102 306.442 530.175
1156 0 62.2818 11.8333 737 99.5712 306.564 529.928
1157 0 64.2981 11.2912 726 101.214 306.526 523.584
1158 0 67.1955 14.7183 989 89.7452 307.281 520.625
1159 0 67.2555 12.0288 809 95.9629 308.002 519.768
1160 0 69.1651 13.9232 963 92.5317 309.355 520.221
1161 0 73.2558 13.8829 1017 92.1731 312.266 519.708
1162 0 77.2948 14.4382 1116 92 314.462 516.73
1163 0 77.1197 14.3802 1109 92.55 316.35 518.647
1164 0 82.1544 14.0467 1154 91.9983 319.602 519.294
1165 0 84.2096 14.0483 1183 93.7287 322.487 517.597
1166 0 87.1498 13.517 1178 95.7487 324.318 515.653
1167 1 48.1272 10.2021 491 94.1181 325.67 538.912
1168 0 49.025 12.5038 613 94.7684 327.424 536.356
1169 0 51.1064 10.3509 529 96.1285 326.66 539.777
1170 0 56.0739 12.1447 681 89.4963 327.395 539.778
1171 0 55.1736 11.9623 660 96.4455 326.152 539.188
1172 0 57.2054 12.7785 731 95.301 325.167 536.156
1173 0 60.2562 13.4924 813 95.1476 324.392 539.455
1174 0 63.2526 14.0706 890 92.3539 322.257 540.289
1175 0 65.3139 15.3413 1002 89.8643 320.326 539.174
1176 0 67.2392 14.1138 949 93.2508 317.8 536.274
1177 0 69.2634 14.712 1019 93.473 316.067 533.686
1178 0 74.3822 16.1867 1204 91.157 314.34 533.538
1179 0 75.2698 15.6238 1176 94.5595 312.328 531.083
1180 0 73.1794 13.3507 977 91.5271 310.613 531.464
1181 0 73.1794 13.3507 977 134.485 308.599 531.524
1182 0 76.0833 14.287 1087 98.3395 308.277 525.319
1183 0 81.2133 15.921 1293 96.348 307.066 524.674
1184 0 83.163 15.1269 1258 100.547 306.554 522.029
1185 0 84.2675 14.7744 1245 105.381 304.54 519.964
1186 0 87.2694 15.4464 1348 105.175 305.374 514.627
1187 1 48.0932 9.7311 468 104.72 304.19 538.938
1188 0 48.1034 10.914 525 104.56 305.341 535.808
1189 0 51.0221 11.152 569 101.072 304.891 534.276
1190 0 51.0651 11.358 580 103.274 305.541 531.412
1191 0 55.0417 11.9546 658 101.122 305.669 531.293
1192 0 56.1269 12.0798 678 102.111 306.972 528.665
1193 0 57.0529 13.356 762 100.664 309.958 527.147
1194 0 59.201 11.8748 703 101.798 311.871 527.63
1195 0 64.2793 12.3835 796 101.206 314.01 525.264
1196 0 65.2182 12.4505 812 102.368 315.825 524.848
1197 0 70.1847 12.5526 881 101.451 318.329 523.112
1198 0 74.183 14.9091 1106 98.6808 321.9 521.572
1199 1 39.0407 8.96501 350 100.774 324.163 540.977
1200 0 42.1506 11.1031 468 96.2457 325.214 540.996
1201 0 44.1581 11.3682 502 95.2729 327.239 541.861
1202 0 43.1442 10.8242 467 98.6617 328.253 540.293
1203 0 46.3002 12.4622 577 96.0659 326.574 542.747
1204 0 48.214 12.9008 622 94.672 326.76 543.905
1205 0 50.2533 13.233 665 94.415 325.774 542.456
1206 0 51.2824 13.2989 682 93.7801 324.355 542.556
1207 0 53.3636 12.9864 693 94.6205 323.473 542.964
1208 0 53.1373 12.3642 657 97.3501 321.396 541.437
1209 0 56.2006 13.4162 754 94.565 317.663 539.179
1210 0 58.2554 12.9258 753 96.1381 316.54 538.514
1211 0 58.1984 12.9557 754 97.122 315.442 538.899
1212 0 60.2152 13.4019 807 99.3742 313.102 532.7
1213 0 62.2675 12.1893 759 99.9512 311.194 534.289
1214 0 65.1083 13.1166 854 100.331 309.85 533.044
1215 0 65.1675 11.8464 772 102.688 308.446 530.307
1216 0 68.2668 13.7255 937 98.3661 307.534 527.613
1217 0 73.1213 13.799 1009 97.6838 306.59 526.318
1218 0 74.2488 12.9834 964 101.674 306.863 521.972
1219 0 76.2051 12.7813 974 102.451 306.361 521.436
1220 0 79.3171 13.1371 1042 102.287 306.201 518.417
1221 0 78.3024 12.7455 998 104.723 306.943 516.614
1222 0 80.4089 12.2499 985 107.193 308.198 513.929
1223 0 85.3488 14.142 1207 102.957 308.371 510.965
1224 0 85.4956 13.2755 1135 106.099 309.218 507.72
1225 0 88.3564 13.3437 1179 107.209 311.458 507.31
1226 0 91.4821 13.2485 1212 106.961 313.893 503.473
1227 0 93.4496 13.4725 1259 106.671 315.356 504.392
1228 0 97.3814 14.4175 1404 104.901 318.788 505.489
1229 0 97.4177 13.1496 1281 108.82 322.029 501.828
1230 0 104.523 14.2649 1491 105.061 323.753 503.127
1231 0 105.294 14.0559 1480 106.447 325.441 502.722
1232 0 109.318 14.38 1572 106.412 327.473 499.951
1233 0 112.531 14.9825 1686 106.306 328.354 500.99
1234 0 116.371 13.3968 1559 110.004 329.23 498.102
1235 0 123.48 15.6219 1929 103.558 329.055 499.104
1236 0 123.441 13.9662 1724 107.69 329.066 498.807
1237 0 130.426 14.7517 1924 106.257 327.655 496.854
1238 1 74.1238 12.1419 900 101.238 326.403 527.964
1239 0 79.2876 12.524 993 101.423 325.479 526.822
1240 0 84.3619 13.4658 1136 99.456 324.074 525.985
1241 0 87.2229 14.5719 1271 98.0826 320.643 522.713
1242 0 87.2811 14.1268 1233 100.811 318.381 519.753
1243 0 92.194 13.6668 1260 100.759 316.435 519.844
1244 0 93.41 14.1741 1324 101.195 315.353 515.434
1245 0 98.3025 13.4788 1325 102.484 313.26 514.288
1246 0 100.316 14.4742 1452 102.034 312.999 511.581
1247 0 104.275 13.7137 1430 103.157 312.031 513.027
1248 0 105.232 13.3134 1401 104.502 309.817 506.687
1249 0 109.271 13.2881 1452 103.975 308.475 503.988
1250 0 114.251 13.8555 1583 101.671 308.961 501.519
1251 1 61.1899 10.0017 612 102.198 307.835 525.675
1252 0 64.1897 10.282 660 100.141 306.677 526.726
1253 0 66.1929 11.4665 759 100.584 307.213 521.669
1254 0 68.1713 12.0432 821 101.745 307.767 517.838
1255 0 69.2077 13.1777 912 101.223 306.692 514.916
1256 0 73.2668 13.2256 969 102.014 307.719 515.464
1257 0 77.2087 13.47 1040 103.314 308.448 514.056
1258 0 78.44 14.4569 1134 99.6852 312.684 513.801
1259 0 80.3915 14.2304 1144 103.12 315.849 511.881
1260 0 81.2825 13.5577 1102 103.106 318.828 510.015
1261 0 85.4083 14.1789 1211 96.8753 321.699 507.702
1262 0 89.5329 14.8884 1333 93.4951 323.569 506.966
1263 1 50.5867 8.63863 437 96.1899 324.991 531.918
1264 0 49.5686 9.98616 495 97.703 327.125 530.507
1265 0 49.3659 8.32558 411 101.832 327.944 531.433
1266 0 52.465 11.074 581 98.2892 329.368 530.522
1267 0 52.3076 11.6044 607 96.7331 330.092 531.921
1268 0 55.6113 13.6843 761 94.2142 329.853 531.368
1269 0 58.2186 13.3806 779 94.4313 327.575 532.28
1270 0 58.4745 13.5957 795 94.9547 328.029 532.367
1271 0 57.3983 12.0561 692 98.4147 327.504 531.634
1272 0 60.5321 13.0509 790 96.1532 325.551 531.013
1273 0 63.3352 14.5101 919 93.8248 322.86 531.492
1274 0 66.5181 15.3492 1021 93.0842 320.893 532.334
1275 0 68.276 15.203 1038 94.2775 319.531 533.612
1276 0 70.4976 15.7736 1112 92.0477 318.204 531.173
1277 0 72.3096 15.3092 1107 94.8419 316.075 529.323
1278 0 72.4439 14.9081 1080 96.7037 314.269 528.96
1279 0 77.5222 15.5568 1206 94.6683 312.409 526.591
1280 1 40.2707 11.3482 457 97.0109 311.385 542.241
1281 0 41.384 11.2604 466 97.4549 309.582 539.485
1282 0 44.5851 11.1921 499 93.9359 308.754 539.844
1283 0 44.5295 12.1717 542 94.072 307.419 537.465
1284 0 43.5667 12.303 536 96.2108 306.716 533.384
1285 0 46.4637 12.8918 599 91.1469 306.716 533.134
1286 0 45.2424 12.864 582 94.2835 307.065 530.067
1287 0 47.3477 11.8274 560 91.3 306.28 532.584
1288 0 47.3592 13.1337 622 88.4212 308.408 530.246
1289 0 48.2359 14.1803 684 86.9503 308.082 529.968
1290 0 48.3321 12.9727 627 89.2727 310.928 529.34
1291 0 52.2237 17.5974 919 77.2318 313.132 525.638
1292 0 51.3819 15.0053 771 84.6615 315.864 526.979
1293 0 49.2791 13.941 687 88.9432 318.038 528.943
1294 0 49.2214 12.5352 617 90.2188 321.07 529.528
1295 0 49.2276 12.818 631 89.3566 323.458 532.043
1296 0 49.3285 12.5283 618 90.2136 326.861 528.534
1297 0 51.2114 11.5599 592 91.4916 326.458 530.787
1298 0 49.3224 12.8745 635 90.1008 327.866 532.732
1299 0 50.2252 12.9815 652 89.8528 328.9 532.189
1300 0 50.2095 11.8503 595 91.7277 329.657 535.896
