time division length width area intensity CMx CMy
0 0 36.1665 14.4609 523 120.337 1186.2 499.579
1 0 36.0288 13.1006 472 129.064 1186.19 498.436
2 0 38.0164 14.599 555 129.811 1186.08 496.966
3 0 40.0592 14.6034 585 127.54 1185.9 495.781
4 0 42.0178 14.7557 620 127.06 1184.72 494.737
5 0 41.051 15.9314 654 122.859 1185.86 491.876
6 0 42.0447 14.6749 617 128.613 1187.76 490.754
7 0 42.0444 14.675 617 130.454 1189.57 490.382
8 0 43.1626 15.8007 682 124.717 1189.44 488.305
9 0 44.1644 14.4913 640 131.473 1191.21 487.9
10 0 44.0746 14.9746 660 130.786 1192.93 487.129
11 0 45.1464 15.9703 721 128.189 1195.09 486.241
12 0 47.117 14.2624 672 131.728 1196.2 484.945
13 0 48.0821 15.2656 734 127.951 1197.79 483.589
14 0 49.0912 15.1758 745 125.769 1200.24 483.915
15 0 50.2401 16.5804 833 123.187 1201.92 483.866
16 0 51.1208 15.9231 814 126.074 1204.38 483.355
17 0 52.0974 16.7763 874 124.225 1206.12 482.427
18 0 54.1201 17.1655 929 121.446 1208.58 482.334
19 0 54.1294 16.3312 884 124.385 1209.81 482.683
20 0 58.0418 15.6783 910 126.6 1211 482.925
21 0 59.1219 16.8465 996 123.637 1211.44 483.541
22 0 61.1687 16.7569 1025 122.457 1211.52 481.765
23 0 64.0982 16.5995 1064 121.179 1210.33 480.729
24 0 66.1339 15.7862 1044 123.71 1210.39 480.481
25 0 67.1516 16.2766 1093 121.752 1207.86 479.876
26 0 70.3362 16.4496 1157 120.872 1206.41 477.939
27 0 73.2465 17.4616 1279 118.494 1203.31 475.518
28 0 75.2672 15.8236 1191 124.075 1201.11 474.725
29 0 77.1989 16.4122 1267 120.355 1198.77 476.258
30 0 77.1989 16.3215 1260 155.269 1195.77 476.164
31 1 43.1341 13.0291 562 124.975 1194.9 489.847
32 0 42.1668 13.66 576 124.413 1193.9 488.247
33 0 44.1219 12.4881 551 124.374 1193.22 486.519
34 0 46.0938 14.7308 679 118.502 1193 485.239
35 0 47.1916 14.6 689 120.874 1193.27 481.916
36 0 50.1867 16.0202 804 113.068 1192.76 480.638
37 0 50.103 16.3863 821 114.508 1194.14 479.501
38 0 52.0987 15.9697 832 115.612 1195.71 478.624
39 0 54.2006 15.9777 866 113.548 1197.26 477.547
40 0 53.1687 16.2502 864 115.595 1198.92 475.56
41 0 56.2297 15.33 862 116.907 1200.11 474.919
42 0 59.1553 16.7356 990 112.683 1202.83 470.73
43 0 62.2557 16.7053 1040 111.341 1204.88 471.23
44 0 61.2432 15.3976 943 115.355 1206.41 469.078
45 0 66.2086 16.5084 1093 111.339 1207.87 465.207
46 0 67.1919 15.5674 1046 114.254 1210.85 465.388
47 0 68.3036 15.8703 1084 114.739 1212.57 464.327
48 0 72.3706 15.9181 1152 114.747 1214.09 463.668
49 0 77.3175 17.2147 1331 109.586 1215.61 465.684
50 0 77.3957 16.4738 1275 112.99 1216.62 464.147
51 1 40.1668 12.7966 514 110.675 1219.43 484.066
52 0 39.1855 11.5349 452 113.1 1219.97 486.668
53 0 42.1531 12.075 509 113.11 1220.51 486.477
54 0 43.1824 12.783 552 112.819 1221.16 488.855
55 0 46.1123 13.2286 610 111.651 1221.38 487.431
56 0 47.0454 14.9005 701 110.331 1218.58 486.429
57 0 49.127 14.5948 717 111.527 1217.76 487.37
58 0 51.0891 15.2479 779 111.056 1216.59 486.552
59 0 52.1621 15.9694 833 110.004 1214.05 482.49
60 0 55.0894 15.4658 852 109.671 1212.33 484.559
61 0 57.0872 15.8004 902 109.734 1208.52 481.043
62 0 58.1209 14.487 842 112.635 1206.43 482.122
63 0 60.2999 16.5672 999 108.125 1204.14 477.62
64 0 63.2342 14.7389 932 110.093 1202.4 477.716
65 0 65.0967 14.8855 969 110.896 1200.54 474.828
66 0 67.0689 16.1625 1084 110.364 1200.32 469.807
67 0 69.2011 14.0027 969 115.813 1199.7 469.759
68 0 73.2556 14.9067 1092 114.004 1199.03 466.343
69 0 76.2041 15.3535 1170 113.085 1199.31 462.631
70 0 79.1745 13.9439 1104 115.929 1200 462.325
71 0 81.3181 15.9743 1299 112.129 1201.85 456.547
72 0 85.3591 15.0775 1287 112.399 1204.3 456.561
73 1 49.0774 11.1253 546 112.141 1206.2 476.993
74 0 48.0517 11.5084 553 110.651 1207.69 474.7
75 0 56.1086 11.959 671 109.383 1209.39 472.031
76 0 53.0387 13.5184 717 105.757 1212.11 472.075
77 0 52.087 11.3848 593 111.216 1213.59 471.597
78 0 54.0254 13.0124 703 108.226 1215.46 469.323
79 0 58.251 13.768 802 107.151 1218.14 465.507
80 0 61.1486 14.6201 894 105.134 1219.9 465.088
81 0 63.1018 15.2452 962 104.748 1221.54 468.875
82 0 65.1535 15.1488 987 104.082 1223.03 467.198
83 0 67.1042 15.9602 1071 101.423 1224.1 469.145
84 0 68.2218 14.2916 975 106.091 1225.2 466.908
85 0 70.0784 14.7121 1031 105.275 1225.96 466.257
86 0 71.1302 13.173 937 108.681 1226.58 467.685
87 0 76.1009 16.938 1289 98.9899 1225.75 466.159
88 0 77.1478 14.5824 1125 106.235 1225.26 467.257
89 1 42.048 11.2491 473 109.611 1224.77 485.748
90 0 44.0685 11.414 503 106.406 1225.06 485.718
91 0 44.0817 11.9324 526 110.238 1223.87 482.395
92 0 45.0643 12.2935 554 108.574 1219.86 483.202
93 0 48.0718 13.7087 659 103.797 1217.94 481.517
94 0 47.1497 12.6406 596 101.923 1215.85 480.906
95 0 51.0782 14.5855 745 105.301 1213.95 480.444
96 0 52.141 14.48 755 106.4 1211.12 479.098
97 0 52.08 13.4985 703 108.839 1208.13 477.851
98 0 57.0943 15.5007 885 102.472 1205.77 476.713
99 0 55.1334 13.6759 754 107.751 1204.24 474.479
100 0 59.0934 16.1101 952 102.675 1204.18 469.424
101 0 60.1084 14.2576 857 107.39 1203.26 472.338
102 0 63.1249 15.3822 971 105.098 1204.21 467.323
103 0 64.0993 14.5399 932 108.263 1204.51 466.623
104 0 68.079 15.1882 1034 106.926 1206.32 465.513
105 1 34.0135 11.3778 387 109.109 1206.71 482.106
106 0 36.0147 11.9396 430 108.651 1208.91 479.667
107 0 38.0209 12.4142 472 107.678 1209.71 478.121
108 0 38.0146 12.7846 486 106.101 1211.2 477.313
109 0 41.0165 13.7262 563 101.281 1213.98 479.25
110 0 40.0247 13.6666 547 101.144 1216.14 475.923
111 0 41.0401 14.1081 579 100.598 1218.53 475.508
112 0 45.184 16.2004 732 94.3811 1219.9 475.633
113 0 42.1269 13.4119 565 109.842 1222.48 474.099
114 0 45.239 13.8155 625 109.11 1223.96 475.066
115 0 45.1445 13.4679 608 111.74 1224.93 473.289
116 0 45.1445 13.3793 604 168.838 1225.95 473.257
117 0 45.1445 13.335 602 168.493 1226.95 473.314
118 0 50.1356 15.3783 771 111.167 1229.02 473.52
119 0 52.1259 14.676 765 111.344 1228.86 475.379
120 0 53.2063 14.6975 782 112.647 1229.01 476.396
121 0 54.1633 15.324 830 112.448 1229.92 478.247
122 0 57.1705 15.1652 867 111.203 1229.26 476.834
123 0 61.1855 16.0659 983 106.821 1228.06 476.032
124 0 62.1169 15.8411 984 103.698 1226.46 473.801
125 0 62.1169 15.7928 981 157.817 1222.48 473.731
126 0 67.1153 17.1049 1148 103.224 1224.42 472.894
127 0 68.174 15.6071 1064 107.628 1222.38 471.648
128 1 36.0361 14.3467 517 107.681 1219.25 485.079
129 0 38.0823 13.4971 514 106.167 1216.64 483.981
130 0 38.0689 14.3161 545 107.78 1213.79 481.853
131 0 38.0266 14.5161 552 108.342 1212.23 477.848
132 0 43.1075 15.2873 659 106.809 1210.72 477.238
133 0 44.0696 15.0671 664 109.732 1208.36 475.443
134 0 41.0542 14.152 581 174.824 1204.52 474.353
135 0 46.1511 17.0094 785 107.568 1206.98 471.768
136 0 47.0769 15.4003 725 111.916 1207.54 468.906
137 0 47.0769 15.2304 717 167.704 1207.57 468.837
138 0 51.1351 15.6057 798 110.803 1208.92 465.895
139 0 51.2152 17.3972 891 109.4 1211.44 466.35
140 0 54.2612 16.2363 881 110.343 1212.4 463.948
141 0 55.2424 16.2194 896 111.783 1213.42 461.688
142 0 57.2386 16.6496 953 110.402 1215.05 460.367
143 0 58.4389 15.5205 907 113.665 1218.4 460.981
144 0 62.3703 18.1336 1131 107.379 1219.68 459.381
145 0 64.2085 17.5366 1126 109.921 1220.71 457.444
146 0 67.5018 18.7106 1263 106.159 1222.7 456.869
147 0 67.5018 18.6662 1260 158.932 1224.7 456.804
148 1 31.1546 12.5824 392 119.827 1224.49 473.467
149 0 32.2512 12.9298 417 118.091 1226.25 475.254
150 0 34.1222 13.0707 446 121.816 1227.69 473.897
151 0 36.1271 13.2588 479 120.981 1228.87 475.633
152 0 36.3928 13.3818 487 122.6 1229.1 473.23
153 0 39.4927 14.1039 557 118.673 1229.63 476.697
154 0 40.2647 15.87 639 117.657 1230.15 474.872
155 0 40.6082 15.1447 615 118.722 1229.92 477.972
156 0 44.5929 15.6527 698 114.918 1229.01 477.769
157 0 45.3103 16.3318 740 114.666 1229.71 478.572
158 0 48.8022 17.3968 849 109.954 1227.9 478.408
159 0 48.4973 16.1658 784 114.995 1226.29 476.346
160 0 51.4199 16.4139 844 113.307 1224.61 477.031
161 0 52.42 17.169 900 111.871 1221.26 475.504
162 0 55.5488 17.2641 959 110.241 1218.74 474.287
163 0 56.3431 18.2631 1029 108.536 1215.95 472.598
164 0 56.371 16.9413 955 113.291 1213.77 469.581
165 0 60.4249 17.3273 1047 111.508 1211.64 468.907
166 0 62.4412 16.976 1060 111.012 1210.51 468.945
167 0 64.5884 17.0154 1099 111.53 1209.88 465.965
168 0 65.4446 17.2665 1130 111.703 1209 463.221
169 0 70.3678 17.6643 1243 110.155 1208.19 462.416
170 0 70.2943 17.3983 1223 112.467 1208.45 460.351
171 0 71.2589 16.5453 1179 114.665 1209.4 458.333
172 1 35.2918 13.5159 477 115.566 1209.98 475.597
173 0 34.3278 12.1476 417 119.242 1211.54 475.885
174 0 35.385 13.339 472 118.686 1213.71 473.778
175 0 36.2048 13.5065 489 118.444 1215.48 472.814
176 0 37.2265 15.043 560 115.63 1218.22 471.507
177 0 39.2299 15.7023 616 113.394 1219.48 472.468
178 0 40.3578 15.5856 629 113.253 1221.47 471.194
179 0 43.2946 15.4292 668 111.783 1224 471.308
180 0 42.2482 16.7108 706 111.048 1225.76 469.829
181 0 44.1996 15.8599 701 111.749 1227.53 470.626
182 0 45.1632 16.6065 750 111.895 1228.64 470.436
183 0 47.3109 16.7826 794 110.637 1229.57 471.348
184 0 49.1678 16.2098 797 112.028 1230.08 471.868
185 0 51.1905 16.839 862 110.897 1230.76 472.835
186 0 53.0444 16.5333 877 111.234 1232.46 474.265
187 0 54.1177 16.7228 905 110.854 1232.72 473.687
188 0 55.1803 17.8506 985 110.678 1232.45 471.626
189 0 58.1041 16.9696 986 111.521 1232.18 474.191
190 0 61.0587 17.8353 1089 108.11 1230.8 474.307
191 0 63.0678 17.2196 1086 110.67 1229.4 472.426
192 0 64.0958 16.4909 1057 112.927 1227.54 471.523
193 0 68.1721 17.5585 1197 106.982 1225.98 471.676
194 0 71.336 16.962 1210 108.05 1222.74 468.511
195 0 72.2213 18.3187 1323 106.564 1219.49 467.085
196 0 72.1288 17.6074 1270 110.99 1217.2 466.391
197 0 76.1283 17.8383 1358 110.18 1215.36 464.58
198 0 78.1975 19.0287 1488 109.163 1212.18 459.878
199 0 81.1159 18.566 1506 111.071 1210.28 458.593
200 0 81.1159 18.5414 1504 165.544 1207.28 458.461
201 0 87.2041 18.3592 1601 110.838 1208.14 453.966
202 0 89.1754 18.5477 1654 112.802 1207.26 450.27
203 0 94.4164 18.1113 1710 112.929 1207.46 449.033
204 0 97.1761 18.5025 1798 112.69 1208.74 446.148
205 0 101.201 18.3991 1862 113.689 1209.55 442.356
206 0 106.189 18.6177 1977 112.996 1211.13 438.828
207 0 111.117 18.9171 2102 111.668 1212.55 435.841
208 1 52.0598 13.8111 719 113.221 1214.82 465.561
209 0 54.0331 15.6756 847 109.764 1216.1 464.087
210 0 55.098 15.4089 849 113.512 1217.96 460.305
211 0 55.1336 15.9794 881 113.111 1219.8 462.477
212 0 58.2 15.9107 926 116.656 1223.79 460.253
213 0 60.3093 15.7024 947 117.612 1226.62 459.164
214 0 64.1542 16.6006 1065 114.512 1227.8 459.233
215 0 66.3118 16.8447 1117 114.381 1230 460.507
216 0 67.4062 15.503 1045 118.34 1230.75 460.556
217 0 68.3161 16.4676 1125 116.03 1231.93 460.578
218 0 69.1954 15.5502 1076 118.946 1232.45 460.967
219 0 74.409 17.0947 1272 114.807 1231.78 462.135
220 0 74.3991 17.0835 1271 158.722 1229.79 461.999
221 0 75.5696 16.8851 1276 119.699 1232.05 460.266
222 0 77.2552 16.4649 1272 122.011 1231.82 462.048
223 0 79.3908 16.614 1319 123.603 1230.5 460.685
224 0 80.4041 17.2131 1384 122.358 1228.48 458.126
