time division length width area intensity CMx CMy
0 0 28.0978 14.058 395 136.881 1029.14 501.349
1 0 30.2291 14.4563 437 134.346 1025.78 500.32
2 0 31.4838 14.6425 461 134.297 1026.47 498.028
3 0 32.0263 15.4248 494 130.18 1026.01 495.678
4 0 32.1211 14.0717 452 136.248 1026.75 495.54
5 0 31.1012 14.501 451 164.971 1026.74 495.506
6 0 35.111 14.4684 508 133.262 1028.34 495.339
7 0 35.3174 15.7712 557 129.628 1029.13 493.731
8 0 37.1569 14.2369 529 134.153 1030.08 490.762
9 0 36.2112 15.6582 567 132.15 1031.43 490.06
10 0 34.0044 16.2038 551 133.14 1031.19 488.207
11 0 40.0508 15.1558 607 127.362 1035.36 487.532
12 0 40.0595 14.5284 582 130.986 1036.31 484.361
13 0 39.0714 15.9708 624 127.994 1038.15 484.351
14 0 43.0999 16.0789 693 124.238 1039.54 484.629
15 0 42.0933 16.0358 675 130.575 1041.87 483.117
16 0 43.1015 15.4287 665 132.786 1044.97 482.913
17 0 45.1044 16.096 726 129.829 1046.88 483.11
18 0 47.1256 16.5727 781 125.22 1049.23 484.262
19 0 47.0904 15.5021 730 128.921 1050.18 480.71
20 0 50.0705 16.8363 843 126.982 1051.93 481.317
21 0 50.065 14.7009 736 134.317 1051.64 483.004
22 0 50.1059 15.4074 772 132.816 1050.42 481.135
23 0 54.0378 16.2109 876 127.266 1049.67 481.994
24 0 54.037 15.5264 839 130.555 1049.17 483.155
25 0 57.0715 17.6445 1007 122.397 1047.07 480.577
26 0 58.0909 17.1111 994 122.064 1044.54 480.951
27 0 61.0684 17.3576 1060 121.921 1042.27 477.378
28 0 61.1874 16.2288 993 127.565 1040.28 477.834
29 0 63.0737 16.8216 1061 124.889 1038.84 475.256
30 0 66.1128 16.3055 1078 125.393 1035.95 474.376
31 0 69.0764 18.4578 1275 119.049 1034.11 471.649
32 0 70.2149 16.9622 1191 123.463 1032.37 470.919
33 0 73.2292 17.1926 1259 122.522 1031.65 465.4
34 0 73.2177 17.2226 1261 164.867 1031.67 465.336
35 0 73.2135 17.2646 1264 164.206 1031.67 465.299
36 0 81.2512 17.1567 1394 122.004 1033.03 459.022
37 0 83.303 17.1422 1428 121.954 1034.09 457.086
38 0 86.2885 17.2677 1490 120.71 1034.97 456.233
39 0 88.1846 16.9871 1498 121.169 1035.7 455.539
40 0 90.364 16.7655 1515 123.611 1038.57 451.83
41 1 47.1517 12.1523 573 125.894 1041.03 474.417
42 0 49.1061 12.6868 623 125.47 1043.16 472.551
43 0 51.1384 12.2217 625 126.416 1045.56 471.331
44 0 53.2347 13.8256 736 122.208 1048.12 471.209
45 0 55.2623 13.7888 762 122.828 1049.92 466.24
46 0 54.2616 14.0062 760 170.034 1050.91 466.153
47 0 61.1409 16.4211 1004 116.126 1053.73 467.099
48 0 63.1916 15.5242 981 117.828 1055.18 465.029
49 0 63.1222 15.6997 991 118 1056.28 467.113
50 0 67.2186 16.0819 1081 116.778 1057.43 464.572
51 0 68.0635 15.3974 1048 119.391 1058.36 466.348
52 0 70.0638 16.1424 1131 115.045 1059.45 467.159
53 0 74.1679 17.2986 1283 112.695 1060.52 466.894
54 0 74.1573 15.6964 1164 116.631 1061.3 467.309
55 0 77.1069 15.9648 1231 115.626 1060.19 467.058
56 0 82.2669 16.4343 1352 110.245 1059.1 466.595
57 0 83.0621 16.6743 1385 109.864 1058.11 465.075
58 1 45.0141 11.3076 509 112.67 1056.44 485.625
59 0 48.0209 11.7241 563 110.06 1055.2 484.721
60 0 49.0445 12.0707 592 111.02 1052.23 483.336
61 0 51.043 12.8323 655 105.634 1049.7 483.07
62 0 52.0675 14.9037 776 104.077 1047.15 480.103
63 0 52.1038 12.8973 672 109.533 1045.51 477.048
64 0 54.0588 12.8749 696 108.974 1043.89 474.049
65 0 56.1161 14.5056 814 101.383 1042.09 474.776
66 0 57.0613 13.4592 768 104.423 1040.85 472.6
67 0 57.0613 13.4943 770 154.273 1039.86 472.564
68 0 61.0535 13.136 802 106.834 1039.19 466.763
69 0 66.0249 14.1159 932 105.047 1039.88 464.326
70 0 66.0369 14.0527 928 107.473 1041.77 461.863
71 0 71.067 15.0562 1070 105.144 1043.83 458.457
72 0 74.0997 14.6019 1082 105.016 1043.99 458.579
73 0 74.109 13.2373 981 110.189 1046.99 455.938
74 1 42.0086 11.7119 492 106.25 1049.3 474.136
75 0 44.0938 12.5414 553 105.593 1050.56 473.027
76 0 44.0114 12.3604 544 106.998 1052.49 471.147
77 0 45.0864 11.8439 534 107.468 1054.56 470.077
78 0 46.0475 13.4426 619 104.142 1056.57 468.559
79 0 49.0305 12.9511 635 105.066 1057.31 470.206
80 0 49.018 14.3825 705 102.46 1059.32 469.528
81 0 49.0449 12.458 611 104.7 1060.76 469.121
82 0 49.0407 12.194 598 105.799 1062.3 469.052
83 0 53.0097 13.224 701 101.264 1064.85 471.094
84 0 53.03 13.6149 722 103.097 1065.12 470.445
85 0 57.1426 14.1401 808 101.208 1064.91 471.072
86 0 58.1056 14.5597 846 100.682 1066.31 469.137
87 0 59.0241 12.605 744 105.309 1066.2 469.173
88 0 63.0551 13.1789 831 104.001 1066.24 469.888
89 0 64.059 15.2984 980 99.4031 1065.12 469.967
90 0 65.0524 13.712 892 104.201 1064.01 470.226
91 0 68.1592 14.6275 997 101.775 1063.53 468.16
92 1 36.0902 10.6123 383 107.063 1061.68 484.849
93 0 37.0924 11.3231 420 105.836 1058.63 485.581
94 0 40.0363 11.1149 445 106.382 1056.81 483.492
95 0 39.0585 11.1627 436 105.271 1053 482.872
96 0 39.0463 11.8065 461 102.206 1049.69 482.946
97 0 44.0793 12.9993 573 97.2286 1047.15 479.686
98 0 45.1189 13.542 611 95.9607 1045.57 478.74
99 0 46.1685 13.4724 622 95.7154 1044.57 475.764
100 0 45.0497 13.363 602 97.701 1043.99 474.708
101 0 47.0983 12.527 590 99.9017 1044.31 474.6
102 0 47.0983 12.5058 589 136.38 1044.31 474.514
103 0 51.2366 13.2327 678 98.9056 1044.92 470.892
104 0 51.2118 13.2587 679 132.716 1044.93 470.956
105 0 53.0366 14.2543 756 98.4034 1047.4 466.459
106 0 54.0641 14.0944 762 97.2257 1048.23 464.059
107 0 55.2222 12.6036 696 100.193 1050.25 466.069
108 0 57.0895 11.3506 648 102.438 1052 466.745
109 0 60.1273 13.4049 806 98.7146 1053.75 464.561
110 0 60.2976 13.3339 804 100.701 1054.71 463.422
111 0 63.1829 14.8933 941 98.3592 1057.3 460.79
112 0 66.2519 14.6562 971 99.5942 1059.28 461.965
113 0 67.2491 14.5429 978 100.963 1060.49 456.916
114 0 66.2225 12.8808 853 106.533 1062.71 458.608
115 0 70.4013 13.2242 931 105.063 1064.35 459.488
116 0 74.3603 15.2904 1137 99.5849 1065.8 459.048
117 1 39.1231 11.5788 453 108.236 1066.16 476.713
118 0 41.0772 11.2228 461 112.382 1067.79 476.13
119 0 40.1313 11.4873 461 111.291 1068.4 477.879
120 0 41.136 12.0576 496 109.782 1069.54 479.367
121 0 41.136 12.1791 501 160.192 1070.55 479.435
122 0 45.1521 11.7381 530 107.051 1068.94 481.049
123 0 48.1464 13.0643 629 104.108 1068.93 478.688
124 0 47.1679 12.2965 580 106.488 1068.56 479.269
125 0 52.137 13.4453 701 102.97 1066.14 478.934
126 0 50.1273 13.2463 664 106.158 1064.93 476.995
127 0 49.1337 12.5983 619 153.428 1063.96 476.373
128 0 54.0557 15.2065 822 102.496 1059 476.308
129 0 56.038 14.4723 811 103.757 1057.24 475.111
130 0 55.0577 13.7311 756 107.687 1056.52 470.532
131 0 59.0314 13.6537 806 105.102 1053.5 471.136
132 0 61.2195 14.1948 869 103.435 1049.96 468.203
133 0 64.0768 13.3277 854 106.286 1049.38 466.458
134 0 66.0868 14.7079 972 104.013 1047.95 461.556
135 0 67.0354 13.3959 898 106.988 1048.33 461.008
136 0 71.1247 14.5519 1035 103.932 1048.12 458.479
137 0 74.0939 15.5074 1149 100.95 1048.35 455.54
138 0 75.1875 13.6459 1026 105.599 1050.49 454.186
139 0 79.1083 15.8011 1250 101.06 1051.69 455.362
140 0 78.0523 13.6575 1066 107.713 1052.94 451.932
141 0 83.1637 14.249 1185 105.675 1056.4 448.009
142 1 45.0296 10.9706 494 110.117 1056.61 465.966
143 0 46.0678 12.5467 578 106.37 1057.62 467.445
144 0 46.0469 11.1842 515 109.214 1060.04 467.093
145 0 49.0367 11.9502 586 105.094 1061.39 468.456
146 0 50.0508 12.5672 629 107.308 1062.69 464.539
147 0 53.0445 14.271 757 100.904 1065.16 465.14
148 0 56.0438 14.0426 787 101.112 1066.1 465.525
149 0 53.1171 12.5572 667 107.544 1066.6 464.27
150 0 56.0769 13.0535 732 103.37 1067.55 465.02
151 0 58.0956 13.6499 793 102.057 1069.54 466.928
152 0 59.0846 13.3876 791 103.678 1070.33 463.987
153 0 60.0441 12.4742 749 105.677 1070.61 466.071
154 0 64.127 14.253 914 101.719 1071.03 465.53
155 0 63.1626 13.2357 836 105.091 1069.74 467.226
156 0 67.1014 13.6957 919 104.683 1069.43 463.252
157 0 70.1338 14.3155 1004 103.311 1068.5 465.565
158 0 72.1178 15.1142 1090 103.093 1066.97 464.947
159 0 74.1594 15.2374 1130 104.032 1063.93 462.673
160 0 74.1594 15.3318 1137 157.841 1059.93 462.663
161 0 80.1123 15.6905 1257 102.615 1061.09 460.716
162 0 83.2747 16.3795 1364 101.939 1057.54 459.078
163 0 85.189 14.0863 1200 107.654 1055.05 455.288
164 0 87.1987 14.1057 1230 106.502 1052.48 455.293
165 0 91.1745 13.8526 1263 108.117 1051.09 452.058
166 1 53.1451 11.6097 617 108.856 1050.29 470.241
167 0 51.1623 9.89009 506 108.927 1049.97 471.99
168 0 51.0861 10.1006 516 110.498 1048.98 468.269
169 0 56.2312 11.755 661 107.225 1048.82 465.611
170 0 56.1656 12.4631 700 107.584 1051.02 463.027
171 0 60.1911 12.9089 777 104.224 1050.79 461.7
172 0 60.1882 14.2719 859 102.758 1052.37 459.108
173 0 63.1228 13.6559 862 97.0766 1053.53 459.689
174 0 64.2283 12.4089 797 100.193 1054.63 457.631
175 0 66.2203 12.247 811 101.383 1056.89 457.984
176 0 68.2435 11.8986 812 101.968 1058.51 456.749
177 0 69.1572 12.3342 853 100.919 1061.32 457.319
178 0 72.235 12.6808 916 100.525 1062.75 456.426
179 0 76.294 13.2383 1010 99.3634 1064.07 453.683
180 0 76.3525 12.6256 964 101.69 1063.99 452.127
181 1 43.083 10.886 469 96.1876 1067.07 472.13
182 0 44.1281 10.039 443 100.391 1067.78 472.16
183 0 44.0902 10.7961 476 100.668 1069.19 472.754
184 0 44.1102 10.6778 471 100.868 1071.77 472.316
185 0 47.0743 11.9386 562 98.5516 1072.62 471.149
186 0 49.0144 12.3433 605 99.6645 1075.07 472.431
187 0 49.1434 10.9882 540 98.3222 1072.8 473.841
188 0 51.1305 11.324 579 97.3437 1072.49 475.162
189 0 52.2744 13.0657 683 95.571 1071.35 473.902
190 0 52.2096 12.0476 629 96.4181 1070.47 475.059
191 0 56.1505 12.7871 718 94.4192 1069.54 474.916
192 0 55.155 11.4405 631 98.4041 1067.26 474.252
193 0 59.1333 11.8884 703 96.6942 1064.81 472.707
194 0 61.237 11.8229 724 96.9102 1062.76 470.896
195 0 59.1918 9.78176 579 100.442 1060.25 472.453
196 0 62.1761 13.7191 853 95.0938 1057.72 468.921
197 0 64.1938 11.6055 745 97.2027 1055.09 468.723
198 0 65.2128 10.6114 692 100.286 1052.75 465.004
199 0 68.3265 11.9573 817 98.3807 1050.11 463.548
200 0 72.358 13.5852 983 95.1424 1048.62 460.593
201 1 40.2219 11.4117 459 95.6231 1049.22 474.974
202 0 41.1895 10.1482 418 97.6292 1048.68 473.222
203 0 41.2908 11.9155 492 96.2398 1048.55 471.157
204 0 43.1622 11.1903 483 98.1946 1049.1 469.335
205 0 45.2482 11.9121 539 97.0835 1051.32 466.388
206 0 47.2022 12.9655 612 94.6258 1052.98 467.34
207 0 48.1614 13.8908 669 94.2272 1054.3 464.157
208 0 50.0819 12.9787 650 93.9723 1056.77 463.951
209 0 50.1188 12.0514 604 96.7997 1056.67 464.849
210 0 51.16 12.2948 629 97.1828 1058.03 462.424
211 0 51.16 12.2752 628 144.016 1063.04 462.427
212 0 51.1813 10.9024 558 101.982 1065.19 464.676
213 0 59.2014 11.3004 669 100.9 1067.13 461.271
214 0 62.1882 12.1406 755 98.4543 1068.74 463.69
215 0 63.2232 12.5429 793 99.7364 1070.29 461.932
216 0 65.185 14.5432 948 95.6603 1070.93 462.218
217 0 66.1772 11.9074 788 100.487 1072.37 463.379
218 0 66.2543 11.3502 752 103.35 1073.53 465.259
219 0 70.1684 12.0425 845 101.123 1073.22 464.449
220 0 71.1198 12.1626 865 100.44 1073.9 466.076
221 0 73.1112 13.8693 1014 99.4763 1072.81 463.298
222 0 75.2553 11.8929 895 105.358 1072.15 464.32
223 0 77.2025 13.3156 1028 104.108 1071.57 462.298
224 0 75.1987 17.2609 1298 97.6918 1070.4 459.745
225 0 76.1963 12.9271 985 105.194 1067.13 462.369
226 1 47.1295 8.5509 403 109.464 1065.72 478.161
227 0 48.1043 11.4543 551 102.615 1063.15 476.777
228 0 48.0727 11.3786 547 105.803 1061.54 473.068
229 0 51.1358 11.1664 571 104.79 1059.34 473.356
230 0 50.0902 12.5374 628 103.807 1057.67 470.497
231 0 55.0739 10.84 597 104.528 1056.15 468.707
232 0 55.0834 9.67624 533 105.218 1054.81 469.874
233 0 54.089 12.313 666 100.529 1053.01 468.878
234 0 54.0858 12.6466 684 147.135 1051.93 468.513
235 0 59.0912 12.7599 754 99.0597 1052.62 460.084
236 0 59.0529 11.1595 659 99.1457 1053.81 460.812
237 0 61.0557 13.4467 821 95.8806 1054.5 455.543
238 0 65.17 12.7973 834 95.0096 1055.85 455.891
239 0 64.1673 12.5142 803 96.0461 1058.08 456.296
240 0 67.1637 12.1643 817 96.4382 1060.05 451.632
241 0 70.1407 13.0452 915 94.1738 1061.34 452.236
242 0 71.1661 11.705 833 97.2305 1062.45 450.987
243 0 71.1444 10.5419 750 99.7253 1065 452.943
244 0 74.1256 12.5463 930 96.2559 1066.14 449.938
245 0 77.0734 11.9497 921 97.4843 1066.47 449.333
246 0 79.0885 12.7073 1005 97.5841 1068.52 449.159
247 0 79.0885 12.7326 1007 147.552 1069.52 449.129
248 0 84.0824 12.904 1085 98.4525 1072.69 447.904
249 0 88.2244 13.681 1207 98.1814 1073.51 447.524
250 0 90.15 11.2257 1012 100.464 1073.71 450.616
251 0 95.138 14.232 1354 96.5598 1073.36 448.626
252 1 49.0302 12.1558 596 101.267 1075.27 469.174
253 0 53.0482 12.5546 666 100.344 1076.39 469.743
254 0 55.0647 13.8564 763 97.5203 1077.02 470.843
255 0 53.0558 12.5528 666 97.6036 1076.63 470.932
256 0 54.073 13.8701 750 95.0493 1074.86 474.073
257 0 55.0394 12.7182 700 97.5071 1073.8 474.729
258 0 57.0447 12.6918 724 99.076 1072.38 473.043
259 0 57.0311 12.8526 733 101.336 1071.75 472.993
260 0 59.04 13.3638 789 101.057 1068.93 471.569
261 0 59.04 13.3808 790 160.322 1065.92 471.675
262 0 64.0358 12.6023 807 98.3879 1063.15 470.936
263 0 66.081 13.8315 914 97.581 1060.27 467.295
264 0 70.1556 13.242 929 98.7955 1058.02 464.253
265 0 70.1043 13.3373 935 100.923 1056.29 463.539
266 0 72.1702 14.3827 1038 99.2582 1053.34 458.671
267 0 74.13 12.8018 949 101.71 1052.64 458.332
268 0 78.1473 14.6134 1142 98.1016 1051.65 453.829
269 0 80.2149 13.8628 1112 99.8579 1051.23 452.888
270 0 82.1869 13.2746 1091 101.401 1054.2 447.836
271 0 83.2692 12.5497 1045 103.038 1053.56 449.934
272 1 48.0186 11.4539 550 100.591 1055.32 466.296
273 0 49.0262 11.708 574 101.334 1057.6 462.742
274 0 49.0262 11.8304 580 151.743 1059.62 462.662
275 0 52.0663 11.1396 580 106.571 1060.4 461.443
276 0 57.0431 13.7089 782 100.509 1062.72 460.985
277 0 59.0588 14.2062 839 99.0489 1063.31 459.832
278 0 56.1578 12.8388 721 99.742 1063.44 458.596
279 0 58.145 12.744 741 99.7463 1064.89 458.231
280 0 60.1304 13.0217 783 99.4444 1066.38 459.243
281 0 64.2148 13.7196 881 96.1589 1068.88 459.571
282 0 64.2415 12.8266 824 99.2403 1069.9 458.835
283 0 67.238 12.597 847 98.7273 1071.03 461.276
284 0 68.2944 12.9586 885 97.5955 1073.16 458.897
285 0 71.2924 11.6141 828 99.5145 1074.43 460.558
286 0 75.2655 13.5919 1023 96.4976 1074.37 461.038
287 0 76.1986 12.5724 958 99.6879 1074.48 459.74
288 0 79.2839 12.348 979 99.9816 1075.31 459.676
289 0 83.2473 12.3247 1026 100.866 1074.12 459.976
290 0 85.3173 12.5414 1070 102.199 1074.13 456.727
291 1 45.0716 11.1157 501 100.481 1073.08 476.637
292 0 47.0495 13.4114 631 96.2488 1071.65 477.09
293 0 50.0372 14.1295 707 97.2588 1070.62 478.098
294 0 47.1786 12.8236 605 95.3917 1065.54 476.562
295 0 47.1114 11.9292 562 99.5765 1062.72 475.377
296 0 49.0562 10.702 525 101.059 1059.98 475.516
297 0 49.0846 11.5719 568 99.6954 1056.88 473.783
298 0 52.1243 12.1632 634 97.1782 1055.88 471.123
299 0 55.0974 13.0859 721 94.0555 1053.36 467.714
300 0 56.1055 12.4409 698 95.1648 1051.76 467.576
301 0 55.2396 12.1109 669 98.0359 1051.44 463.132
302 0 58.1317 11.904 692 97.1893 1050.45 463.529
303 0 60.0979 13.062 785 95.0064 1050.59 458.676
304 0 62.0917 13.7378 853 92.9414 1051.7 456.889
305 0 65.1231 12.6837 826 93.0545 1053.31 458.465
306 0 67.1765 12.0727 811 93.9383 1054.44 455.938
307 0 70.1066 12.1957 855 93.6585 1055.64 455.713
308 0 72.1655 12.9286 933 93.8628 1057.68 449.501
309 0 75.263 12.7021 956 93.2552 1059.68 449.143
310 0 75.263 12.742 959 136.762 1062.7 449.023
311 1 40.0789 9.85556 395 96.7899 1064.5 466.362
312 0 42.0114 10.3781 436 95.3968 1067.23 468.229
313 0 44.0266 12.0609 531 95.1733 1067.23 467.186
314 0 46.0812 9.80878 452 96.208 1067.8 468.934
315 0 45.0118 10.9305 492 97.0508 1069.02 465.524
316 0 50.0727 11.2037 561 93.6613 1070.2 466.583
317 0 50.1252 11.2718 565 95.9221 1073.54 466.625
318 0 51.0458 11.7933 602 95.8854 1074.43 465.64
319 0 53.1235 14.2498 757 97.2497 1076.04 465.23
320 0 53.0998 12.7496 677 102.765 1075.26 468.127
321 0 57.1645 13.2775 759 99.4256 1075.52 468.896
322 0 56.0423 12.7582 715 100.936 1075.31 468.887
323 0 61.1227 14.5609 890 96.5517 1075.14 467.247
324 0 63.0508 13.1798 831 98.361 1075.2 469.647
325 0 64.0939 14.744 945 96.3132 1073.9 469.286
326 0 67.075 14.0142 940 97.6894 1072.41 466.529
327 0 66.0777 13.9987 925 99.5924 1069.28 467.723
328 0 69.1959 15.8969 1100 96.1873 1066.51 463.612
329 0 71.1048 15.006 1067 99.1275 1064.27 462.96
330 0 74.0931 15.8044 1171 97.3023 1060.09 461.08
331 0 74.1324 13.4219 995 103.701 1058.98 458.101
332 0 79.1102 15.7123 1243 98.2574 1056.65 455.338
333 0 80.2487 15.128 1214 98.6186 1053.8 455.673
334 0 84.0589 14.8586 1249 99.305 1052.76 451.765
335 0 88.1758 14.7886 1304 99.0276 1053.05 450.495
336 0 89.1688 15.4763 1380 100.573 1052.71 446.36
337 0 91.0689 14.791 1347 101.694 1052.18 445.938
338 0 96.1089 14.598 1403 103.141 1054.25 442.819
339 1 50.0365 11.7914 590 103.434 1054.98 464.564
340 0 52.0278 13.9733 727 99.3191 1055.83 461.088
341 0 53.0548 13.552 719 100.605 1056.79 460.293
342 0 53.0466 13.2337 702 103.242 1060.43 458.379
343 0 57.1976 15.123 865 94.3191 1060.99 457.85
344 0 59.1272 15.103 893 98.9283 1063.81 458.531
345 0 60.1349 14.0684 846 101.344 1065 456.732
346 0 61.2262 13.2623 812 102.127 1067.04 459.339
347 0 65.1517 13.0618 851 101.082 1067.37 458.048
348 0 67.125 15.6425 1050 96.2667 1069.17 457.002
349 0 65.1094 14.5601 948 100.176 1070.21 455.508
350 0 68.1246 14.6349 997 99.655 1071.45 457.972
351 0 69.1002 13.9652 965 102.625 1073.04 456.638
352 0 73.1073 13.4186 981 102.507 1074.08 456.843
353 0 77.1868 15.2358 1176 97.3044 1074.12 457.351
354 0 78.1621 14.6491 1145 99.6891 1076.09 456.976
355 0 81.137 14.2722 1158 100.592 1075.43 458.14
356 0 83.1232 13.8229 1149 100.531 1074.72 457.954
357 0 85.2053 13.9897 1192 99.401 1073.94 460.257
358 1 47.1444 9.99057 471 103.567 1072.4 475.541
359 0 48.0543 11.7367 564 99.9131 1070.79 474.945
360 0 49.2006 11.4226 562 98.1673 1067.85 476.036
361 0 51.2299 12.0828 619 98.7431 1066.72 474.019
362 0 53.1852 13.5376 720 95.5389 1064.01 470.832
363 0 54.1972 14.6317 793 92.3178 1059.93 468.517
364 0 55.1802 13.465 743 103.482 1059.37 467.423
365 0 56.1877 12.5472 705 104.864 1057.54 468.518
366 0 59.1022 14.9064 881 99.9012 1055.43 466.174
367 0 61.162 14.4861 886 99.9413 1053.17 464.131
368 0 60.1241 14.3037 860 102.855 1052.18 462.216
369 0 64.176 16.1899 1039 97.308 1051.92 459.678
370 0 63.2344 14.1537 895 104.05 1052.44 456.115
371 0 68.2334 13.8935 948 104.019 1053.05 454.519
372 0 68.1827 14.0358 957 104.11 1054.44 453.059
373 0 71.291 14.9528 1066 100.898 1056.47 451.054
374 0 72.2944 13.3759 967 106.085 1058.02 450.122
375 0 76.334 14.6069 1115 102.232 1059.47 450.401
376 0 79.5066 13.785 1096 104.782 1061.05 446.428
377 0 82.2704 14.9993 1234 101.006 1062.59 446.513
378 0 84.2609 15.0366 1267 101.952 1064.21 444.615
379 1 45.0759 10.6043 478 101.724 1063.96 464.552
380 0 44.1509 11.5287 509 98.9725 1065.9 466.124
381 0 48.0844 12.2285 588 98.1973 1067.38 465.526
382 0 48.1172 11.3889 548 98.7026 1068.92 467.19
383 0 50.2539 12.1583 611 96.4337 1070.91 466.506
384 0 50.1701 11.6803 586 96.1246 1071.91 466.59
385 0 54.0957 13.4761 729 91.7147 1074.05 467.481
386 0 53.0685 12.1541 645 103.375 1075.96 466.893
387 0 54.0316 12.2151 660 104.133 1076.12 467.3
388 0 57.0587 13.3897 764 100.492 1076.23 467.763
389 0 58.0509 13.2125 767 100.39 1077.05 471.196
390 0 59.0787 14.066 831 99.5728 1077.23 470.005
391 0 62.0799 12.0329 747 102.282 1075.78 471.64
392 0 62.0395 14.1845 880 99.567 1074.71 470.925
393 0 65.0682 14.4771 942 99.8015 1072.37 467.775
394 0 66.0519 13.1109 866 103.237 1069.63 468.667
395 1 35.0584 8.69978 305 102.279 1067.41 484.426
396 0 40.064 11.2071 449 97.0802 1065.06 482.481
397 0 39.017 11.0465 431 99.2575 1062.41 480.573
398 0 40.0399 11.2138 449 102.089 1059.71 475.392
399 0 43.0543 12.612 543 95.7256 1057.15 474.589
400 0 43.0765 11.6305 501 97.2335 1055.29 475.078
401 0 44.0221 12.4937 550 97.8145 1052.73 472.273
402 0 45.0578 12.0956 545 96.7798 1052.83 470.521
403 0 47.1874 12.9907 613 95.8026 1051.38 467.411
404 0 50.2163 13.8003 693 94.8528 1052.51 467.241
405 0 48.1796 13.9893 674 98.23 1053.8 464.012
406 0 51.1949 13.1654 674 103.766 1054.77 464.12
407 0 54.2306 13.5348 734 102.609 1057.38 460.642
408 0 56.2923 14.5846 821 101.134 1059.2 460.311
409 0 57.2814 13.9487 799 102.323 1061.18 460.837
410 0 58.2253 15.0794 878 101.92 1062.57 458.27
411 0 60.2491 14.4898 873 103.158 1063.88 456.849
412 0 59.2664 13.3634 792 107.693 1065.3 458.423
413 0 62.2038 14.6132 909 105.182 1066.68 458.708
414 0 66.1579 15.0096 993 102.66 1068.38 459.204
415 0 68.193 16.0134 1092 100.159 1069.39 457.174
416 0 68.2462 15.151 1034 102.768 1070.87 455.548
417 0 70.1675 15.5913 1094 101.912 1071.87 456.178
418 0 70.2412 14.1085 991 106.288 1072.61 456.555
419 0 74.1696 17.1094 1269 99.0867 1073.1 458.792
420 0 75.237 14.3148 1077 105.957 1073.92 455.19
421 0 78.2846 14.8944 1166 103.855 1074.56 457.344
422 0 81.1848 16.3454 1327 99.6096 1074.74 457.561
423 0 84.2161 14.7359 1241 104.025 1075.16 458.846
424 1 45.0675 10.8948 491 109.369 1076.18 474.161
425 0 49.0499 11.315 555 107.07 1075.1 475.492
426 0 48.0952 12.6624 609 106.535 1074.74 474.686
427 0 54.0602 13.3925 724 103.855 1073.04 474.032
428 0 53.0723 13.4533 714 100.445 1070.52 474.836
429 0 56.1135 15.4865 869 96.7307 1066.89 471.162
430 0 57.156 13.8218 790 101.349 1064.57 472.09
431 0 59.085 14.5045 857 100.993 1060.75 467.809
432 0 59.0958 13.3681 790 104.986 1058.36 467.849
433 0 64.0887 15.2445 977 98.6929 1056.18 466.187
434 0 64.0618 14.5485 932 101.814 1053.5 462.591
435 0 66.0952 13.8588 916 109.072 1053.76 461.184
436 0 68.104 14.4485 984 108.043 1052.65 456.418
437 0 68.0637 12.503 851 114.871 1053.75 454.528
438 0 71.0902 14.1792 1008 110.414 1054.68 454.369
439 0 75.122 15.7477 1183 105.449 1056.35 453.861
440 0 77.0602 15.5722 1200 106.86 1057.9 449.627
441 0 81.1168 15.7674 1279 105.827 1059.16 449.009
442 0 82.1974 16.3995 1348 105.416 1061.51 447.384
443 1 34.0534 9.98431 340 109.526 1063.21 470.747
444 0 36.0394 10.655 384 105.75 1064.6 470.638
445 0 38.0884 10.8169 412 104.002 1066.4 470.896
446 0 38.0416 9.62104 366 108.35 1068.14 470.992
447 0 40.0328 11.8403 474 106.19 1068.56 468.333
448 0 42.0923 12.7814 538 102.673 1069.61 468.212
449 0 43.2292 12.399 536 103.157 1070.48 469.494
450 0 44.2319 13.7909 610 99.1066 1071.18 469.133
451 0 47.4362 15.3048 726 94.1584 1072.97 469.368
452 0 46.0197 13.6029 626 99.0304 1074.57 472.442
453 0 47.1572 13.2323 624 101.022 1075.53 470.617
454 0 48.0988 14.6989 707 100.287 1076.91 470.907
455 0 49.0319 13.4606 660 104.25 1077.03 470.27
456 0 52.1285 12.6802 661 103.135 1076.42 474.253
457 0 54.0412 14.4704 782 101.731 1076.09 473.657
458 0 54.1166 13.8959 752 103.701 1074.83 472.335
459 0 57.1078 14.0261 801 103.311 1073.43 470.779
460 0 57.1077 13.1856 753 104.954 1071.76 471.535
461 0 61.0995 15.4338 943 99.4263 1069.81 470.319
462 0 63.3711 14.8017 938 100.76 1067.14 467.458
463 0 64.2406 14.2589 916 103.735 1063.92 466.514
464 0 64.2258 13.4681 865 105.634 1059.8 463.905
465 0 64.2258 13.4681 865 164.827 1055.77 464.038
466 0 69.1729 14.3409 992 104.372 1054.68 461.796
467 0 73.2999 14.734 1080 102.466 1053.71 458.649
468 0 74.2942 14.9675 1112 102.603 1051.94 456.607
469 0 76.1853 13.9659 1064 104.665 1051.46 454.688
470 0 81.2961 16.2369 1320 100.319 1051.41 450.167
471 0 82.272 15.1206 1244 103.913 1053.09 448.681
472 0 85.2474 15.6603 1335 102.957 1053.15 447.555
473 1 47.1375 12.3893 584 106.404 1054.32 464.074
474 0 47.2183 11.3092 534 109.543 1056.75 462.629
475 0 49.1425 10.9071 536 108.159 1059.21 460.55
476 0 53.1644 12.9034 686 104.892 1060.7 459.292
477 0 52.2002 12.2797 641 105.892 1063.2 458.22
478 0 55.0987 14.5012 799 99.995 1064.58 455.946
479 0 58.1241 13.1615 765 99.6092 1065.84 458.587
480 0 58.1279 13.6423 793 99.6406 1068.03 458.649
481 0 62.1071 13.7343 853 96.837 1069.62 460.148
482 0 63.0471 13.3075 839 99.8355 1071.24 458.647
483 0 66.118 14.0355 928 97.6767 1073.08 456.548
484 0 68.0371 13.7572 936 98.1036 1075.16 457.826
485 0 69.0978 12.7066 878 99.9749 1075.18 459.191
486 0 70.0446 13.4629 943 100.405 1075.49 456.066
487 0 74.0772 12.9325 958 99.6837 1074.51 457.447
488 0 75.1845 12.1701 915 100.673 1076.68 458.461
489 0 80.1507 13.4372 1077 98.3491 1076.83 458.416
490 1 46.0505 11.4657 528 99.3428 1077.44 475.375
491 0 44.0247 9.5401 420 101.093 1076.8 475.964
492 0 49.074 12.1245 595 96.5832 1075.72 474.425
493 0 51.0334 12.482 637 94.2088 1073.93 474.579
494 0 52.1331 12.564 655 94.9511 1072.62 473.134
495 0 54.0477 13.7286 742 90.2561 1070.76 469.513
496 0 55.0263 13.1755 725 91.2234 1067.81 470.212
497 0 55.0349 12.592 693 94.4589 1064.58 469.482
498 0 56.0163 13.4782 755 95.4954 1061.74 464.14
499 0 58.0403 12.6119 732 93.8757 1060.34 463.9
500 0 62.066 14.0657 873 92.2818 1056.6 454.809
501 0 62.066 14.0818 874 146.49 1053.61 454.823
502 0 67.1471 12.5099 840 94.4274 1054.4 444.338
503 0 69.0196 12.9528 894 96.104 1053.63 441.073
504 0 69.0611 12.6989 877 99.5701 1053.9 438.211
505 0 72.0328 13.48 971 99.1689 1055.37 436.092
506 0 77.093 14.7614 1138 97.8998 1056.42 437.877
507 0 76.0978 13.6666 1040 103.378 1057.53 438.466
508 0 78.1083 13.9038 1086 103.262 1059.1 443.009
509 0 81.1528 13.8997 1128 104.501 1063.67 447.013
510 0 84.0573 15.8344 1331 102.361 1066.96 445.84
511 0 88.1302 14.9438 1317 103.68 1068.48 444.056
512 0 88.1683 13.1226 1157 110.409 1069.49 441.65
513 0 93.2527 13.8227 1289 108.427 1071.15 442.379
514 1 50.1058 10.7772 540 113.107 1072.91 463.954
515 0 52.046 12.8732 670 110.537 1074.27 461.179
516 0 54.0703 13.4085 725 108.766 1075.89 460.928
517 0 58.0589 14.3475 833 104.646 1076.81 462.527
518 0 58.0591 14.2613 828 106.144 1077.66 463.995
519 0 60.1474 15.063 906 107.61 1079.35 461.304
520 0 60.0936 15.0598 905 107.871 1078.58 452.435
521 0 61.3106 14.8751 912 108.532 1079.15 448.819
522 0 62.4695 14.7272 920 108.759 1079.63 449.935
523 0 66.4099 14.8923 989 103.19 1080.44 451.502
524 0 68.319 14.3006 977 106.394 1078.76 449.001
525 0 70.3252 14.6747 1032 102.844 1078.43 450.328
526 0 72.2704 14.9439 1080 102.715 1077.56 449.992
527 0 75.3243 16.1568 1217 102.177 1076.53 447.723
528 0 77.2568 15.3773 1188 105.811 1073.04 445.33
529 0 79.4334 15.1574 1204 105.765 1070.8 444.637
530 0 81.1789 15.2503 1238 105.341 1067.26 440.799
531 0 85.2835 14.8094 1263 105.146 1063.97 438.227
532 0 88.2988 14.9832 1323 105.382 1060.86 438.02
533 1 50.0282 11.8533 593 101.019 1059.67 457.11
534 0 48.0245 11.4108 548 104.566 1058.12 451.599
535 0 51.2001 11.1133 569 104.636 1058.36 449.104
536 0 56.2814 13.9478 785 98.4268 1057.17 447.893
537 0 58.4696 12.793 748 101.362 1057.08 451.14
538 0 59.1539 13.896 822 96.6083 1057.78 449.534
539 0 61.2671 13.4167 822 97.0109 1057.48 446.824
540 0 64.2824 15.5408 999 92.6607 1059.8 446.215
541 0 68.2609 15.4847 1057 91.5582 1060.73 446.374
542 0 70.157 13.6836 960 94.6083 1062.66 442.31
543 0 71.1746 13.0805 931 95.5521 1065.04 443.397
544 0 73.1634 14.0234 1026 94.1481 1068.93 442.583
545 0 76.1755 13.8627 1056 95.035 1068.47 440.409
546 0 78.1437 14.6397 1144 93.1364 1070.77 438.125
547 1 40.0606 11.0333 442 99.8258 1073.64 458.695
548 0 45.0633 11.6059 523 96.6061 1074.56 460.015
549 0 46.0465 10.598 488 99.3893 1076.55 461.023
550 0 50.0793 11.981 600 97.0533 1078.35 459.815
551 0 52.0741 11.4644 597 98.0854 1078.72 460.191
552 0 49.0627 11.2917 554 101.047 1079.6 458.193
553 0 53.117 13.4985 717 95.6457 1080.06 459.321
554 0 55.0319 13.8828 764 95.284 1080.29 457.691
555 0 56.2521 14.9861 843 94.5979 1078.86 456.021
556 0 59.1234 14.715 870 95.3034 1081.3 454.366
557 0 58.1954 14.0905 820 97.6585 1079.75 455.757
558 0 58.1954 14.0561 818 164.621 1078.75 455.807
559 0 63.1554 14.9473 944 95.8771 1076.89 453.659
560 0 64.0557 14.9557 958 97.3163 1076.88 455.708
561 0 67.2253 14.0721 946 99.2357 1075.11 454.088
562 0 70.0606 14.8871 1043 98.814 1072.3 453.173
563 0 71.0659 14.6765 1043 99.7296 1069.39 451.908
564 0 74.19 14.7055 1091 100.222 1065.35 445.75
565 0 78.0639 17.7547 1386 93.3023 1062.76 446.547
566 0 79.1022 15.6506 1238 98.8966 1060.72 446.032
567 0 81.25 15.1631 1232 99.7955 1058.54 439.955
568 0 84.102 14.744 1240 101.358 1057.58 439.844
569 0 91.1168 15.7271 1433 96.6846 1057.63 440.612
570 1 49.0703 11.4122 560 101.92 1057.63 456.718
571 0 51.1148 11.9926 613 98.9657 1058.66 457.223
572 0 52.1072 13.4147 699 97.4034 1059.93 455.183
573 0 53.1627 13.6562 726 99.7397 1060.23 450.774
574 0 54.2308 13.1659 714 100.125 1062.79 453.447
575 0 57.129 14.8436 848 99.059 1064.12 451.779
576 0 60.2325 13.2819 800 93.4975 1065.54 446.391
577 0 62.1441 14.6434 910 91.0143 1068.32 445.362
578 0 63.2248 13.017 823 95.3183 1068.45 444.327
579 0 67.1397 14.3581 964 92.0612 1071.3 447.768
580 0 68.3248 14.8555 1015 90.8532 1071.44 444.704
581 0 72.443 13.7625 997 92.0642 1073.07 444.23
582 0 72.4363 12.7836 926 96.014 1073.99 447.299
583 0 75.2546 14.0589 1058 94.7505 1074.72 442.375
584 0 79.3965 14.4213 1145 92.7336 1077.41 442.892
585 0 82.3385 13.2502 1091 95.4482 1076.72 441.806
586 1 41.3868 9.35081 387 96.5711 1079.61 465.656
587 0 42.1692 9.60416 405 96.1136 1078.79 463.277
588 0 44.1051 10.2936 454 96.7621 1079.01 460.15
589 0 46.1695 9.70337 448 96.0513 1079.37 465.654
590 0 47.2318 10.3108 487 95.0698 1080.26 468.838
591 0 49.0337 10.9925 539 94.7607 1079.13 465.922
592 0 49.0263 11.5448 566 94.4894 1077.86 470.276
593 0 52.4044 13.3767 701 91.4451 1077.34 469.191
594 0 52.0908 11.9215 621 95.3301 1076.24 469.588
595 0 55.0715 14.1816 781 92.8579 1074.32 466.851
596 0 57.2034 14.0201 802 99.7344 1071.86 463.753
597 0 58.1004 13.5455 787 106.248 1069.17 464.234
598 0 62.0901 14.4467 897 103.992 1065.72 465.491
599 0 64.0912 14.9318 957 104.091 1063.19 462.698
600 0 64.079 14.3729 921 106.38 1061.24 460.878
601 0 67.1191 14.4519 970 106.586 1059.5 458.368
602 0 71.0684 15.5484 1105 101.813 1057.96 457.805
603 0 71.1824 13.9641 994 108.516 1057.01 454.239
604 0 74.1091 14.816 1098 106.287 1057.34 451.321
605 1 42.0647 11.1495 469 106.373 1058.41 466.578
606 0 43.1574 12.2343 528 104.61 1058.81 465.763
607 0 43.1574 12.2111 527 161.218 1059.8 465.793
608 0 45.0687 10.8279 488 108.068 1062.71 463.311
609 0 50.0435 14.1477 708 102.051 1064.79 458.106
610 0 49.1953 13.1517 647 106.927 1066.86 451.539
611 0 51.131 12.6342 646 108.608 1067.68 451.529
612 0 54.0972 13.1985 714 106.391 1069.39 451.307
613 0 55.1807 13.8092 762 106.539 1070.28 452.167
614 0 59.2206 14.7077 871 102.708 1073.55 453.393
615 0 61.1335 14.4601 884 101.799 1074.1 451.112
616 0 61.1342 14.8035 905 102.233 1076.16 451.587
617 0 62.1545 15.2041 945 102.126 1077.41 453.346
618 0 63.1769 14.6256 924 104.076 1078.26 453.989
619 0 65.4261 14.673 960 103.169 1079.33 455.648
620 0 68.2043 14.2806 974 104.057 1079.95 455.587
621 0 71.2318 15.1196 1077 100.416 1079.26 455.392
622 0 72.2972 15.2011 1099 100.494 1080.83 453.257
623 0 73.2526 14.7299 1079 102.79 1080.42 455.813
624 0 78.3908 15.7034 1231 98.5922 1079.98 459.387
625 1 42.199 9.95283 420 103.088 1079.74 478.41
626 0 42.0227 9.89941 416 106.567 1079.53 475.615
627 0 43.0708 12.0499 519 104.915 1077.44 473.482
628 0 46.1251 11.5989 535 101.946 1075.47 476.764
629 0 45.1354 12.1856 550 103.369 1072.27 474.084
630 0 50.0811 13.1786 660 100.7 1069.35 471.347
631 0 51.5971 13.179 680 99.0706 1063.7 466.326
632 0 49.6288 12.5935 625 105.333 1064.06 466.632
633 0 54.7296 13.7037 750 100.825 1060.71 465.843
634 0 52.5855 12.8743 677 106.069 1058.21 461.495
635 0 56.4836 14.7653 834 100.235 1057 461.601
636 0 57.5439 13.5723 781 103.177 1057.62 456.616
637 0 61.4952 15.5297 955 96.9937 1056.57 456.739
638 0 62.6199 14.1169 884 101.182 1055.4 453.378
639 0 65.6281 14.7345 967 99.3681 1056.6 450.77
640 0 66.6711 15.224 1015 99.2857 1057.86 449.147
641 0 67.5529 13.7966 932 102.844 1060.01 446.511
642 0 71.4654 13.559 969 102.739 1061.75 444.382
643 0 71.5626 15.2175 1089 100.372 1062.76 442.304
644 0 75.5013 15.6951 1185 98.6591 1063.76 439.949
645 0 80.4697 17.1369 1379 94.8216 1067.41 439.137
646 0 80.4929 14.4858 1166 101.096 1068.56 439.741
647 1 44.1137 9.70221 428 103.736 1072.85 459.028
648 0 45.0761 10.205 460 107.024 1072.52 452.559
649 0 48.1842 9.56746 461 103.191 1074.18 462.464
650 0 48.0813 12.4165 597 98.7906 1076.28 461.784
651 0 49.0802 12.4898 613 100.976 1077.09 460.801
652 0 52.0923 12.8234 668 100.28 1078.15 465.591
653 0 51.0575 12.4761 637 102.33 1079 461.832
654 0 54.0873 14.0329 759 97.7971 1079.47 463.223
655 0 54.0678 14.1674 766 98.9634 1080.82 460.695
656 0 55.0939 14.5025 799 98.3592 1080.72 456.77
657 0 57.1001 13.1348 750 100.177 1080.41 461.899
658 0 60.1254 14.9687 900 95.5211 1080.19 461.756
659 0 61.1682 15.0405 920 94.5848 1079.43 464.963
660 0 60.0902 14.6779 882 96.7517 1078.51 462.885
661 0 62.0793 14.0949 875 98.1074 1076.15 463.486
662 0 64.1456 13.6876 878 98.574 1074.35 463.927
663 0 65.122 13.6206 887 99.2345 1072.02 461.343
664 0 69.1308 15.7817 1091 93.6544 1068.91 454.176
665 0 71.2752 14.0301 1000 95.442 1065.67 456.731
666 0 72.0725 13.75 991 99.1029 1063.31 452.423
667 0 75.2089 15.7162 1182 93.7081 1061.37 452.821
668 0 79.4025 15.6292 1241 93.1684 1058.87 452.479
669 1 43.187 11.4386 494 98.4858 1056.68 467.437
670 0 43.2745 10.3294 447 97.8277 1055.88 462.754
671 0 45.2171 11.7212 530 97.5623 1056.04 460.849
672 0 44.2531 12.2929 544 97.5772 1055.9 457.618
673 0 46.2801 11.3008 523 99.2428 1057.04 458.763
674 0 48.1628 11.6272 560 100.489 1058.53 452.72
675 0 51.1758 12.6818 649 96.8536 1060.74 455.077
676 0 51.2423 13.3874 686 94.2172 1063.23 449.483
677 0 55.2408 13.9752 772 92.443 1066.47 451.859
678 0 58.2728 15.3931 897 88.388 1068.53 451.854
679 0 60.2462 13.9262 839 91.261 1069.68 452.337
680 0 63.1361 13.4313 848 91.8479 1070.56 451.255
681 0 64.2053 14.7496 947 89.2281 1072.38 451.405
682 0 66.2679 13.1738 873 92.3242 1074.7 450.95
683 0 69.2386 13.894 962 89.579 1076.48 452.233
684 0 74.3323 15.4845 1151 87.205 1077.59 451.189
685 0 75.1801 16.6134 1249 85.6165 1078.16 449.71
686 0 77.286 13.8576 1071 90.4043 1078.69 452.406
687 0 80.3971 14.2542 1146 89.1789 1079.45 450.894
688 0 82.4141 14.3058 1179 89.9635 1079.14 447.556
689 0 81.2313 12.2367 994 93.4708 1079.57 451.037
690 1 46.0731 11.4601 528 92.786 1081.3 466.773
691 0 45.0395 11.0126 496 92.5625 1081.79 467.863
692 0 46.0617 13.0911 603 91.7629 1080.85 465.446
693 0 50.014 12.3965 620 90.771 1080.33 466.306
694 0 52.0557 14.0619 732 87.0137 1079.19 468.343
695 0 52.2235 12.6571 661 90.295 1076.57 465.227
696 0 55.0716 13.9818 770 90.1065 1076.21 467.273
697 0 56.1706 14.5094 815 88.2025 1073.43 463.249
698 0 59.1333 13.6133 805 88.9118 1070.49 465.291
699 0 62.1149 15.3908 956 84.251 1068.11 464.525
700 0 64.1345 14.0486 901 87.6016 1065.78 460.031
701 0 67.1332 14.8362 996 85.2962 1063.4 459.9
702 0 67.2737 14.2255 957 88.6552 1061.41 454.108
703 0 69.3575 14.3315 994 88.4185 1060.56 455.195
704 0 72.386 15.6936 1136 86.6127 1059.2 449.71
705 0 72.386 15.7904 1143 140.493 1058.18 449.711
706 0 76.5393 14.0581 1076 89.3838 1059.19 445.35
707 0 80.6493 13.5773 1095 89.179 1061.43 445.111
708 0 83.4396 15.2685 1274 87.8046 1061.95 436.78
709 0 83.4396 15.2925 1276 145.946 1062.95 436.799
710 0 89.4223 14.672 1312 88.4817 1066.77 428.858
711 1 46.1874 10.1326 468 86.3782 1067.62 451.12
712 0 46.272 10.3518 479 87.4447 1069.19 450.253
713 0 49.1684 12.0606 593 85.882 1070.34 445.287
714 0 51.1078 12.3269 630 84.1032 1072.4 449.684
715 0 55.3325 13.7894 763 79.7025 1073.39 450.385
716 0 57.2003 14.8426 849 82.1755 1076.45 452.953
717 0 59.1691 13.6727 809 84.4524 1079.52 456.179
718 0 60.1898 14.3214 862 83.3585 1079.54 455.881
719 0 61.3069 14.8923 913 82.3341 1080.07 457.464
720 0 63.3885 15.4918 982 81.9511 1081.49 457.292
721 0 65.2789 13.5113 882 85.9263 1081.24 456.158
722 0 65.2683 13.5441 884 86.8213 1081.4 456.154
723 0 68.3199 14.3004 977 84.7851 1081.68 455.841
724 0 71.5575 15.4002 1102 82.7232 1080.92 456.1
725 0 72.2963 14.0809 1018 85.3635 1081.39 455.977
726 0 76.3411 14.3435 1095 84.7068 1081.38 457.746
727 0 79.1824 15.5716 1233 82.3114 1080.58 454.947
728 0 79.4584 13.6927 1088 86.9182 1078.59 451.142
729 0 84.4218 15.6002 1317 83.5831 1076.69 452.563
730 0 86.3739 15.1435 1308 85.1476 1075.49 451.972
731 1 45.0934 10.9994 496 92.1089 1073.61 469.998
732 0 49.241 12.713 626 88.5639 1070.45 468.703
733 0 49.2981 11.7449 579 92.8964 1067.99 464.77
734 0 49.1542 14.5664 716 88.1746 1065.29 463.568
735 0 52.0874 14.4373 752 88.4721 1063.44 462.624
736 0 55.4238 14.9033 826 87.7627 1061.24 458.064
737 0 55.2259 12.5303 692 90.4205 1060.52 462.465
738 0 59.4462 15.493 921 85.2942 1059.23 455.53
739 0 60.6043 14.7514 894 86.8725 1059.29 453.29
740 0 61.3882 14.0744 864 89.1285 1059.81 451.362
741 0 66.4946 16.8585 1121 83.8876 1060.64 450.496
742 0 66.5342 14.3836 957 88.9488 1062.65 446.448
743 0 67.5413 13.4288 907 91.2591 1064.45 445.417
744 0 72.7094 15.1287 1100 87.0436 1065.69 443.591
745 0 72.8979 13.4846 983 92.0092 1067.54 440.412
746 0 74.5604 14.2167 1060 90.9387 1070.02 440.204
747 1 41.1331 10.2837 423 90.1655 1071.09 458.747
748 0 39.3575 9.32478 367 94.1526 1072.35 452.183
749 0 40.3721 10.5518 426 93.6831 1074.23 453.758
750 0 42.2956 12.389 524 89.9027 1075.81 454.91
751 0 46.4428 13.2206 614 86.4739 1077.85 452.655
752 0 48.1814 13.5944 655 85.7695 1078.81 454.241
753 0 47.4469 11.9713 568 89.0933 1077.05 450.044
754 0 51.4265 12.4255 639 86.1706 1080.39 457.782
755 0 53.3681 14.8216 791 82.22 1081.02 457.537
756 0 53.3991 13.3336 712 86.3034 1081.7 458.171
757 0 55.4643 13.378 742 85.1469 1081.01 457.433
758 0 56.4257 14.5678 822 84.0134 1079.99 455.415
759 0 57.4417 14.3102 822 85.1788 1079.79 458.129
760 0 58.5592 13.4906 790 86.7709 1080.55 460.233
761 0 62.4513 14.0429 877 84.6568 1078.39 456.569
762 0 62.3555 14.0485 876 89.7603 1078.45 460.425
763 0 65.3634 14.733 963 87.0561 1076.94 458.347
764 0 66.581 14.0881 938 89.1546 1074.29 461.757
765 0 69.5399 13.2298 920 93.9696 1071.91 458.663
766 0 72.4135 16.1572 1170 88.3667 1069.87 458.794
767 0 72.6001 13.6088 988 94.9889 1066.63 456.118
768 0 75.5112 14.5409 1098 92.4271 1064.1 453.604
769 0 77.525 15.2725 1184 92.5735 1062.16 452.97
770 0 79.3529 14.7064 1167 95.5613 1059.01 443.83
771 0 82.3535 12.8228 1056 95.3722 1059.4 450.861
772 0 86.515 15.3731 1330 92.8564 1059.19 442.924
773 1 47.3408 10.2449 485 95.8433 1060.87 460.66
774 0 50.2066 12.0502 605 92.7901 1061.1 460.99
775 0 50.2333 13.1984 663 92.7828 1062.39 456.704
776 0 52.2508 12.1529 635 92.3449 1063.79 458.811
777 0 52.1909 12.8183 669 89.8236 1064.91 457.015
778 0 56.3484 14.1619 798 86.4449 1065.92 455.073
779 0 57.3563 13.6166 781 88.2586 1069.21 452.665
780 0 62.5901 14.4272 903 85.1938 1070.63 450.777
781 0 63.3951 14.5279 921 86.5722 1072.27 449.326
782 0 65.484 14.263 934 86.9411 1073.04 448.385
783 0 68.2824 14.44 986 86.9331 1076.02 449.199
784 0 70.2794 14.3854 1011 87.1741 1076.97 451.193
785 0 74.1962 16.052 1191 84.6541 1077.57 449.923
786 0 75.3346 16.2475 1224 85.4861 1078.86 446.362
787 0 76.164 14.9546 1139 89.0255 1079.12 447.856
788 0 80.2433 15.1165 1213 87.4262 1080.2 451.45
789 0 81.2706 14.7163 1196 88.6263 1080.71 449.989
790 1 44.0312 12.1959 537 88.6089 1082.03 472.849
791 0 44.1263 11.9203 526 90.7529 1082.77 471.234
792 0 47.1158 12.8831 607 88.5321 1081.3 471.684
793 0 48.0865 13.143 632 88 1082.33 473.142
794 0 48.1419 13.5433 652 88.2715 1081.22 468.808
795 0 50.1862 13.5296 679 88.0913 1079.4 469.608
796 0 50.185 14.6458 735 88.3129 1078.47 467.644
797 0 50.3406 12.7531 642 93.4299 1076.34 469.6
798 0 53.2434 13.2974 708 92.1398 1075.57 467.086
799 0 54.2334 13.11 711 93.5738 1073.16 466.145
800 0 56.3975 13.7772 777 91.2445 1069.27 465.937
801 0 61.4043 13.403 823 89.9757 1066.03 466.19
802 0 60.2535 14.1071 850 91 1064.98 463.241
803 0 63.2551 13.5957 860 91.0919 1062.29 460.842
804 0 65.4318 13.6631 894 91.406 1060.92 456.88
805 0 67.2579 13.3665 899 91.3237 1059.9 455.422
806 0 70.3545 13.9579 982 90.8849 1058.67 451.427
807 0 73.2963 13.384 981 91.9623 1058.76 452.092
808 0 76.2142 13.7376 1047 92.1815 1059.56 447.947
809 1 40.0604 10.6339 426 95.5704 1062.37 464.812
810 0 42.0394 11.1086 467 96.8394 1063.2 461.732
811 0 45.0506 11.6758 526 95.6939 1065.03 462.2
812 0 48.0867 12.623 607 95.6507 1067.01 459.016
813 0 46.3094 13.3882 620 94.9177 1068.24 457.503
814 0 51.4241 14.818 762 91.395 1069.88 457.505
815 0 53.4614 14.7396 788 92.1827 1070.45 457.133
816 0 54.2349 14.4741 785 91.8854 1072.55 453.67
817 0 56.2827 15.0668 848 91.7642 1073.77 457.985
818 0 56.3258 15.3926 867 91.1615 1075.74 457.676
819 0 56.3258 15.4636 871 139.549 1077.74 457.637
820 0 60.3845 14.5567 879 91.9329 1078.09 453.939
821 0 62.2616 13.5718 845 94.6686 1078.76 457.814
822 0 64.2067 14.9829 962 90.6767 1078.92 455.391
823 0 67.3532 14.6244 985 90.9939 1080.06 458.777
824 0 69.2277 14.3584 994 89.7847 1079.91 461.053
825 0 71.2787 15.3482 1094 90.1572 1080.64 458.656
826 0 73.2968 14.489 1062 91.9407 1080.43 459.708
827 0 75.2305 14.4888 1090 92.7606 1079.76 455.892
828 1 37.0214 11.3718 421 97.4276 1079.23 477.228
829 0 39.0238 11.2496 439 98.2392 1078.61 478.005
830 0 42.1058 11.3761 479 97.833 1076.66 476.559
831 0 42.0946 13.0421 549 96.7668 1073.93 473.705
832 0 47.0566 13.5369 637 93.7708 1072.04 476.088
833 0 46.0916 13.8637 639 96.3255 1070.02 471.538
834 0 45.0564 13.1169 591 92.1218 1066.08 467.966
835 0 49.135 14.104 693 91.4892 1061.99 463.102
836 0 49.1567 14.6064 718 96.1323 1059.66 463.962
837 0 49.1567 14.5046 713 151.175 1057.64 463.959
838 0 54.0542 14.8925 805 96.9776 1055.82 460.045
839 0 56.0809 15.1923 852 96.4507 1055.35 458.604
840 0 56.1299 13.8785 779 98.9628 1055.07 455.458
841 0 58.0412 14.886 864 97.1308 1055.42 452.255
842 0 62.0709 14.7895 918 95.9314 1056.43 450.007
843 0 64.0661 14.3758 921 95.4419 1059.69 446.056
844 0 66.0947 15.2055 1005 93.2269 1060.91 447.593
845 0 68.2487 15.1505 1034 94.1634 1063.3 447.72
846 0 71.1796 14.6531 1043 95.5858 1064.64 445.783
847 0 74.1436 16.6838 1237 91.1407 1066.54 443.861
848 0 75.1057 16.3237 1226 93.022 1068.24 445.909
849 0 77.0687 15.7911 1217 93.6993 1069.19 445.416
850 0 79.1073 14.7774 1169 96.2549 1072.41 443.518
851 0 81.1108 15.2138 1234 95.8874 1073.66 444.107
852 0 84.21 15.5326 1308 95.4924 1074.67 442.313
853 0 88.214 16.2559 1434 93.4205 1075.4 440.477
854 1 53.0734 13.943 740 94.1919 1076.89 460.951
855 0 52.2001 12.5287 654 93.1346 1076.9 466.483
856 0 54.045 13.0077 703 96.1821 1078.21 463.067
857 0 57.1093 13.8856 793 91.6936 1078.26 463.583
858 0 57.02 12.9779 740 93.7473 1078.62 464.762
859 0 58.0606 13.8993 807 91.5465 1078.19 464.446
860 0 61.0349 14.7621 901 91.7791 1077.19 458.779
861 0 62.1524 16.009 995 85.791 1078.57 463.614
862 0 63.1075 13.2631 837 88.6691 1076.86 462.945
863 0 63.2064 14.2074 898 87.3274 1075.97 462.151
864 0 66.0617 15.864 1048 83.1899 1074.45 460.943
865 0 69.0879 13.9822 966 85.0083 1072.05 458.693
866 0 69.0366 14.1519 977 84.6633 1069.02 458.763
867 0 72.157 14.8426 1071 81.7488 1067.35 456.964
868 0 75.1424 15.7035 1180 79.4398 1065.3 454.171
869 0 76.1013 13.7448 1046 79.8853 1063.6 449.654
870 0 78.0977 13.7264 1072 79.1558 1060.88 448.273
871 0 81.1265 14.7054 1193 77.5474 1058.52 444.991
872 0 83.212 13.5317 1126 78.095 1058.93 438.77
873 0 86.156 13.6032 1172 76.4181 1058.02 440.837
874 0 90.2533 13.3735 1207 76.5029 1057.92 439.665
875 0 93.2523 13.4474 1254 76.5542 1058.59 436.945
876 0 97.4407 14.3677 1400 75.0857 1060.31 432.625
877 0 99.3913 14.8202 1473 74.8826 1061.86 423.134
878 0 102.321 13.702 1402 76.0942 1063.39 419.417
879 1 50.2122 13.423 674 73.184 1064.96 446.282
880 0 51.5156 13.7434 708 71.7006 1067.8 448.85
881 0 53.1624 11.1357 592 74.9932 1069.88 448.676
882 0 55.2787 14.2731 789 71.3536 1071.87 448.641
883 0 55.3662 13.5642 751 71.964 1072.55 448.253
884 0 57.2989 14.7821 847 69.4463 1074.35 448
885 0 60.2387 16.2686 980 66.9592 1075.36 447.86
886 0 62.0672 16.6433 1033 65.2798 1075.81 449.201
887 0 64.1235 14.7372 945 66.2593 1077.44 448.544
888 0 68.2903 13.8087 943 66.5801 1078.45 450.636
889 0 69.3176 15.5083 1075 64.3302 1079.1 450.64
890 0 68.169 12.9678 884 65.8914 1080.29 450.545
891 0 70.2142 14.0997 990 65.3303 1080.65 449.833
892 0 72.1693 15.1172 1091 62.4977 1080.69 446.441
893 0 74.1028 12.3342 914 64.8611 1079.39 445.502
894 0 75.1952 12.1683 915 63.5497 1079.52 447.811
