time division length width area intensity CMx CMy
0 0 34.014 10.8191 368 131.073 1093.13 498.584
1 0 31.0741 9.65434 300 135.473 1093.49 498.23
2 0 35.0587 10.4967 368 131.698 1093.17 497.954
3 0 36.0162 10.9117 393 129.906 1093.24 497.331
4 0 37.089 11.7016 434 129.122 1093.41 496.161
5 0 36.0757 11.4204 412 130.748 1094.29 495.866
6 0 39.0619 11.597 453 128.201 1093.81 496.079
7 0 37.0782 11.6241 431 130.506 1093.48 496.555
8 0 39.0255 11.7872 460 129.863 1093.86 495.787
9 0 40.0468 10.5377 422 133.263 1093.58 496.934
10 0 42.0728 11.6227 489 129.828 1093.35 494.624
11 0 43.0236 11.4356 492 130.085 1093.78 495.181
12 0 46.1424 11.963 552 123.746 1094.14 495.429
13 0 46.1711 11.1542 515 126.695 1093.36 495.511
14 0 49.1208 11.9705 588 123.4 1093.81 494.495
15 0 49.0619 11.6587 572 123.504 1093.47 494.942
16 0 51.1576 12.0217 615 121.98 1092.9 493.701
17 0 51.1101 9.86106 504 127.532 1093.12 494.107
18 0 54.1665 13.2185 716 118.973 1093.1 492.257
19 0 54.0888 11.2593 609 122.739 1092.57 492.882
20 0 56.1452 11.8443 665 122.25 1093.05 490.988
21 1 29.0307 12.0906 351 122.92 1093.72 504.128
22 0 29.0812 10.8317 315 124.276 1093.54 506.362
23 0 31.0326 10.8596 337 125.217 1093.55 504.899
24 0 31.2016 11.1212 347 122.64 1092.38 505.867
25 0 34.1434 12.3889 423 119.593 1092.67 505.208
26 0 29.0629 11.2859 328 121.546 1091.67 506.841
27 0 31.0762 11.5201 358 120.947 1091.7 506.156
28 0 32.0405 11.4542 367 121.016 1091.23 505.777
29 0 34.0864 13.1431 448 115.725 1091.71 505.52
30 0 34.0376 12.6918 432 118.139 1091.03 503.933
31 0 35.0252 11.5916 406 122.399 1090.72 504.409
32 0 38.0235 12.6238 480 117.477 1090.93 503.956
33 0 41.0761 12.2942 505 116.986 1090.87 503.681
34 0 40.0268 12.7914 512 117.42 1090.96 502.332
35 0 41.1889 13.0618 538 117.788 1091.22 501.963
36 0 44.0181 11.359 500 120.86 1090.82 502.198
37 0 45.0346 13.3009 599 116.603 1090.82 499.932
38 0 46.1472 13.7603 635 115.737 1090.34 498.94
39 0 46.0911 12.3451 569 120.791 1089.88 500.483
40 0 49.0358 12.603 618 119.786 1090.5 499.917
41 0 53.0621 13.8517 735 115.405 1090.11 498.808
42 0 52.073 12.7705 665 118.914 1089.79 498.683
43 0 55.0586 13.8398 762 115.577 1089.98 497.046
44 0 54.0462 12.3598 668 120.912 1090.23 496.72
45 0 56.0318 12.8677 721 119.502 1090.39 495.114
46 0 59.1128 12.6707 749 118.662 1090.23 495.539
47 0 58.0343 11.7344 681 122.988 1090.88 494.696
48 0 63.1508 13.8241 873 115.993 1091.26 493.67
49 0 64.1525 14.2785 916 116.207 1090.99 492.936
50 0 67.1127 13.4699 904 117.011 1091.18 493.344
51 0 69.0839 13.1 905 117.455 1090.52 491.077
52 0 70.1891 12.6088 885 118.183 1090.44 489.867
53 0 73.0932 13.3118 973 116.524 1090.91 488.754
54 0 75.1561 14.0641 1057 113.797 1090.39 490.88
55 0 78.1943 13.2107 1033 116.539 1090.43 488.982
56 0 80.1464 12.3524 990 118.212 1089.63 486.509
57 0 84.1642 13.545 1140 115.512 1089.45 485.723
58 0 89.1412 13.4057 1195 116.813 1089.59 483.134
59 0 92.227 14.2258 1312 118.127 1089.81 480.355
60 1 47.1141 13.2657 625 115.397 1090.49 503.202
61 0 48.0792 13.6649 657 114.379 1089.88 502.245
62 0 50.2014 13.1072 658 114.365 1089.05 503.281
63 0 49.0562 13.2093 648 114.833 1088.55 503.259
64 0 51.052 13.6919 699 113.99 1088.92 502.78
65 0 49.1168 12.4805 613 119.542 1088.82 501.52
66 0 55.0803 13.2715 731 114.397 1088.45 500.196
67 0 55.0686 13.2743 731 140.525 1088.47 500.26
68 0 59.1734 13.8914 822 110.849 1088.27 497.657
69 0 60.0833 13.3814 804 110.716 1088.31 495.621
70 0 62.1254 13.1025 814 111.176 1087.8 496.56
71 0 63.0716 13.1121 827 111.053 1088.06 495.732
72 0 66.156 13.0449 863 111.269 1088.57 493.374
73 0 67.2347 13.1331 883 112.096 1088.49 492.701
74 0 72.0602 14.2381 1026 108.726 1088.81 489.973
75 0 76.1754 14.8867 1134 106.832 1088.17 490.871
76 0 79.2147 14.5049 1149 107.614 1088.37 487.74
77 0 81.1654 14.107 1145 109.863 1088.75 487.601
78 0 84.1414 14.6301 1231 108.795 1089.11 484.89
79 0 88.2327 14.7111 1298 112.418 1089.32 482.242
80 0 90.1802 14.3823 1297 110.985 1089.42 482.986
81 0 93.1121 14.692 1368 110.666 1089.31 480.376
82 0 96.137 14.2921 1374 110.723 1089.15 480.06
83 1 49.0619 12.8817 632 107.093 1090.79 500.343
84 0 52.0135 13.4004 697 104.785 1090.71 502.092
85 0 54.0756 13.3887 724 103.939 1090.8 499.501
86 0 54.175 12.6996 688 107.692 1090.37 500.355
87 0 57.2433 15.1633 868 102.174 1090.49 498.188
88 0 60.0472 13.1896 792 106.234 1090.18 498.205
89 0 60.1284 12.5731 756 107.902 1089.52 496.978
90 0 63.1256 12.9108 815 106.816 1089.53 494.771
91 0 67.1609 13.9218 935 104.426 1089.59 494.571
92 0 70.1837 14.3623 1008 103.893 1089.04 492.288
93 0 71.1938 12.6696 902 107.071 1089.37 492.656
94 0 74.1152 13.4116 994 106.605 1088.89 489.569
95 0 76.1357 12.4646 949 106.916 1088.77 489.336
96 0 80.2854 13.726 1102 103.797 1088.45 490.592
97 0 82.137 12.5644 1032 107.587 1088.51 488.418
98 0 86.1071 12.8677 1108 108.69 1088.29 483.704
99 0 91.2306 14.0194 1279 105.852 1088.53 483.601
100 0 92.184 13.69 1262 107.302 1088.25 482.778
101 0 96.121 13.7327 1320 107.278 1087.37 479.764
102 1 49.0194 13.1376 644 102.283 1089.24 503.489
103 0 48.0745 12.7302 612 104.997 1088.97 500.779
104 0 53.0466 13.7238 728 107.786 1089.49 500.224
105 0 54.1037 13.5296 732 108.108 1089.2 501.309
106 0 56.0861 14.3351 804 105.251 1088.97 501.485
107 0 56.0214 12.8522 720 109.406 1088.83 499.739
108 0 59.0616 11.8182 698 111.705 1088.99 497.999
109 0 62.0299 13.5096 838 107.856 1088.81 497.372
110 0 63.1279 14.5577 919 106.815 1088.5 495.409
111 0 65.0441 12.2532 797 110.624 1088.97 496.759
112 0 67.0789 14.9973 1006 106.231 1088.47 494.234
113 0 69.0373 13.5289 934 110.142 1088.72 492.395
114 0 72.1116 13.5207 975 109.276 1088.78 492.976
115 0 74.1604 13.4573 998 111.034 1088.8 490.272
116 0 77.243 14.9528 1155 107.159 1087.8 490.159
117 0 77.1569 13.1939 1018 104.585 1088.2 489.941
118 0 81.2711 11.9969 975 106.257 1088.53 488.536
119 0 84.255 14.2543 1201 102.16 1088.25 484.589
120 0 86.2018 13.4916 1163 105.684 1087.98 483.641
121 0 88.192 12.5748 1109 107.162 1088.27 485.002
122 0 93.2951 14.4809 1351 104.905 1088.32 482.098
123 0 95.2228 13.8307 1317 109.707 1088.32 482.058
124 0 97.1574 13.895 1350 112.092 1089.19 477.604
125 0 103.108 13.6265 1405 110.471 1089.17 476.675
126 1 56.0952 12.764 716 109.482 1087.79 497.789
127 0 57.2525 12.4711 714 101.999 1088 493.228
128 0 59.0937 12.7933 756 104.177 1087.22 499.873
129 0 62.0442 12.7167 789 105.951 1088.67 496.725
130 0 64.1173 12.6487 811 107.15 1087.75 496.377
131 0 65.1016 12.565 818 108.268 1087.72 492.884
132 0 67.1303 12.4981 839 108.406 1087.38 492.839
133 0 68.0518 12.0203 818 109.935 1087.17 491.509
134 0 73.1582 13.8057 1010 106.113 1087.12 491.302
135 0 76.1143 12.8885 981 107.536 1087.6 490.685
136 0 77.0972 11.8292 912 108.985 1087.43 490.877
137 0 79.0867 11.9616 946 110.403 1087.95 486.421
138 0 82.0541 12.2602 1006 109.788 1088.68 485.462
139 0 87.1321 13.3131 1160 106.153 1088.59 484.26
140 0 88.1366 11.6297 1025 109.024 1088.77 485.227
141 0 91.1542 12.0126 1095 110.11 1088.17 482.318
142 1 48.0657 12.2541 589 107.29 1088.91 502.168
143 0 49.1934 13.2132 650 104.503 1087.67 501.415
144 0 49.0922 12.4663 612 106.562 1088.66 501.35
145 0 53.0864 12.2254 649 106.604 1088.75 500.901
146 0 53.0876 12.7337 676 135.638 1089.8 500.287
147 0 56.1121 12.0651 677 105.805 1088.36 500.671
148 0 57.1879 12.3103 704 106.391 1088.57 498.153
149 0 60.1336 12.9046 776 104.554 1088.95 496.272
150 0 60.0986 11.5144 692 108.134 1088.62 494.788
151 0 61.1802 12.7492 780 104.803 1088.6 494.264
152 0 65.1955 13.5285 882 102.366 1088.12 491.895
153 0 68.3739 14.3183 979 100.422 1088.12 491.33
154 0 69.2314 13.2021 914 103.358 1088.25 491.752
155 0 73.3132 12.5898 923 103.411 1087.54 490.804
156 0 74.2487 13.8992 1032 101.659 1087.35 489.346
157 0 77.2874 12.887 996 104.808 1087.19 485.962
158 0 81.2294 13.1356 1067 104.447 1086.89 486.581
159 1 41.3716 12.569 520 102.254 1086.87 503.617
160 0 41.4239 12.191 505 97.7347 1088.4 501.463
161 0 44.0488 12.9402 570 97.1018 1085.9 503.912
162 0 45.0654 12.1601 548 97.9434 1086.37 502.843
163 0 47.0644 12.4935 588 98.1769 1086.92 501.923
164 0 45.0446 12.0769 544 100.461 1086.35 501.938
165 0 52.1322 13.1397 685 96.5226 1086.35 500.409
166 0 52.0553 13.6778 712 96.8062 1086.38 499.309
167 0 55.0951 13.1046 722 97.5623 1086.24 498.475
168 0 55.1025 12.6855 699 99.9828 1086.3 499.33
169 0 57.1889 12.9221 739 98.521 1086.19 497.066
170 0 59.1006 12.5379 741 99.3279 1086.02 495.148
171 0 61.0951 12.1286 741 100.749 1086.27 496.638
172 0 61.0986 12.6517 773 100.732 1086.07 496.144
173 0 65.2018 12.8984 841 100.839 1086.11 493.642
174 0 67.2751 13.6306 917 100.601 1086.07 492.943
175 0 69.2123 12.5122 866 104.197 1085.36 491.337
176 0 71.1663 13.63 970 102.886 1085.85 489.72
177 0 76.4314 14.3789 1099 101.094 1086.22 489.854
178 0 77.3479 14.5317 1124 102.312 1086.6 484.237
179 0 77.1797 11.6611 900 104.937 1085.91 485.137
180 0 81.3619 12.2785 999 103.693 1085.18 483.21
181 0 87.247 11.7024 1021 104.339 1085.69 480.593
182 1 45.1126 10.241 462 100.182 1085.94 500.952
183 0 46.0366 9.449 435 100.32 1085.46 500.917
184 0 49.1434 10.683 525 99.3676 1087.62 498.65
185 0 51.0444 12.9103 659 103.473 1087.89 501.819
186 0 52.0709 13.0783 681 104.837 1087.32 499.771
187 0 54.117 13.0828 708 105.439 1087.82 498.106
188 0 57.1219 14.0752 804 102.897 1087.77 497.761
189 0 56.0582 13.1292 736 106.053 1087.87 497.504
190 0 58.0516 13.2124 767 106.857 1086.98 495.176
191 0 60.0982 13.1452 790 106.813 1087.57 496.478
192 0 60.0945 12.2307 735 109.95 1087.43 494.649
193 0 65.2287 14.5181 947 104.299 1087.29 493.188
194 0 65.1006 13.2103 860 108.217 1088.07 492.737
195 0 67.1951 13.3789 899 108.994 1087.6 489.887
196 0 69.167 14.718 1018 107.704 1087.84 487.868
197 0 71.0675 13.0721 929 107.245 1086.09 492.132
198 0 74.083 14.8752 1102 103.866 1086.75 491.966
199 0 77.1479 14.699 1134 106.233 1086.57 488.116
200 0 80.1155 14.8036 1186 105.328 1087.99 488.091
201 0 81.0987 15.1544 1229 106.909 1087.69 484.605
202 0 85.1699 16.0855 1370 104.921 1087.69 486.261
203 0 87.0964 14.4208 1256 109.459 1088.03 484.63
204 0 91.0837 14.2726 1300 109.891 1087.85 484.657
205 0 90.1773 14.538 1311 111.413 1087.47 482.187
206 0 93.1442 13.8173 1287 113.448 1087.23 481.76
207 0 93.1442 13.7743 1283 157.968 1087.21 481.63
208 0 101.181 15.2993 1548 110.262 1086.97 478.994
209 0 106.237 16.0208 1702 107.412 1086.96 474.371
210 0 109.206 15.7134 1716 107.328 1086.49 474.809
211 0 113.138 14.8933 1685 108.53 1087 473.468
212 0 116.16 13.7999 1603 111.24 1087.07 471.034
213 1 58.0885 12.2399 711 110.956 1087.74 498.924
214 0 59.1493 11.6823 691 109.773 1088.21 497.217
215 0 62.1579 12.7257 791 108.928 1087.62 495.923
216 0 64.1461 13.594 872 108.862 1087.47 492.894
217 0 68.1042 14.1401 963 106.191 1087.37 492.807
218 0 73.2029 16.024 1173 100.396 1087.65 490.557
219 0 73.1034 14.883 1088 106.092 1087.51 489.364
220 0 76.3171 14.5708 1112 111.333 1087.42 488.769
221 0 80.3038 14.4452 1160 110.992 1087.64 488.205
222 0 82.2562 15.5368 1278 110.729 1087.41 484.167
223 0 84.2637 14.3953 1213 113.257 1087.42 482.945
224 0 87.3126 13.9155 1215 113.858 1087.05 481.198
225 0 91.4698 13.5127 1236 112.998 1087.46 480.696
226 0 96.5041 14.7144 1420 108.76 1087.56 479.172
227 0 99.1915 12.9749 1287 104.853 1086.68 475.991
228 0 100.312 12.7004 1274 106.896 1086.72 476.237
229 0 103.223 13.7179 1416 106.458 1086.7 471.907
230 0 107.236 13.3164 1428 105.289 1086.7 472.207
231 0 112.278 12.1306 1362 107.105 1087.21 471.772
232 0 115.2 12.3785 1426 107.649 1086.85 468.281
233 0 119.343 12.2421 1461 107.598 1086.65 465.839
234 0 126.413 13.179 1666 105.063 1086.59 460.601
235 0 134.39 10.782 1449 109.987 1086.45 457.994
236 0 134.352 12.7129 1708 108.284 1086.19 451.971
237 0 139.469 13.1858 1839 107.452 1086.34 453.159
238 0 144.312 12.3344 1780 109.961 1086.37 450.163
239 0 151.276 13.5514 2050 108.364 1086.4 447.769
240 0 157.618 12.8539 2026 109.554 1087.17 449.202
241 1 80.2496 13.0966 1051 103.752 1086.3 483.126
242 0 85.3602 12.9217 1103 105.44 1085.87 484.509
243 0 86.1558 12.7908 1102 106.084 1085.69 484.613
244 0 90.5596 12.8092 1160 105.925 1086.05 481.341
245 0 91.3069 13.493 1232 105.054 1085.48 480.391
246 0 94.2798 13.1311 1238 107.674 1085.6 477.089
247 0 99.4715 13.1294 1306 107.005 1086.15 475.89
248 0 100.398 13.6159 1367 106.416 1085.52 476.906
249 0 105.321 13.701 1443 106.204 1085.81 473.426
250 0 106.197 12.8252 1362 100.643 1086.8 471.729
251 0 110.267 12.6693 1397 101.788 1087.16 470.138
252 0 114.247 12.4817 1426 102.161 1087.37 468.561
253 0 114.233 12.2206 1396 103.905 1086.64 467.113
254 0 120.349 12.123 1459 104.145 1086.54 466.077
255 0 125.241 13.8772 1738 102.038 1087.21 463.077
256 0 129.547 13.1149 1699 103.052 1087.37 459.88
257 1 69.1314 10.4005 719 98.4854 1087.33 492.829
258 0 72.2656 12.0666 872 96.0321 1088.04 489.771
259 0 74.2259 11.465 851 96.1727 1087.56 488.84
260 0 79.2348 12.5071 991 92.1009 1087.81 488.834
261 0 78.3079 13.2809 1040 94.8808 1087.9 488.151
262 0 79.3152 11.0824 879 97.0091 1087.49 485.348
263 0 80.1468 11.5039 922 97.0835 1087.67 486.528
264 0 85.1773 11.8576 1010 97.9574 1087.66 481.718
265 0 88.1718 11.3301 999 98.4905 1087.48 482.488
266 0 91.4004 11.7724 1076 98.7286 1087.14 480.008
267 0 94.2627 12.0302 1134 100.839 1087.79 479.393
268 0 97.3063 11.5923 1128 102.215 1087.56 479.896
269 0 99.1291 11.4598 1136 102.303 1087.73 477.591
270 0 104.16 12.3848 1290 99.1798 1087.85 474.846
271 0 106.262 11.2176 1192 101.555 1087.73 473.808
272 0 110.274 11.4533 1263 100.62 1086.85 473.627
273 1 58.1549 9.54348 555 98.0739 1087.39 497.923
274 0 62.4604 11.1431 696 96.7701 1087.92 494.78
275 0 65.2858 10.9059 712 98.9115 1088.07 491.53
276 0 65.2246 10.7015 698 99.1175 1087.85 493.105
277 0 68.0628 12.7529 868 99.6521 1089.47 492.341
278 0 72.0658 12.9881 936 98.6218 1089.25 489.833
279 0 73.144 12.4959 914 99.7768 1087.43 491.305
280 0 77.1525 13.065 1008 99.499 1086.96 487.661
281 0 79.0486 12.1824 963 101.324 1087.36 487.488
282 0 80.1505 12.227 980 102.187 1086.79 485.922
283 0 84.1344 13.1456 1106 100.91 1087.19 483.428
284 0 87.1921 12.2259 1066 103.566 1087.42 481.494
285 0 91.3086 12.299 1123 103.736 1087.46 478.678
286 0 94.4377 12.7703 1206 102.956 1088 476.361
287 0 96.4814 12.2407 1181 105.437 1087.87 474.251
288 1 48.4599 9.69874 470 99.5 1088.32 499.223
289 0 50.4963 10.9909 555 98.0126 1088.03 497.883
290 0 50.4742 9.96549 503 99.7376 1088.02 498.27
291 0 52.3027 11.7393 614 97.5342 1087.73 500.067
292 0 54.1729 12.1832 660 101.173 1086.69 500.65
293 0 57.1529 11.3205 647 103.122 1087.24 498.796
294 0 56.1512 10.0621 565 107.122 1087 499.529
295 0 60.3354 11.2538 679 102.867 1087.28 498.264
296 0 60.24 11.1056 669 103.973 1086.8 497.158
297 0 65.2946 11.6242 759 102.68 1087.04 495.814
298 0 64.3472 12.3393 794 103.675 1087.29 493.798
299 0 67.4079 13.8411 933 99.8317 1086.89 494.249
300 0 69.2452 11.5387 799 105.014 1086.53 492.574
301 0 69.3681 11.6912 811 105.477 1086.51 492.275
302 0 72.4875 12.2504 888 105.02 1086.25 487.785
303 0 71.1962 9.52298 678 112.088 1085.88 482.267
304 0 76.4971 13.0332 997 104.423 1085.3 485.289
305 0 80.672 12.2595 989 107.309 1085.75 482.203
306 0 81.5221 11.9722 976 108.279 1085.75 481.462
307 0 86.6391 12.6617 1097 105.947 1086.19 479.528
308 0 90.7082 12.4575 1130 106.433 1085.91 478.383
309 0 92.6818 12.408 1150 106.681 1085.78 477.603
310 1 47.3779 12.8541 609 101.491 1086.33 498.437
311 0 50.5795 10.4983 531 104.704 1086.35 498.305
312 0 52.3918 12.9601 679 100.239 1086.39 496.237
313 0 52.3342 11.7896 617 103.677 1086.38 497.629
314 0 57.417 13.4977 775 106.088 1087.15 499.019
315 0 58.256 13.6638 796 106.711 1086.75 498.423
316 0 59.4129 12.1522 722 109.217 1087.4 498.841
317 0 62.228 13.6273 848 102.43 1086.63 496.782
318 0 62.2261 11.5546 719 104.338 1086.07 497.199
319 0 66.3107 12.351 819 103.164 1086.45 493.839
320 0 69.3529 11.5208 799 105.28 1086.82 493.77
321 0 71.2601 12.742 908 103.318 1086.69 493.03
322 0 71.3015 11.9913 855 107.523 1085.85 489.923
323 0 71.4314 12.3335 881 108.347 1086.05 488.76
324 0 77.6523 13.0067 1010 106.974 1086.36 487.13
325 0 81.7365 13.7882 1127 105.05 1086.07 482.177
326 0 86.639 12.4771 1081 107.565 1086.5 482.118
327 0 86.5906 12.1376 1051 109.314 1086.68 483.038
328 1 47.4029 11.6449 552 106.199 1087.55 502.716
329 0 48.152 11.4845 553 106.846 1087.56 503.125
330 0 50.317 13.8721 698 103.652 1087.51 501.391
331 0 51.3712 11.5629 594 108.801 1087.76 501.328
332 0 51.1319 11.3041 578 106.002 1087.46 504.519
333 0 52.2611 12.2462 640 105.102 1087.36 500.569
334 0 54.4494 12.2499 667 104.258 1087.95 500.951
335 0 55.5187 12.6804 704 103.212 1087.14 499.906
336 0 58.1844 12.0995 704 103.396 1087.73 500.348
337 0 60.3898 13.5619 819 101.576 1087.23 498.884
338 0 61.7684 12.7411 787 102.976 1087.35 498.715
339 0 65.4271 12.533 820 102.132 1087.52 496.729
340 0 67.2032 14.1362 950 99.5747 1087.43 494.357
341 0 69.2337 13.8516 959 99.9812 1087.11 494.239
342 0 70.1494 14.3836 1009 100.877 1087.22 492.736
343 0 73.0792 12.8217 937 104.731 1087.46 490.809
344 0 75.2089 12.924 972 105.093 1087.82 489.031
345 0 78.3802 11.7377 920 107.195 1087.69 490.227
346 0 80.4811 13.4441 1082 104.517 1088.01 484.642
347 0 85.4573 12.6145 1078 106.116 1088.46 483.692
348 0 87.5525 13.9117 1218 104.581 1088.39 480.451
349 1 45.3714 11.5051 522 103.964 1089.09 502.249
350 0 47.3526 12.6498 599 102.16 1088.75 500.663
351 0 50.4521 11.5357 582 104.407 1088.64 500.725
352 0 49.1585 12.3682 608 104.426 1089.12 504.37
353 0 51.2216 12.7485 653 104.45 1088.85 504.119
354 0 54.2864 12.7104 690 103.225 1088.2 503.159
355 0 54.4255 12.5309 682 104.617 1088.49 501.711
356 0 57.3342 13.2731 761 109.085 1088.34 501.012
357 0 57.231 13.3844 766 109.624 1088.45 500.298
358 0 61.4691 13.1286 807 109.224 1088.12 498.529
359 0 64.4293 13.5342 872 108.399 1088.35 498.322
360 0 62.3356 13.1546 820 111.677 1087.86 495.756
361 0 66.2483 14.2645 945 108.789 1087.6 496.314
362 0 68.4209 13.9577 955 109.626 1087.47 496.41
363 0 71.4303 13.8037 986 110.174 1087.66 493.527
364 0 71.3995 12.9973 928 110.099 1086.98 493.38
365 0 75.359 13.8935 1047 108.734 1086.57 490.418
366 0 76.5156 15.1472 1159 107.143 1086.31 489.182
367 0 80.6575 14.8777 1200 107.972 1086.5 485.848
368 0 82.7222 13.914 1151 111.831 1086.95 483.898
369 0 86.5025 15.0863 1305 109.197 1086.92 483.709
370 0 88.6855 13.531 1200 113.869 1087.29 481.537
371 0 89.7538 14.083 1264 114.451 1087.19 482.331
372 1 48.4043 12.8708 623 114.388 1086.65 502.443
373 0 52.1911 13.5081 705 114.963 1087.09 495.655
374 0 53.2012 13.8719 738 112.848 1088.07 502.963
375 0 54.0651 12.8919 697 115.333 1088.5 502.288
376 0 56.0658 14.7505 827 110.954 1088.69 501.46
377 0 56.1111 14.2574 800 114.23 1088.58 499.678
378 0 59.1688 13.0981 775 114.585 1088.75 500.889
379 0 62.1572 15.2034 945 109.638 1088.83 498.447
380 0 64.116 15.5187 995 109.566 1088.87 497.196
381 0 66.112 14.7477 975 112.195 1088.62 496.563
382 0 69.1169 14.367 993 113.234 1088.86 496.072
383 0 69.0867 13.2442 915 118.506 1088.92 494.24
384 0 74.2314 13.889 1031 119.227 1088.74 494.049
385 0 77.233 13.5952 1050 121.471 1088.68 491.357
386 0 79.313 14.9408 1185 117.877 1088.85 491.062
387 0 82.2378 14.8715 1223 117.296 1088.34 488.76
388 0 85.1511 13.1648 1121 122.205 1088.72 488.002
389 0 89.2334 13.2238 1180 121.488 1089.19 485.951
390 0 92.2712 13.4061 1237 120.909 1088.05 483.955
391 1 48.0781 12.6461 608 118.755 1089.55 504.482
392 0 50.0697 13.2216 662 114.269 1089.22 504.739
393 0 51.2594 14.1632 726 115.488 1088.04 501.602
394 0 52.1552 12.4053 647 120.492 1088.35 501.44
395 0 55.1274 12.7523 703 117.889 1088.43 501.364
396 0 58.2248 13.8772 808 114.874 1088.43 501.13
397 0 59.2197 14.0831 834 114.373 1087.63 500.175
398 0 61.1422 14.3436 877 113.49 1087.38 497.796
399 0 62.1513 12.9523 805 116.42 1088.07 498.198
400 0 64.2247 12.7988 822 117.781 1087.65 495.145
401 0 68.2406 14.5075 990 112.455 1087.62 495.062
402 0 72.1363 14.5142 1047 111.851 1087.87 493.509
403 0 73.1886 13.6633 1000 114.302 1088.1 493.709
404 0 75.1611 13.4112 1008 115.261 1087.82 490.859
405 0 78.3063 15.0052 1175 111.004 1087.62 489.751
406 0 79.0799 14.517 1148 113.076 1087.11 487.368
407 0 82.0945 13.4601 1105 114.266 1086.96 488.962
408 0 87.0707 14.9304 1300 109.922 1087.53 487.735
409 0 91.126 16.2303 1479 106.383 1087.24 485.829
410 0 92.0341 14.8967 1371 110.779 1086.89 482.736
411 0 95.0999 14.101 1341 112.37 1086.96 483.244
412 0 97.0377 14.1079 1369 114.037 1086.79 479.605
413 0 101.193 14.1018 1427 113.926 1086.63 478.03
414 0 106.158 14.7233 1563 106.634 1087 478.539
415 1 52.0571 12.1982 635 111.696 1087.42 501.488
416 0 55.1066 12.5212 690 113.333 1086.58 500.983
417 0 57.1331 14.1774 810 101.526 1088.77 500.402
418 0 61.0758 13.999 855 110.739 1090.11 499.499
419 0 62.094 13.3668 830 113.854 1089.57 498.17
420 0 63.1277 13.6866 864 114.238 1089.93 496.946
421 0 66.0278 14.6302 966 111.453 1089.81 495.011
422 0 69.0803 15.2431 1053 110.311 1090.25 495.649
423 0 71.1516 13.9561 993 113.529 1090.18 494.863
424 0 72.1284 13.6285 983 115.376 1089.85 492.992
425 0 75.0617 14.4148 1082 113.774 1089.84 490.665
426 0 77.1274 14.1584 1092 114.152 1090.76 491.441
427 0 82.1576 13.1089 1077 115.734 1090.32 489.483
428 0 83.1418 13.8799 1154 114.431 1090.08 488.003
429 0 87.0325 13.8799 1208 115.553 1090.14 485.497
430 0 90.0688 15.0329 1354 113.004 1089.9 484.925
431 0 93.0986 13.534 1260 109.463 1089.66 485.556
432 0 94.1366 14.2453 1341 109.082 1089.13 482.556
433 0 99.1008 13.1785 1306 111.371 1089.11 481.663
434 1 53.0753 13.7917 732 110.112 1090.06 503.064
435 0 55.0835 14.2329 784 110.314 1089.91 501.643
436 0 58.0367 14.0945 818 109.888 1089.91 502.32
437 0 60.0752 13.4997 811 111.535 1089.72 500.787
438 0 60.0292 12.9937 780 115.194 1090.01 499.177
439 0 61.1365 12.6438 773 116.223 1089.62 499.102
440 0 65.0501 13.4973 878 114.395 1090.25 496.388
441 0 66.0476 13.354 882 116.368 1089.98 494.893
442 0 69.0448 13.3392 921 115.315 1089.92 494.755
443 0 72.0977 13.4401 969 114.934 1089.7 493.814
444 0 73.0356 12.6377 923 118.124 1089.86 492.202
445 0 76.0909 13.6416 1038 115.747 1089.9 492.551
446 0 80.2094 14.3375 1150 114.378 1089.24 490.382
447 0 81.2732 13.3623 1086 117.714 1088.27 489.922
448 0 85.1509 14.0222 1194 116.14 1088.35 487.626
449 0 86.1535 14.2072 1224 117.732 1088.28 486.342
450 0 88.1399 13.3878 1180 118.949 1089.45 484.814
451 0 90.1054 13.2844 1197 121.312 1089.45 483.581
452 0 93.2606 14.2504 1329 118.774 1088.62 481.911
453 0 96.1667 13.8406 1331 119.805 1088.9 482.633
454 0 101.325 13.5603 1374 119.996 1089.61 479.524
455 0 102.414 13.5138 1384 121.937 1088.74 477.131
456 0 105.545 14.6289 1544 120.962 1089.05 470.975
457 0 111.487 15.374 1714 116.716 1088.54 472.873
458 0 113.692 13.2199 1503 122.153 1088.36 471.047
459 0 121.464 14.7533 1792 118.589 1088.72 468.881
460 1 61.4777 13.8262 850 112.521 1088.48 497.162
461 0 64.193 12.5247 804 115.675 1088.53 497.398
462 0 66.1669 11.9546 791 117.168 1089.27 497.405
463 0 68.2256 12.913 881 115.8 1090.02 496.605
464 0 71.0903 13.3351 948 116.266 1089.56 493.488
465 0 74.0311 13.3998 992 116.659 1090.16 493.171
466 0 76.1422 12.5029 952 119.05 1089.74 491.524
467 0 79.2738 13.8255 1096 115.804 1089.07 489.742
468 0 81.2002 12.9187 1049 118.041 1088.97 488.494
469 0 84.193 12.8395 1081 118.759 1089.13 486.277
470 0 89.2823 13.8661 1238 115.662 1089.02 486.223
471 0 91.2286 13.6909 1249 116.552 1088.8 485.596
472 0 94.4072 14.2892 1349 115.534 1088.46 481.701
473 0 96.4209 13.2648 1279 119.335 1089.16 482.041
474 0 101.384 15.1109 1532 113.61 1088.65 481.33
475 0 103.505 13.5549 1403 118.624 1088.96 478.247
476 0 109.389 13.4474 1471 117.073 1088.56 477.468
477 0 112.415 12.6051 1417 121.017 1088.57 472.259
478 1 54.2061 12.4894 677 115.88 1089.3 503.078
479 0 57.1158 13.2363 756 114.012 1088.86 498.95
480 0 60.1408 13.4185 807 112.45 1089.07 499.291
481 0 61.1968 13.1053 802 113.206 1088.55 499.468
482 0 63.3084 12.7629 808 115.812 1088.59 497.386
483 0 65.2563 12.0755 788 122.67 1088.87 496.576
484 0 68.375 13.1481 899 119.165 1089.21 495.653
485 0 68.334 12.2926 840 121.396 1088.89 493.93
486 0 73.4349 14.0533 1032 116.264 1088.66 491.664
487 0 77.3913 13.3607 1034 117.448 1088.6 491.532
488 0 78.571 14.5092 1140 115.921 1088.13 487.802
489 0 81.5036 13.2878 1083 118.263 1088.53 486.719
490 0 84.6017 13.1794 1115 114.428 1087.67 482.623
491 0 87.8448 12.7953 1124 115.788 1087.93 480.957
492 0 90.8733 12.655 1150 117.101 1088.68 479.173
493 0 92.7157 12.1446 1126 120.803 1088.08 478.62
494 0 96.8396 13.5585 1313 118.69 1088.7 474.047
495 1 50.4739 11.8873 600 119.498 1089.23 497.037
496 0 52.6978 11.6513 614 120.927 1089.23 497.274
497 0 56.8248 13.6032 773 116.023 1089.58 495.94
498 0 53.061 11.6658 619 121.312 1088.09 495.364
499 0 54.366 11.8824 646 122.601 1089.09 495.362
500 0 60.258 14.106 850 116.895 1089.17 495.906
501 0 60.2748 13.1232 791 121.695 1088.91 494.018
502 0 62.2658 13.4102 835 123.31 1089.03 491.747
503 0 62.5447 12.7749 799 125.464 1089.61 490.954
504 0 65.3618 13.8001 902 118.582 1090.46 490.484
505 0 66.3569 12.6287 838 121.852 1090.16 487.233
506 0 68.3075 14.0248 958 119.886 1090.12 485.274
507 0 69.3945 12.3641 858 124.098 1090.33 485.814
508 0 73.3769 13.3284 978 120.024 1089.99 483.779
509 0 74.3172 13.0522 970 121.764 1089.52 480.499
510 0 78.3071 14.2516 1116 118.487 1089.5 479.521
511 0 82.4789 12.5608 1036 121.35 1089.48 478.604
512 0 85.5293 11.575 990 122.89 1089.19 478.056
513 0 88.3259 12.035 1063 121.931 1089.09 475.299
514 0 93.2411 12.4409 1160 119.716 1089.54 474.092
515 1 48.0902 10.7922 519 123.59 1089.88 499.607
516 0 49.0682 11.7592 577 124.343 1090.13 497.943
517 0 53.1045 9.94266 528 117.888 1088.3 498.506
518 0 56.0978 11.4086 640 119.727 1087.29 501.898
519 0 57.1094 12.0996 691 119.219 1087.61 500.117
520 0 58.2488 13.2363 771 115.877 1087.9 500.001
521 0 60.2408 13.197 795 116.199 1087.66 497.947
522 0 61.1355 12.1533 743 120.135 1088.03 496.471
523 0 65.1961 12.4087 809 118.758 1088.38 495.454
524 0 65.3927 13.0137 851 118.311 1089.15 494.327
525 0 68.5425 12.6491 867 120.39 1088.99 488.388
526 0 70.8032 12.7113 900 120.044 1088.83 488.256
527 0 72.403 13.2591 960 120.284 1088.43 487.031
528 0 74.693 12.4644 931 122.045 1088.28 485.742
529 0 77.4429 12.0992 937 122.261 1088.64 484.533
530 0 80.4477 12.3683 995 122.232 1088.99 483.5
531 0 81.5244 11.4935 937 124.613 1088.69 482.657
532 0 84.3465 12.5079 1055 123.624 1088.41 479.601
533 0 88.3342 12.5999 1113 123.382 1088.7 477.908
534 0 92.3778 13.0443 1205 121.927 1088.28 476.264
535 0 95.5071 13.9676 1334 119.659 1088.13 475.882
536 1 51.3493 10.7889 554 119.345 1088.59 496.31
537 0 53.3513 11.4524 611 116.9 1088.5 497.612
538 0 57.3792 11.851 680 114.496 1089.26 497.188
539 0 55.2382 12.5819 695 120.132 1086.9 497.581
540 0 59.2602 12.7235 754 116.477 1087.3 499.294
541 0 58.306 12.4344 725 119.468 1086.87 498.346
542 0 63.2752 13.1647 833 114.647 1087.17 498.026
543 0 63.2106 12.3872 783 110.201 1088.1 497.373
544 0 64.1441 12.3784 794 109.795 1088.08 496.899
545 0 68.2048 12.7704 871 109.185 1088.21 495.305
546 0 71.2527 13.0942 933 108.448 1088.82 494.531
547 0 72.3979 12.086 875 110.302 1088.13 494.735
548 0 74.2796 12.5472 932 111.529 1088.17 492.769
549 0 78.2688 11.6649 913 115.353 1089.29 490.63
550 0 79.2061 12.3602 979 112.156 1088.74 491.339
551 0 81.2163 10.5521 857 118.137 1088.12 489.96
552 0 84.3769 12.8827 1087 114.641 1088.94 488.238
553 1 46.1105 11.017 508 112.043 1088.46 507.591
554 0 46.1741 10.6986 494 115.65 1087.64 506.186
555 0 49.104 11.8524 582 112.153 1087.93 504.29
556 0 49.3135 10.5651 521 114.305 1091.41 508.157
557 0 48.0361 11.0542 531 116.162 1090.66 505.228
558 0 52.205 12.0486 629 112.188 1090.83 502.796
559 0 51.0883 10.5699 540 115.617 1091.27 505.507
560 0 54.0717 12.0396 651 112.622 1091.45 503.109
561 0 57.1469 11.4967 657 113.37 1091.14 502.549
562 0 56.2261 11.4893 646 114.625 1091.08 501.342
563 0 58.1877 11.6863 680 113.981 1090.51 501.068
564 0 60.1418 11.5062 692 115.035 1090.46 499.03
565 0 63.1018 12.0916 763 113.118 1090.4 499.845
566 0 62.1438 10.6688 663 117.897 1090.48 497.268
567 0 67.3516 12.3828 834 113.524 1089.6 494.465
568 0 70.1694 12.4983 877 112.367 1090.09 495.643
569 0 73.2747 12.9513 949 110.826 1089.92 494.625
570 0 76.2844 11.562 882 114.763 1090.18 491.356
571 0 80.224 12.7144 1020 111.848 1089.9 489.549
572 0 81.3001 12.2386 995 114.818 1090.12 489.398
573 0 84.2927 11.7211 988 114.464 1090.27 488.074
574 0 87.2483 12.7911 1116 112.834 1088.7 486.655
575 0 90.204 12.2168 1102 113.66 1088.97 486.755
576 0 92.2294 12.4255 1146 114.031 1089.11 483.979
577 1 51.0667 11.9256 609 112.103 1087.74 505.977
578 0 53.1577 12.1525 646 114.136 1087.41 504.339
579 0 54.1894 13.5635 735 108.601 1090.28 500.536
580 0 55.1862 11.8327 653 112.848 1090.5 501.962
581 0 56.3069 12.3431 695 112.751 1089.92 499.617
582 0 58.0592 11.0232 640 114.366 1090.15 502.477
583 0 60.1897 12.5603 756 112.462 1090.23 499.451
584 0 62.2183 13.7902 858 109.437 1090.89 499.323
585 0 63.1641 12.2221 772 114.503 1090.59 497.617
586 0 68.2502 13.3919 914 109.718 1090.72 497.71
587 0 69.3113 13.5043 936 110.161 1091.01 496.057
588 0 72.2844 13.5437 979 109.985 1091.05 495.008
589 0 73.3928 14.0886 1034 109.715 1090.89 493.453
590 0 74.2529 12.7806 949 113.527 1090.17 492.996
591 0 78.3316 13.8386 1084 111.655 1089.96 490.089
592 0 83.2766 13.0769 1089 112.059 1089.88 491.096
593 0 84.3275 13.3171 1123 111.541 1089.96 489.421
594 0 87.2987 14.2843 1247 110.496 1089.52 485.974
595 0 88.2081 12.8673 1135 115.159 1089.41 483.841
596 0 93.2071 13.5183 1260 112.632 1088.97 485.198
597 0 96.17 13.1434 1264 113.941 1089.02 482.919
598 0 99.263 13.8823 1378 112.966 1089.61 481.827
599 1 52.0521 11.8919 619 117.538 1090.3 503.081
600 0 53.0525 11.5734 614 115.244 1090.61 503.29
601 0 56.172 12.5329 704 113.594 1088 496.963
602 0 56.3078 13.142 740 107.703 1089.98 500.999
603 0 56.2165 12.3451 694 110.161 1089.85 501.666
604 0 56.2236 11.5966 652 112.643 1089.07 498.937
605 0 62.1644 13.9147 865 104.723 1089.31 498.471
606 0 63.1688 14.39 909 104.494 1088.8 497.037
607 0 62.2284 11.8113 735 109.891 1089.49 500.282
608 0 63.1435 12.3528 780 111.632 1089.36 496.532
609 0 66.2318 12.3355 817 112.053 1089.77 496.397
610 0 67.0315 12.1137 812 110.669 1089.61 495.163
611 0 71.1262 11.571 823 111.324 1089.8 495.567
612 0 74.1119 12.5351 929 109.939 1089.47 492.794
613 0 75.1267 12.0729 907 110.461 1089.52 492.239
614 0 80.227 13.1751 1057 108.439 1089.85 491.181
615 0 82.1218 11.7021 961 111.16 1089.65 491.261
616 0 86.2389 13.0104 1122 108.02 1089.69 489.094
617 0 88.1463 13.0238 1148 108.997 1088.88 485.069
618 0 91.1975 12.2591 1118 111.664 1088.99 482.36
619 0 95.2566 13.5949 1295 108.283 1088.79 482.24
620 0 97.1742 12.6165 1226 110.007 1089.76 480.677
621 1 51.1327 11.7929 603 107.64 1090.74 504.332
622 0 53.1001 12.128 644 106.691 1090.51 504.084
623 0 54.1111 12.7146 688 106.089 1089.92 501.388
624 0 55.1194 12.8086 706 105.841 1090.25 501.684
625 0 58.094 13.8052 802 104.186 1088.69 502.097
626 0 59.1108 12.908 763 106.236 1088.31 500.33
627 0 60.1807 12.0969 728 109.125 1088.5 500.493
628 0 62.038 14.201 881 104.964 1089.06 496.461
629 0 65.1273 13.0053 847 107.64 1088.59 496.94
630 0 69.1896 13.9327 964 104.143 1088.72 496.06
631 0 70.207 13.4602 945 107.127 1088.36 496
632 0 72.1167 12.9651 935 108.306 1087.8 495.246
633 0 74.1764 13.4409 997 109.86 1088.09 491.443
634 0 76.1609 12.8675 980 111.169 1088.2 492.634
635 0 79.1446 13.0015 1029 111.329 1088.46 490.99
636 0 80.182 12.8084 1027 113.673 1088.54 488.609
637 0 85.1362 12.9205 1100 112.375 1088.4 489.256
638 0 87.0632 12.9561 1128 113.505 1088.49 486.833
639 0 91.1498 14.372 1310 111.405 1089.13 484.517
640 0 94.2392 14.9301 1407 110.591 1089.34 483.232
641 0 96.2225 13.448 1294 115.634 1089.64 481.151
642 0 100.184 14.1141 1414 114.4 1088.97 478.636
643 1 54.0785 12.9072 698 114.709 1088.45 502.557
644 0 56.1184 13.2042 741 116.205 1088 501.18
645 0 54.0995 12.4585 674 122.574 1087.81 501.516
646 0 55.0454 12.6078 694 124.703 1087.65 501.094
647 0 58.0885 13.7377 798 122.11 1088.27 499.031
648 0 59.038 13.6861 808 121.972 1087.38 499.593
649 0 64.032 13.6963 877 121.707 1087.83 498.529
650 0 64.0758 13.406 859 122.822 1087.91 498.052
651 0 67.1916 13.6178 915 121.775 1087.19 497.002
652 0 69.0681 13.9283 962 121.984 1087.81 494.529
653 0 72.2068 12.755 921 124.99 1087.92 493.305
654 0 74.211 12.8013 950 127.187 1088.16 491.788
655 0 75.1756 13.515 1016 126.384 1087.99 491.223
656 0 79.1296 14.2804 1130 124.75 1087.58 489.224
657 0 82.1438 13.7564 1130 125.536 1087.87 488.44
658 0 87.1356 14.5979 1272 123.55 1087.65 486.826
659 0 87.127 14.255 1242 125.604 1087.83 485.911
660 0 92.1613 14.9954 1382 122.499 1088.25 483.036
661 0 94.1175 12.6438 1190 134.703 1088.73 481.29
662 0 97.4042 12.9255 1259 134.175 1088.8 479.099
663 1 53.2297 11.6101 618 122.833 1091.03 501.888
664 0 55.2412 12.5088 691 119.944 1091.35 500.014
665 0 56.0968 12.3715 694 115.744 1091.77 501.857
666 0 56.1386 13.2885 746 114.895 1091.46 498.739
667 0 59.1255 12.4312 735 114.752 1090.5 499.603
668 0 60.061 11.9545 718 115.553 1091.13 498.556
669 0 63.1705 12.6167 797 113.846 1090.55 497.103
670 0 65.0894 11.538 751 115.004 1090.15 498.107
671 0 67.0911 12.7439 855 114.055 1089.91 494.773
672 0 69.2224 12.7271 881 116.313 1090.02 492.227
673 0 73.0965 13.3796 978 114.428 1089.55 491.803
674 0 77.1227 12.2402 944 116.963 1090 491.693
675 0 77.1932 12.7343 983 117.535 1090.26 490.67
676 0 81.2536 12.2333 994 118.613 1090.36 489.423
677 0 83.2074 13.0037 1082 118.038 1090.39 485.77
678 0 87.1456 11.4177 995 119.238 1090.7 489.412
679 0 90.1824 13.5836 1225 116.892 1090.43 484.694
680 0 91.1509 11.9033 1085 119.948 1090.49 484.086
681 1 52.0865 11.8073 615 114.657 1090.44 502.901
682 0 52.0891 11.154 581 117.27 1090.09 501.621
683 0 52.0807 12.4038 646 115.204 1090.46 501.023
684 0 55.0768 11.9288 657 112.522 1090.3 502.632
685 0 54.049 11.9336 645 113.786 1089.35 502.676
686 0 54.2153 10.0894 547 118.075 1090.14 501.832
687 0 57.1838 12.591 720 114.089 1089.41 499.907
688 0 57.0783 10.9323 624 119.393 1089.66 499.72
689 0 60.0509 12.7558 766 115.381 1089.57 499.027
690 0 62.0989 11.9326 741 118.138 1089.5 497.757
691 0 63.1174 10.9954 694 120.919 1090.12 495.218
692 0 66.1507 13.1518 870 114.753 1089.91 494.168
693 0 67.123 11.4566 769 119.495 1090.32 493.999
694 0 71.369 13.213 943 114.699 1089.78 491.873
695 0 73.2605 13.0357 955 114.894 1089.31 491.194
696 0 73.2499 12.942 948 116.751 1089.14 489.312
697 0 78.2273 12.6171 987 115.579 1089.12 490.372
698 0 80.1972 13.0803 1049 115.608 1089 486.533
699 0 79.2342 11.548 915 120.238 1089.01 482.961
700 0 84.2806 12.0431 1015 118.41 1089.3 486.016
701 0 89.1303 12.3303 1099 116.985 1089.44 484.688
702 0 91.231 13.1863 1203 116.706 1088.79 482.804
703 0 93.2106 12.8741 1200 118.1 1088.49 479.618
704 0 98.1698 13.4868 1324 114.194 1088.83 477.268
705 0 100.106 13.4858 1350 113.745 1088.54 478.839
706 0 103.196 13.4308 1386 115.418 1088.97 474.61
707 0 104.186 11.9594 1246 120.359 1089.32 474.958
708 0 108.097 12.9606 1401 119.425 1088.77 470.714
709 0 112.194 12.3536 1386 122.752 1088.85 471.811
710 0 116.157 13.8088 1604 120.291 1088.53 468.44
711 0 117.224 12.6595 1484 124.918 1089.25 467.291
712 0 123.235 13.0482 1608 123.92 1088.48 464.601
713 1 70.0764 11.1735 783 120.607 1089.6 492.501
714 0 74.0655 11.9759 887 118.359 1090 489.503
715 0 74.0757 11.2588 834 103.712 1088.83 484.368
716 0 74.2242 10.2123 758 106.772 1088.99 484.317
717 0 78.1615 11.617 908 105.109 1089 482.839
718 0 82.2595 12.2539 1008 113.953 1090.36 487.531
719 0 82.2054 11.4591 942 117.221 1090.6 486.171
720 0 87.1644 11.7938 1028 116.196 1089.79 484.263
721 0 90.1263 14.28 1287 111.248 1090.1 480.988
722 0 93.2524 12.1176 1130 115.242 1089.98 482.392
723 0 96.2064 12.0678 1161 113.788 1090.43 482.731
724 0 100.299 12.2533 1229 113.671 1090.1 479.712
725 0 103.253 13.404 1384 111.314 1089.67 477.147
726 0 105.171 13.2166 1390 112.104 1089.64 476.469
727 0 109.195 12.2533 1338 113.546 1090.01 475.277
728 0 113.166 12.548 1420 112.663 1089.38 474.328
729 0 117.198 12.9013 1512 112.128 1089.66 471.304
730 0 120.283 13.2438 1593 110.601 1089.58 469.779
731 0 123.34 12.4047 1530 114.502 1089.6 467.786
732 0 127.215 13.426 1708 110.493 1088.98 461.156
733 0 132.278 12.6022 1667 112.243 1089.21 459.708
734 0 138.418 12.903 1786 112.499 1088.06 459.17
735 1 76.0878 13.1296 999 107.428 1087.66 489.408
736 0 77.1887 12.1779 940 103.519 1087.56 483.158
737 0 79.1394 12.7244 1007 108.81 1086.69 486.754
738 0 82.1712 12.3401 1014 109.337 1087.05 483.677
739 0 85.1167 12.8412 1093 109.244 1087.69 485.119
740 0 87.0678 11.9447 1040 110.959 1087.87 484.462
741 0 91.0746 12.627 1150 110.969 1087.38 481.117
742 0 94.1052 10.8602 1022 114.495 1087.86 481.621
743 0 97.2451 12.3708 1203 112.572 1087.39 478.398
744 0 99.1623 10.9114 1082 115.574 1087.31 476.712
745 0 103.204 12.267 1266 113.103 1087.48 474.358
746 0 107.27 13.1817 1414 111.914 1090.04 474.926
747 0 109.375 11.8217 1293 115.168 1089.96 473.978
748 0 112.26 12.952 1454 113.254 1089.33 469.337
749 0 117.347 13.2853 1559 112.758 1089.28 469.979
750 0 120.268 11.9899 1442 116.179 1089.1 467.565
751 0 124.34 11.4203 1420 118.842 1088.98 463.717
752 0 129.452 12.3675 1601 118.736 1089.14 462.657
753 0 135.235 12.4081 1678 115.083 1089.68 459.708
754 0 136.264 12.4537 1697 115.491 1090.05 455.872
755 0 143.235 13.6768 1959 110.964 1089.8 456.171
756 1 78.1408 12.4647 974 113.509 1090.37 489.321
757 0 81.5205 12.4386 1014 115.196 1089.46 481.052
758 0 82.1077 11.9843 984 108.362 1091.16 485.477
759 0 88.0854 12.3517 1088 107.273 1090.87 484.434
760 0 86.2622 11.2564 971 109.237 1089.67 483.425
761 0 92.2472 12.7917 1180 105.193 1090.01 482.901
762 0 94.1889 11.5937 1092 108.452 1089.74 481.556
763 0 96.221 12.4817 1201 108.614 1089.84 478.648
764 0 99.1791 11.9077 1181 109.345 1090.17 480.241
765 0 103.161 12.4562 1285 110.181 1090.07 474.96
766 0 108.133 11.8465 1281 109.208 1090.3 476.888
767 0 111.295 12.5612 1398 107.937 1090.3 473.669
768 0 114.216 12.8353 1466 107.409 1090.06 470.737
769 0 117.181 12.502 1465 108.218 1090.23 470.2
770 1 66.0844 11.2583 744 106.761 1091.8 495.894
771 0 66.2519 11.0487 732 107.751 1090.64 493.943
772 0 69.2523 14.4833 1003 100.155 1090.66 491.396
773 0 73.1502 13.4791 986 102.072 1091.05 490.6
774 0 75.052 12.6179 947 103.461 1090.42 491.327
775 0 77.1567 12.4681 962 103.93 1089.42 489.481
776 0 78.146 11.7344 917 104.886 1090.34 487.036
777 0 81.1387 12.1274 984 105.422 1090.43 486.826
778 0 84.202 12.28 1034 105.773 1090.82 484.841
779 0 85.1047 11.198 953 108.133 1090.45 484.655
780 0 87.1884 10.3454 902 110.136 1090.14 487.02
781 0 92.1493 12.751 1175 105.561 1089.93 482.38
782 0 95.1571 12.348 1175 106.786 1089.72 480.193
783 0 96.0959 11.9464 1148 108.743 1090.08 477.717
784 0 99.1942 12.0975 1200 108.17 1090.41 477.52
785 0 104.26 12.3729 1290 107.746 1089.67 475.657
786 0 107.213 11.7524 1260 108.316 1090.36 472.582
787 0 106.214 10.6106 1127 84.3132 1089.85 477.641
788 0 115.243 12.6775 1461 106.48 1089.65 470.566
789 0 119.209 13.405 1598 105.549 1089.86 468.852
790 0 120.267 12.6884 1526 107.168 1089.66 467.571
791 0 126.158 11.3984 1438 110.556 1089.61 464.049
792 0 130.147 12.2861 1599 107.459 1089.16 462.773
793 1 69.0408 10.2838 710 103.865 1089.86 488.777
794 0 73.3059 10.654 781 104.137 1086.6 487.511
795 0 77.0743 11.9106 918 104.976 1085.79 487.833
796 0 79.0957 12.605 997 102.264 1085.41 486.966
797 0 79.0953 11.8338 936 105.084 1085.74 483.925
798 0 84.1513 13.2856 1118 101.097 1085.67 482.752
799 0 86.1018 11.1961 964 106.063 1085.8 482.443
800 0 91.0641 13.1116 1194 101.25 1086.07 480.641
801 0 94.1284 12.4617 1173 102.18 1085.55 480.906
802 0 95.2026 11.8274 1126 104.934 1085.97 477.815
803 0 99.1127 12.057 1195 107.771 1085.84 477.572
804 0 100.183 11.8983 1192 109.808 1085.89 474.417
805 0 108.098 13.8763 1500 104.413 1085.52 471.483
806 0 108.199 12.3753 1339 104.418 1086 471.264
807 0 114.176 13.5492 1547 103.118 1086.49 468.866
808 1 61.3815 8.84632 543 108.204 1087.92 495.779
809 0 65.5007 11.3739 745 103.804 1088.79 493.376
810 0 62.1047 10.7399 667 99.5502 1086.08 489.295
811 0 64.0967 10.6402 682 99.8607 1087.16 488.852
812 0 64.2502 9.96105 640 102.458 1086.24 484.698
813 0 71.3596 12.0236 858 96.1772 1087.11 487.358
814 0 72.2508 11.7092 846 97.4303 1086.78 487.184
815 0 74.4425 11.7675 876 98.4578 1086.61 481.999
816 0 77.3374 12.1675 941 98.1924 1086.81 482.001
817 0 80.4183 11.9749 963 97.1983 1087.54 485.114
818 0 83.3671 10.1719 848 101.89 1086.91 482.038
819 0 86.2115 12.249 1056 99.4233 1086.86 480.83
820 0 89.215 12.9238 1153 98.6618 1086.82 480.052
821 0 91.3063 12.0364 1099 100.457 1086.55 476.823
822 0 93.4536 10.6577 996 103.474 1086.95 476.198
823 0 98.4286 12.5878 1239 99.5787 1087.04 474.25
824 0 99.3972 11.6402 1157 102.364 1087.7 469.278
825 0 103.428 12.3275 1275 101.795 1088.45 468.308
826 0 107.49 11.5918 1246 102.604 1088.07 472.366
827 0 111.421 12.4931 1392 101.869 1087.95 471.023
828 0 115.51 12.9599 1497 101.466 1088.3 466.963
829 1 62.1526 12.1314 754 97.1963 1090.42 497.085
830 0 64.0498 11.6784 748 99.1003 1088.76 494.718
831 0 67.1275 11.8282 794 95.3791 1085.64 495.102
832 0 69.0595 12.6702 875 94.976 1086.26 491.595
833 0 72.0954 11.1242 802 97.49 1086.41 490.49
834 0 73.1326 10.5835 774 99.8915 1086.69 489.738
835 0 77.114 12.0082 926 96.2592 1086.11 488.167
836 0 82.1166 13.0059 1068 93.4569 1085.52 486.321
837 0 82.0948 10.9508 899 98.0645 1086.18 486.238
838 0 84.0329 11.9715 1006 97.0825 1085.94 483.807
839 0 88.3086 12.864 1136 95.0792 1086.3 482.173
840 0 89.1581 11.8105 1053 96.604 1086.21 481.419
841 0 93.1382 11.7889 1098 97.5301 1086.55 478.509
842 1 49.036 9.46243 464 97.1746 1085.74 500.741
843 0 51.1925 9.31778 477 96.3459 1085.94 500.197
844 0 53.4283 10.8931 582 94.3265 1086.84 495.184
845 0 55.0762 11.0211 607 96.7068 1086.11 498.657
846 0 58.0886 13.1179 762 93.4659 1086.56 498.765
847 0 59.119 12.0097 710 95.3394 1085.95 497.1
848 0 61.1977 11.6998 716 96.3352 1085.73 495.876
849 0 62.0354 11.9287 740 96.4419 1085.44 497.661
850 0 64.0254 12.1202 776 95.9059 1086.51 493.294
851 0 66.091 12.9821 858 95.3485 1085.78 492.568
852 0 65.1304 10.5634 688 101.689 1086.58 494.369
853 0 70.0876 12.1277 850 97.3094 1086.92 492.76
854 0 71.1667 12.7307 906 97.7042 1086.87 490.209
855 0 72.1126 11.8981 858 100 1086.84 491.244
856 0 75.2886 12.897 971 98.275 1086.78 488.717
857 0 79.2938 11.7033 928 100.364 1086.72 486.878
858 0 82.2532 13.0694 1075 98.2977 1087.19 487.349
859 0 82.3368 12.874 1060 99.9 1086.85 485.013
860 0 87.3684 12.0066 1049 101.203 1086.91 486.472
861 0 86.2247 12.1427 1047 101.775 1086.81 481.265
862 0 91.3423 12.59 1150 102.077 1087.39 479.498
863 0 96.3848 12.6265 1217 101.964 1087.75 479.516
864 0 96.3449 13.8357 1333 100.32 1088.03 479.155
865 0 97.3398 10.7459 1046 107.152 1087.82 480.16
866 1 57.2662 12.9396 741 102.834 1088.02 499.046
867 0 58.3314 11.5718 675 105.434 1089.16 495.56
868 0 57.1875 11.8382 677 100.393 1087.63 497.194
869 0 61.2248 14.0629 861 94.5842 1088.03 495.719
870 0 63.2257 12.7954 809 96.8801 1087.68 495.215
871 0 64.3091 11.9268 767 99.2229 1087.92 493.986
872 0 66.2184 13.6669 905 96.232 1087.67 493.567
873 0 69.1827 12.4164 859 98.681 1087.56 493.873
874 0 69.1495 12.1331 839 100.701 1087.25 492.011
875 0 74.2027 13.234 982 97.1477 1088.21 490.262
876 0 75.1623 12.2801 923 99.1907 1087.41 488.936
877 0 78.1035 13.3157 1040 96.2404 1087.5 487.258
878 0 79.13 12.8396 1016 98.4104 1087.71 486.018
879 0 80.1543 11.6775 936 101.174 1087.54 485.373
880 0 84.1148 12.685 1067 98.5717 1087.53 484.282
881 0 89.1475 12.0699 1076 99.9703 1087.63 481.963
882 0 93.2083 12.4667 1162 98.333 1087.4 480.991
883 1 49.0977 11.528 566 97.295 1086.56 502.512
884 0 48.0503 10.6555 512 98.873 1086.53 502.68
885 0 52.2265 11.4118 596 98.5 1089.14 500.351
886 0 54.0663 11.8373 640 97.1469 1086.85 500.575
887 0 54.1398 12.2461 663 97.9728 1087.05 499.602
888 0 56.089 11.7492 659 99.6404 1086.85 499.313
889 0 55.0733 13.0372 718 99.2688 1088.3 499.625
890 0 58.1633 11.4333 665 101.146 1086.23 498.487
891 0 58.0783 12.8964 749 101.336 1087.29 496.546
892 0 61.0939 12.5545 767 102.021 1086.5 495.647
893 0 63.0966 12.7582 805 101.796 1086.8 495.894
894 0 62.1073 11.6734 725 106.19 1087.44 491.561
895 0 66.084 12.7716 844 103.241 1087.85 493.069
896 0 69.1371 13.654 944 102.099 1087.59 490.643
897 0 72.1052 13.508 974 103.983 1087.53 489.426
898 0 74.0758 13.0002 963 105.549 1088.43 490.299
899 0 75.0863 12.0128 902 108.357 1087.33 490.851
900 0 78.1252 12.416 970 108.282 1087.76 488.697
901 0 80.2231 12.191 978 109.665 1087.69 486.848
902 0 83.172 13.6344 1134 108.744 1087.69 484.741
903 0 86.1116 13.2038 1137 110.881 1087.58 483.447
904 0 89.163 13.1108 1169 110.68 1087.53 482.912
905 0 90.1574 11.8903 1072 113.296 1088.01 480.846
906 0 95.1156 13.5204 1286 110.093 1087.42 479.637
907 0 98.1063 14.5149 1424 109.189 1087.69 477.147
908 0 102.228 12.8928 1318 112.527 1087.7 478.993
909 0 105.157 13.2944 1398 114.295 1087.89 475.182
910 0 108.223 12.7977 1385 115.011 1088.41 472.852
911 1 59.0432 12.5163 739 109.83 1087.06 499.203
912 0 58.113 11.9078 692 112.76 1090.23 493.725
913 0 62.2049 12.6839 789 109.842 1090.16 493.142
914 0 65.0672 12.8329 835 108.786 1090.4 494.68
915 0 66.199 14.0183 928 106.987 1090.13 491.714
916 0 66.1855 11.5131 762 113.291 1090.4 493.15
917 0 71.1348 14.0156 997 106.409 1089.84 491.813
918 0 72.2471 12.9694 937 110.122 1089.48 489.282
919 0 74.0943 13.3344 988 109.574 1089.54 488.14
920 0 77.22 13.1443 1015 112.309 1090.43 486.639
921 0 80.2006 14.5011 1163 108.455 1089.76 484.723
922 0 82.1403 12.296 1010 114.13 1089.93 485.324
923 0 85.2524 13.0905 1116 113.185 1089.59 483.939
924 0 88.1345 13.9786 1232 110.408 1089.85 481.787
925 0 90.2368 14.1406 1276 110.441 1087.39 481.249
926 0 94.1581 13.0844 1232 112.509 1087.17 478.558
927 1 49.1269 10.5034 516 115.707 1086.05 500.645
928 0 51.1593 10.4966 537 116.901 1087.07 498.663
929 0 52.2114 11.7407 613 113.228 1087.49 498.155
930 0 54.046 12.4709 674 106.715 1086.9 498.984
931 0 54.0683 11.0601 598 110.047 1087.98 500.299
932 0 54.074 11.9096 644 111.053 1086.71 497.523
933 0 56.0775 11.5733 649 110.867 1087.17 498.575
934 0 59.0983 11.8447 700 109.523 1087.11 498.087
935 0 61.1218 12.336 754 108.911 1087.49 495.179
936 0 63.1533 12.3826 782 107.902 1087.99 494.783
937 0 65.0599 10.8208 704 111.337 1087.7 493.837
938 0 67.0959 12.117 813 108.817 1087.04 492.175
939 0 70.0621 12.2891 861 108.551 1087.68 491.233
940 0 69.1404 11.1802 773 112.391 1087.79 490.481
941 0 73.0449 11.8694 867 111.589 1087.24 489.213
942 0 78.0386 12.8398 1002 108.833 1087.81 488.412
943 0 78.0835 12.73 994 110.653 1087.2 486.746
944 0 83.0733 12.1579 1010 111.621 1087.7 484.82
945 0 83.0922 11.1202 924 113.496 1087.59 485.596
946 0 88.0837 12.7038 1119 110.011 1087.84 483.06
947 0 91.1367 12.1795 1110 111.878 1088.22 480.088
948 0 95.1604 11.591 1103 112.118 1088.78 480.757
949 0 98.1471 10.9835 1078 112.987 1088.6 477.358
950 1 55.1021 10.78 594 110.928 1088.22 497.463
951 0 56.3665 11.6204 655 109.637 1089.86 495.342
952 0 58.3441 12.632 737 101.172 1090.05 493.487
953 0 58.0783 11.605 674 105.846 1087.15 496.53
954 0 61.1691 12.114 741 102.907 1087.44 495.184
955 0 60.0478 10.6082 637 107.341 1087.53 491.931
956 0 64.111 11.3709 729 106.051 1087.33 493.244
957 0 67.1699 11.9399 802 103.027 1088.27 493.546
958 0 68.1888 11.7761 803 104.44 1088.1 490.669
959 0 72.1353 11.4784 828 103.447 1087.68 489.952
960 0 75.1619 12.6793 953 100.828 1087.79 487.21
961 0 79.1173 13.5369 1071 98.1998 1087.93 487.399
962 0 79.2404 11.8753 941 103.378 1088.18 485.014
963 0 82.1157 12.5798 1033 101.025 1088.42 485.357
964 0 87.1662 12.2639 1069 101.072 1087.89 478.895
965 0 88.2127 12.2431 1080 101.189 1087.69 478.434
966 0 92.081 13.2058 1216 98.0847 1087.62 477.575
967 0 96.3144 13.3313 1284 97.6994 1087.56 479.708
968 0 97.137 11.911 1157 102.576 1087.34 476.912
969 0 102.283 12.9836 1328 99.3441 1087.39 475.775
970 1 51.1631 9.67494 495 99.5071 1088.88 498.554
971 0 55.2403 10.934 604 96.1142 1089.29 498.048
972 0 54.1979 11.2735 611 99.2275 1086.76 497.882
973 0 55.2136 10.6496 588 100.037 1087.33 497.794
974 0 58.1273 10.477 609 99.3186 1087.11 495.624
975 0 58.1175 11.1326 647 98.6291 1087.39 497.713
976 0 61.1748 11.0176 674 98.224 1087.66 496.196
977 0 63.3019 11.9112 754 95.8926 1087.78 493.59
978 0 65.1619 11.387 742 96.5337 1088.05 494.284
979 0 67.3313 10.6934 720 97.1889 1087.78 493.8
980 0 70.2778 11.5684 813 96.0504 1087.27 492.572
981 0 72.3269 11.2268 812 97.1626 1087.53 489.422
982 0 73.2274 11.7715 862 97.0429 1087.67 487.26
983 0 73.2345 11.8387 867 121.12 1087.68 487.239
984 0 80.2327 12.3017 987 95.0507 1087.7 486.745
985 0 81.1669 11.4702 931 97.0365 1087.44 484.216
986 0 85.1557 12.4595 1061 95.9764 1087.92 482.89
987 0 88.2071 11.2349 991 97.3774 1088.03 485.25
988 0 91.3752 11.4364 1045 98.2144 1088.18 480.515
989 0 95.0813 11.5796 1101 97.7593 1088.15 479.926
990 0 97.1711 11.7833 1145 98.3773 1088.11 479.355
991 0 100.093 11.5093 1152 102.76 1088.34 474.43
992 1 55.0579 12.0782 665 102.334 1087.62 498.893
993 0 52.0972 9.7894 510 97.3314 1089.62 488.476
994 0 55.229 11.0449 610 92.6525 1089.96 496.474
995 0 56.0779 9.95045 558 94.0699 1089.98 497.367
996 0 58.2422 10.5594 615 95.1902 1090.4 492.439
997 0 60.1124 11.3288 681 93.4185 1090.18 492.455
998 0 63.1362 11.4039 720 97.0014 1090.82 496.868
999 0 63.2624 11.7922 746 98.8311 1091.34 492.588
1000 0 65.1381 11.3298 738 98.061 1091.13 494.028
1001 0 68.1643 11.4283 779 97.7343 1090.37 488.646
1002 0 72.1692 12.5815 908 94.9725 1090.47 488.975
1003 0 74.2687 10.9333 812 96.4643 1090.55 491.352
1004 0 78.269 9.62066 753 97.328 1090.97 492.287
1005 0 80.2231 11.6051 931 97.0999 1090.31 486.052
1006 0 83.1268 12.1862 1013 97.9733 1090.01 486.043
1007 0 85.1832 11.3755 969 98.4696 1090.01 486.863
1008 0 89.215 12.128 1082 102.001 1090.44 482.739
1009 0 89.2682 11.9751 1069 102.997 1090.75 482.016
1010 0 93.24 11.1326 1038 103.652 1090.15 480.765
1011 1 50.165 11.4223 573 100.148 1088.66 499.806
1012 0 52.376 11.0165 577 98.3206 1088.4 498.624
1013 0 53.2614 12.1101 645 96.1643 1087.47 498.693
1014 0 54.1174 12.1588 658 95.8784 1086.8 500.734
1015 0 56.0546 11.4888 644 98.1522 1087.44 496.522
1016 0 59.3264 12.2037 724 96.0925 1087.07 497.41
1017 0 61.1928 12.3707 757 95.4967 1087.67 496.704
1018 0 62.3096 12.6626 789 95.0203 1087.96 493.894
1019 0 65.3192 13.1202 857 93.818 1087.63 494.439
1020 0 66.1164 14.051 929 93.0754 1088.51 493.672
1021 0 67.2085 12.9448 870 95.8 1087.78 491.618
1022 0 71.2716 13.3293 950 94.0516 1088.36 492.593
1023 0 71.3157 12.662 903 96.3145 1088.07 486.528
1024 0 74.2539 12.3495 917 97.4231 1087.77 486.698
1025 0 76.39 10.97 838 101.088 1088.35 484.591
1026 0 79.3558 11.921 946 99.2315 1087.77 483.432
1027 0 81.5186 12.7333 1038 98.2216 1087.3 484.44
1028 0 83.4446 12.5233 1045 99.8268 1087.68 484.453
1029 0 86.6229 13.0797 1133 100.548 1088.3 480.777
1030 0 89.6613 13.4395 1205 100.517 1088.19 481.441
1031 0 92.3347 11.3717 1050 104.606 1088.65 474.676
1032 0 95.4935 12.6605 1209 103.442 1088.61 476.263
1033 0 98.5571 10.6842 1053 108.098 1089.66 475.815
1034 0 102.576 12.3908 1271 104.683 1089.42 473.829
1035 1 53.1614 11.3616 604 104.69 1088.42 497.874
1036 0 58.316 12.6552 738 102.564 1088.02 496.126
1037 0 58.1771 10.5368 613 100.175 1090.92 496.71
1038 0 60.1269 11.6753 702 98.9174 1090.93 494.497
1039 0 62.1627 11.5342 717 100.074 1090.44 496.226
1040 0 67.1224 12.5591 843 96.8244 1090.04 493.617
1041 0 67.2249 12.3169 828 98.7512 1090.08 492.172
1042 0 71.0944 12.2795 873 98.5029 1089.72 491.93
1043 0 73.1227 11.6243 850 100.906 1089.76 489.974
1044 0 73.1763 11.4655 839 102.277 1090.1 488.911
1045 0 77.175 12.3874 956 101.332 1089.96 488.411
1046 0 81.225 13.5057 1097 99.7274 1089.66 486.212
1047 0 81.3207 12.2109 993 103.252 1089.58 483.959
1048 0 84.1938 11.9367 1005 104.514 1089.77 484.349
1049 0 87.3086 11.3391 990 105.99 1089.21 482.854
1050 0 90.1554 12.8999 1163 103.286 1089.55 480.54
1051 0 95.2696 12.9107 1230 103.087 1089.68 479.151
1052 0 97.2479 13.1005 1274 103.801 1089.21 473.016
1053 1 56.1281 10.3335 580 103.876 1091.11 500.124
1054 0 58.0279 11.2187 651 103.599 1090.81 498.243
1055 0 59.1092 11.2673 666 103.345 1090.58 496.614
1056 0 61.1376 13.1997 807 99.5601 1090.26 494.439
1057 0 62.2698 11.7232 730 103.856 1089.98 493.56
1058 0 63.1729 12.5529 793 101.822 1090.15 492.982
1059 0 66.3392 13.2501 879 99.2423 1090.12 493.81
1060 0 68.1907 12.1131 826 101.702 1090.7 493.236
1061 0 71.2924 12.8766 918 100.719 1089.77 489.687
1062 0 74.1351 13.3135 987 99.9433 1089.68 489.484
1063 0 76.3655 12.7937 977 101.904 1089.99 485.808
1064 0 79.2563 13.9421 1105 100.458 1090.4 487.259
1065 0 82.1802 14.3709 1181 100.299 1089.99 486.888
1066 0 84.3154 15.0981 1273 100.041 1089.77 484.918
1067 0 87.2829 13.7255 1198 102.77 1089.73 484.813
1068 0 87.2677 13.2924 1160 106.193 1089.6 482.635
1069 0 89.3815 12.3515 1104 109.551 1089.42 481.212
1070 0 95.226 14.2503 1357 105.788 1089.25 480.97
1071 1 50.1124 10.1771 510 111.443 1088.51 500.992
1072 0 51.0639 11.2212 573 110.044 1088.81 501.524
1073 0 55.0708 11.694 644 108.766 1090.88 500.689
1074 0 56.0892 12.6941 712 106.941 1088.68 500.67
1075 0 56.0741 12.6975 712 103.558 1087.45 498.291
1076 0 57.0415 12.4295 709 105.415 1087.75 498.429
1077 0 60.0411 13.5074 811 103.561 1087.37 495.972
1078 0 60.0382 12.4088 745 107.906 1086.97 497.497
1079 0 62.0689 13.1789 818 105.159 1089.61 499.644
1080 0 61.0562 11.8088 721 110.865 1090.27 498.06
1081 0 64.0971 12.8399 823 109.154 1091.1 494.39
1082 0 66.1152 11.9942 793 110.571 1090.42 493.849
1083 0 68.1267 13.3868 912 108.785 1090.44 491.853
1084 0 71.1689 13.8544 986 108.521 1090.21 489.273
1085 0 73.2155 12.0603 883 112.42 1090.87 490.511
1086 0 72.232 12.6537 914 113.965 1090.38 488.351
1087 0 76.1171 12.6647 964 113.815 1090.76 487.736
1088 0 79.1682 12.745 1009 113.132 1090.24 488.918
1089 0 81.2074 13.8657 1126 113.037 1089.76 487.544
1090 0 84.1511 14.2719 1201 112.823 1090.11 484.504
1091 0 85.2201 12.9195 1101 117.506 1090.36 484.502
1092 0 87.2462 13.204 1152 118.061 1089.66 482.69
1093 0 91.1578 13.4163 1223 117.094 1089.38 482.065
1094 0 93.1201 13.1765 1227 119.173 1089.09 480.717
1095 1 53.1328 11.9512 635 119.683 1088.29 502.016
1096 0 57.2668 14.5285 832 113.941 1087.96 497.788
1097 0 55.0464 13.4795 742 114.575 1088.67 499.532
1098 0 57.0756 12.4747 712 115.376 1087.47 496.997
1099 0 59.1338 13.647 807 114.139 1087.43 497.136
1100 0 60.1039 12.3453 742 116.999 1087.23 497.705
1101 0 64.045 13.7403 880 113.69 1087.56 494.603
1102 0 66.0536 13.9735 923 112.754 1087.32 492.71
1103 0 68.0997 13.5537 923 115.395 1087.27 492.522
1104 0 68.1168 13.1392 895 117.486 1087.44 490.645
1105 0 72.1555 14.3717 1037 112.794 1087.61 490.428
1106 0 74.0807 13.0263 965 117.178 1087.01 490.469
1107 0 77.0861 13.8287 1066 114.904 1087.32 488.909
1108 0 78.109 14.723 1150 113.81 1087.66 485.58
1109 0 81.0641 13.8656 1124 115.538 1087.59 485.897
1110 0 84.1121 13.2323 1113 116.882 1087.46 486.641
1111 0 88.1686 14.9713 1320 112.227 1087.73 484.478
1112 0 90.1872 14.6806 1324 114.245 1088.13 483.21
1113 0 92.3079 13.8775 1281 115.828 1088.33 481.667
1114 0 95.3196 13.5964 1296 116.614 1088.65 479.223
1115 0 96.2434 13.9542 1343 117.043 1088.92 479.802
1116 0 99.2386 14.6516 1454 115.589 1088.46 478.549
1117 0 101.199 14.0812 1425 116.916 1088.38 475.333
1118 0 107.152 14.6895 1574 114.338 1088.49 474.989
1119 0 108.359 14.1289 1531 117.446 1089.18 470.633
1120 0 114.364 14.1303 1616 120.499 1088.54 469.585
1121 0 117.502 13.6933 1609 119.915 1088.89 466.165
1122 1 63.0359 10.8827 686 120.494 1090.17 495.732
1123 0 67.0662 13.3599 896 114.753 1089.77 494.931
1124 0 68.2342 12.1933 832 117.809 1089.96 493.999
1125 0 70.22 13.9277 978 115.13 1090.57 492.266
1126 0 73.285 13.4543 986 115.132 1090.63 490.39
1127 0 76.2105 12.2687 935 117.902 1090.78 489.101
1128 0 80.2439 14.3562 1152 112.416 1090.31 487.759
1129 0 79.3332 12.9958 1031 116.336 1090.33 487.813
1130 0 83.4752 13.8604 1157 114.086 1090.13 485.423
1131 0 84.2282 12.8104 1079 117.804 1090.11 483.579
1132 0 87.434 12.4208 1086 117.226 1089.92 486.205
1133 0 90.2746 14.1014 1273 114.683 1090.15 481.855
1134 0 93.3115 13.7496 1283 115.512 1090.07 481.442
1135 0 97.401 13.8089 1345 114.981 1089.4 478.345
1136 0 98.2815 13.7768 1354 114.781 1088.56 479.165
1137 0 99.3364 12.211 1213 119.864 1089.77 475.966
1138 0 104.407 13.1888 1377 117.079 1089.1 472.348
1139 0 107.293 13.4211 1440 116.362 1089.17 472.219
1140 0 112.627 14.4193 1624 112.648 1089.56 471.586
1141 0 114.286 13.0024 1486 116.756 1089.84 465.685
1142 0 119.394 13.5099 1613 114.264 1088.94 467.551
1143 1 66.2981 11.0109 730 114.553 1089.12 487.911
1144 0 70.3452 11.3156 796 112.386 1089.01 486.209
1145 0 74.1112 12.2654 909 109.725 1090.26 489.226
1146 0 78.1436 13.0529 1020 107.097 1090.29 488.928
1147 0 79.1369 13.0028 1029 108.24 1089.97 485.817
1148 0 80.2142 11.1826 897 111.692 1089.75 484.637
1149 0 86.1755 13.1012 1129 107.438 1089.39 481.78
1150 0 85.3051 11.6875 997 112.014 1088.43 481.097
1151 0 90.2741 12.3624 1116 110.086 1088.91 480.264
1152 0 96.3966 13.9424 1344 105.603 1088.33 480.01
1153 0 97.2586 13.716 1334 107.641 1089 474.385
1154 0 101.573 12.8479 1305 109.12 1088.53 475.395
1155 0 103.458 12.7202 1316 110.423 1088.62 468.148
1156 0 107.338 11.6268 1248 103.987 1087.57 470.511
1157 0 111.435 12.1236 1351 103.127 1088.02 472.823
1158 0 114.543 12.0653 1382 104.648 1087.5 466.937
1159 1 58.4002 11.7294 685 100.629 1087.6 493.921
1160 0 59.2556 12.657 750 99.8773 1087.58 494.343
1161 0 61.2432 11.985 734 100.82 1087.56 494.283
1162 0 63.1486 12.4152 784 102.895 1087.33 493.334
1163 0 65.1707 11.8612 773 104.36 1087.61 494.197
1164 0 68.2449 13.0706 892 102.093 1087.47 488.676
1165 0 72.2218 13.2508 957 101.341 1087.46 487.704
1166 0 72.1364 12.31 888 103.637 1088.48 487.306
1167 0 75.1529 13.4526 1011 101.806 1087.98 484.977
1168 0 78.1805 13.0851 1023 101.501 1088.17 486.756
1169 0 81.2927 13.1746 1071 101.49 1087.66 483.824
1170 0 83.1931 12.7414 1060 103.251 1087.84 482.447
1171 0 85.2288 12.883 1098 103.518 1088.14 480.663
1172 0 91.2891 14.35 1310 100.091 1087.71 478.894
1173 0 92.2916 13.0131 1201 103.142 1087.73 477.319
1174 0 96.202 13.5444 1303 103.347 1088.05 475.796
1175 0 99.2682 13.5391 1344 104.033 1088.28 474.412
1176 0 103.172 14.4031 1486 102.985 1087.33 472.09
1177 0 106.278 14.6126 1553 104.406 1088.07 471.381
1178 0 109.353 13.4611 1472 110.092 1087.92 470.899
1179 0 113.235 13.1231 1486 113.421 1088.22 471.592
1180 0 116.328 14.6483 1704 113.657 1088.65 464.866
1181 0 119.217 14.6036 1741 114.494 1088.94 461.953
1182 0 121.215 13.9339 1689 112.333 1089.01 461.658
1183 0 128.301 14.4971 1860 109.32 1088.89 460.902
1184 0 132.472 13.8822 1839 112.658 1088.8 460.434
1185 0 138.36 15.3729 2127 112.148 1089.09 456.282
1186 0 142.417 13.3762 1905 115.71 1088.69 456.144
1187 0 144.505 14.3732 2077 116.643 1089.58 449.216
1188 0 152.564 15.3182 2337 112.492 1088.77 450.35
1189 0 155.38 14.0301 2180 113.832 1089.17 443.716
1190 0 161.543 14.2996 2310 113.368 1088.74 439.45
1191 1 68.2716 11.2931 771 106.805 1088.79 487.266
1192 0 67.1093 11.1162 746 103.634 1089.82 486.656
1193 0 69.2277 11.845 820 95.0024 1089.39 485.957
1194 0 74.2064 11.9936 890 94.1843 1089.97 485.839
1195 0 74.192 11.0659 821 96.123 1089.1 486.418
1196 0 77.2285 12.9486 1000 93.815 1089.33 483.047
1197 0 79.1416 11.0814 877 96.2429 1089.65 485.399
1198 0 82.0601 11.7353 963 103.366 1087.16 478.353
1199 0 85.1017 12.1972 1038 112.404 1086.68 484.519
1200 0 89.1717 12.975 1157 110.617 1086.16 481.522
1201 0 93.0224 14.1686 1318 107.638 1086.59 482.319
1202 0 96.058 12.482 1199 111.967 1087.05 481.366
1203 1 48.1173 11.0148 530 110.253 1087.54 505.009
1204 0 51.1564 12.7061 650 107.808 1086.56 502.057
1205 0 52.2797 12.9496 677 108.558 1088.23 499.991
1206 0 55.0737 13.2731 731 107.137 1086.98 500.558
1207 0 53.1127 12.1628 646 105.791 1087.23 502.299
1208 0 55.0822 12.1818 671 107.384 1087.26 499.498
1209 0 60.1157 13.0582 785 102.786 1087.5 497.064
1210 0 57.042 12.6924 724 106.325 1086.34 499.782
1211 0 59.1522 11.3943 674 109.507 1086.76 500.577
1212 0 69.2283 16.3806 1134 99.9145 1087.23 490.897
1213 0 73.214 16.9503 1241 98.4875 1087.45 491.998
1214 0 72.2028 15.595 1126 104.103 1087.18 490.502
1215 0 74.1883 17.3073 1284 101.635 1087.17 488.288
1216 0 73.2378 13.5586 993 112.328 1087.11 490.17
1217 0 75.2389 13.2511 997 112.999 1086.75 488.652
1218 0 76.1034 12.3122 937 114.727 1086.92 489.213
1219 0 80.1506 14.9094 1195 108.822 1086.95 486.316
1220 0 83.3523 14.0728 1173 109.601 1086.67 487.61
1221 0 88.2364 15.4585 1364 105.882 1087.54 484.807
1222 0 91.3798 14.9486 1366 106.474 1087.52 485.181
1223 0 91.4879 13.5537 1240 112.297 1086.45 481.01
1224 0 95.3327 14.9057 1421 109.234 1086.8 478.949
1225 0 97.3175 12.4644 1213 114.737 1087.37 477.618
1226 0 101.306 13.4444 1362 111.62 1088.3 479.026
1227 0 107.496 14.1494 1521 110.064 1088.6 476.078
1228 0 108.39 13.4791 1461 113.037 1088.88 476.166
1229 0 109.328 13.0068 1422 116.016 1088.79 468.146
1230 0 114.426 13.5283 1548 114.487 1088.61 469.181
1231 1 58.3031 10.394 606 117.744 1088.01 496.639
1232 0 61.2748 12.9254 792 111.357 1087.77 493.468
1233 0 63.1333 14.1922 896 100.27 1088.23 495.664
1234 0 67.177 15.2582 1025 102.82 1087.83 493.548
1235 0 67.1889 13.1569 884 108.969 1087.2 494.514
1236 0 72.2657 15.2631 1103 104.23 1087.87 491.838
1237 0 72.2086 13.281 959 109.424 1087.2 492.888
1238 0 75.2658 13.5918 1023 108.782 1087.43 492.834
1239 0 78.2964 15.2625 1195 104.665 1087.32 488.962
1240 0 79.3265 13.5012 1071 110.182 1086.76 489.773
1241 0 82.2305 13.8756 1141 109.377 1087.06 488.169
1242 0 85.2921 13.6589 1165 109.863 1087.22 486.523
1243 0 89.3769 14.0752 1258 109.207 1087.48 482.503
1244 0 92.4409 15.848 1465 104.729 1086.97 483.569
1245 0 95.3521 13.5603 1293 110.643 1087.04 482.548
1246 0 99.451 13.836 1376 110.056 1087.42 478.569
1247 0 101.48 13.2242 1342 112.769 1086.95 477.914
1248 0 106.649 13.5773 1448 111.751 1087.33 475.74
1249 0 109.577 13.1415 1440 113.401 1088 473.823
1250 0 114.576 13.8162 1583 111.603 1087.84 469.28
1251 0 116.686 12.5808 1468 115.969 1086.65 463.151
1252 0 121.601 13.5278 1645 112.928 1087.12 460.32
1253 0 123.559 12.1561 1502 113.433 1087.05 461.537
1254 1 61.3771 12.187 748 107.221 1087.52 491.96
1255 0 64.4245 12.2158 787 106.942 1087.7 491.851
1256 0 66.1619 12.8775 852 106.131 1087.05 491.047
1257 0 68.1817 12.4374 848 106.659 1087 492.67
1258 0 71.2517 13.2909 947 104.44 1086.43 490.453
1259 0 73.2314 12.6585 927 106.631 1087.47 490.519
1260 0 76.1705 12.7346 970 105.963 1087.41 489.176
1261 0 80.2278 13.3619 1072 105.568 1087.59 489.016
1262 0 84.229 13.0715 1101 107.054 1088.08 488.5
1263 0 85.2102 13.5547 1155 109.589 1087.37 485.391
1264 0 89.3583 14.4363 1290 106.667 1087.65 485.678
1265 0 92.321 12.8573 1187 111.548 1087.15 480.579
1266 1 50.3297 11.3651 572 107.281 1087.61 502.78
1267 0 49.2006 11.8088 581 111.022 1087.12 499.189
1268 0 50.2224 13.2013 663 105.831 1087.41 500.499
1269 0 52.0487 12.2193 636 107.332 1087.56 503.98
1270 0 54.0489 11.5821 626 108.217 1086.32 501.537
1271 0 55.0722 12.2022 672 107.719 1086.48 500.738
1272 0 56.0663 13.2522 743 105.999 1086.68 500.921
1273 0 58.1554 12.9996 756 108.659 1087.4 497.848
1274 0 60.1616 14.112 849 105.687 1088.04 497.971
1275 0 62.3892 12.8388 801 108.142 1089.46 497.272
1276 0 63.1751 12.2517 774 110.236 1088.92 497.895
1277 0 67.1992 13.6906 920 106.802 1089.02 494.708
1278 0 68.2153 13.6186 929 107.755 1089.1 491.708
1279 0 71.2049 13.3137 948 106.896 1089.02 494.066
1280 0 72.2267 13.153 950 109.137 1089.01 491.149
1281 0 76.2228 12.5422 956 109.288 1088.87 489.946
1282 0 80.2228 13.3877 1074 107.673 1089.13 489.418
1283 0 83.1938 13.4746 1121 107.616 1088.69 485.571
1284 0 84.2742 12.1389 1023 111.436 1088.69 486.594
1285 0 87.2922 13.7011 1196 110.179 1088.62 481.201
1286 0 91.2465 13.1402 1199 111.803 1088.7 482.162
1287 1 48.1037 11.8078 568 112.415 1086.76 502.745
1288 0 52.1404 12.7732 666 111.556 1087.28 500.967
1289 0 52.1328 13.8684 723 110.925 1086.79 495.495
1290 0 53.084 12.7722 678 117.165 1086.51 501.729
1291 0 54.1934 14.3191 776 113.282 1086.9 500.41
1292 0 56.1953 13.7734 774 114.012 1086.62 500.271
1293 0 56.1647 13.4426 755 116.788 1086.92 499.128
1294 0 59.1623 13.6404 807 114.939 1087.08 499.399
1295 0 62.1846 14.2157 884 114.215 1088.09 497.075
1296 0 63.2572 14.449 914 114.123 1087.85 495.452
1297 0 65.2331 14.0266 915 114.209 1088.3 496.267
1298 0 67.2432 12.6258 849 117.761 1087.74 493.291
1299 0 71.3639 13.256 946 115.315 1088.02 492.969
1300 0 74.3066 15.0189 1116 111.093 1088.02 490.772
1301 0 76.3385 14.6846 1121 110.988 1088.32 491.666
1302 0 79.4181 15.6136 1240 109.606 1088 487.745
1303 0 80.3454 14.2385 1144 113.32 1088.06 487.504
1304 0 83.262 14.7246 1226 112.271 1089.03 486.479
1305 0 86.4049 13.3789 1156 111.347 1088.9 483.193
1306 0 91.273 13.1912 1204 110.986 1088.11 482.425
1307 1 47.212 11.3954 538 105.814 1088.52 503.584
1308 0 49.1904 13.9865 688 103.872 1088.81 503.362
1309 0 51.3074 13.7017 703 103.634 1088.93 502.164
1310 0 52.1709 12.344 644 107.318 1089.27 502.352
1311 0 54.1253 13.8198 748 104.938 1089.82 500.238
1312 0 56.1332 13.1829 740 105.136 1090.08 500.872
1313 0 59.1262 13.4796 797 103.718 1089.61 499.245
1314 0 60.1159 13.5405 814 105.168 1089.55 496.862
1315 0 61.1367 11.875 726 109.101 1089.6 496.194
1316 0 65.1337 13.8024 899 104.67 1089.96 494.345
1317 0 67.1269 13.2436 889 105.771 1090.1 493.303
1318 0 69.0904 12.158 840 108.254 1089.79 494.45
1319 0 73.1186 14.2508 1042 104.754 1089.21 491.922
1320 0 73.2355 12.5622 920 108.941 1089.4 491.976
1321 0 76.1296 12.8728 980 109.581 1088.97 488.912
1322 0 79.2739 12.6776 1005 109.728 1088.91 489.957
1323 0 81.2453 12.6038 1024 111.42 1089.35 486.837
1324 0 85.1504 14.5038 1235 107.778 1088.89 482.527
1325 0 89.1476 13.1692 1174 110.229 1088.91 483.712
1326 0 91.2769 12.5223 1143 114.783 1088.74 481.665
1327 1 49.078 11.716 575 113.678 1089.2 502.835
1328 0 50.3002 13.3399 671 111.69 1088.41 498.978
1329 0 53.2507 14.3284 763 109.042 1088.45 499.916
1330 0 53.2961 13.6783 729 111.981 1088.64 501.064
1331 0 56.0319 14.6167 819 116.612 1087.44 499.883
1332 0 59.1035 14.9568 884 116.286 1087.31 498.798
1333 0 59.0791 13.6258 805 121.401 1087 499.589
1334 0 61.1286 15.1975 929 119.76 1087.65 497.446
1335 0 63.35 14.1594 897 122.076 1087 497.676
1336 0 64.1426 13.6882 878 124.089 1087.35 496.986
1337 0 68.1236 16.3233 1112 117.402 1087.63 495.061
1338 0 67.2351 13.951 938 125.881 1086.72 494.894
1339 0 70.3433 14.7562 1038 123.969 1086.41 492.247
1340 0 73.2543 13.6374 999 124.326 1087.12 494.359
1341 0 76.1273 14.6465 1115 122.591 1087.47 491.265
1342 0 76.1521 13.6437 1039 125.511 1087.15 491.293
1343 0 80.2173 14.8846 1194 121.818 1087.34 489.455
1344 0 84.2603 14.3009 1205 123.646 1087.34 487.926
1345 0 87.3377 14.9763 1308 122.374 1087.62 487.209
1346 0 89.4619 14.699 1315 124.079 1087 483.074
1347 0 90.2889 13.5786 1226 125.204 1087.42 481.117
1348 0 94.3036 14.0928 1329 122.437 1086.7 481.633
1349 0 98.1556 14.314 1405 122.02 1087.19 480.063
1350 0 101.39 13.8771 1407 123.014 1088.33 475.665
1351 0 105.221 13.8471 1457 122.641 1088.49 475.861
1352 0 108.316 14.5593 1577 121.294 1088.14 472.554
1353 0 113.268 13.7903 1562 122.819 1088.22 470.291
1354 0 116.196 13.0641 1518 124.511 1088.13 469.636
1355 0 120.382 12.9754 1562 123.703 1088.26 467.651
1356 1 64.0705 13.1418 842 123.542 1088.96 493.224
1357 0 68.1921 13.6673 932 120.403 1089.03 492.926
1358 0 71.1836 13.8655 987 120.85 1088.51 491.792
1359 0 72.3023 13.2638 959 123.213 1088.53 490.099
1360 0 73.2636 13.1989 967 123.509 1088.33 490.151
1361 0 76.3522 13.5949 1038 121.124 1088.61 488.314
1362 0 81.202 14.7533 1198 117.819 1088.08 486.366
1363 0 80.209 12.9412 1038 122.151 1087.82 488.188
1364 0 86.5174 14.0781 1218 118.219 1087.92 486.202
1365 0 87.3344 15.2174 1329 116.79 1087.73 481.679
1366 0 91.3371 14.5067 1325 117.429 1088.25 479.536
1367 0 95.6166 14.6104 1397 117.273 1087.71 478.974
1368 0 96.183 13.4743 1296 114.871 1088.38 481.345
1369 0 98.3155 12.8566 1264 117.238 1088.15 478.317
1370 0 103.216 14.4455 1491 113.643 1087.95 477.283
1371 0 105.298 13.8464 1458 116.199 1087.72 473.629
1372 0 108.173 13.5524 1466 115.866 1087.74 473.98
1373 0 112.249 13.2207 1484 117.22 1088.3 471.467
1374 0 116.122 13.4514 1562 117.05 1086.76 469.012
1375 0 120.235 12.6835 1525 119.508 1086.54 465.035
1376 0 127.228 13.629 1734 116.885 1086.76 463.905
1377 0 132.385 14.0197 1856 115.414 1087.24 464.722
1378 0 136.258 15.845 2159 112.478 1087 461.334
1379 0 140.509 14.1414 1987 117.279 1086.76 457.837
1380 0 144.59 13.6109 1968 120.725 1087.42 456.367
1381 1 79.3599 13.2561 1052 117.011 1087.5 488.414
1382 0 83.389 14.2225 1186 115.185 1087.34 484.378
1383 0 86.444 13.662 1181 117.558 1086.56 484.522
1384 0 86.4155 13.5508 1171 120.141 1086.76 481.36
1385 0 91.5488 14.6152 1338 113.834 1087.04 483.41
1386 0 94.4214 15.4308 1457 111.811 1087.98 480.577
1387 0 96.4101 15.071 1453 113.176 1087.45 477.158
1388 0 100.287 14.5084 1455 114.258 1088.19 478.131
1389 0 103.549 15.3358 1588 114.339 1088.31 475.137
1390 0 106.558 14.546 1550 121.09 1087.93 473.887
1391 0 111.77 14.9862 1675 119.362 1088.75 473.542
1392 0 111.42 13.7766 1535 117.392 1088.19 466.135
1393 0 117.46 13.7919 1620 115.875 1088.21 468.295
1394 0 120.58 12.7052 1532 118.247 1088.03 465.086
1395 0 124.488 13.4712 1677 117.029 1088.18 460.777
1396 0 129.335 13.6622 1767 115.848 1088 460.746
1397 0 132.395 12.8253 1698 117.537 1087.95 459.409
1398 0 138.394 12.9558 1793 116.84 1087.23 456.216
1399 0 141.546 13.4868 1909 117.214 1087.95 449.956
1400 0 146.406 13.7631 2015 117.889 1087.9 448.256
1401 0 151.523 13.7405 2082 117.206 1088.45 445.459
1402 0 156.39 13.7988 2158 118.096 1087.87 442.863
1403 1 81.2628 11.6043 943 115.561 1087.94 482.76
1404 0 86.28 12.7028 1096 115.985 1087.6 477.813
1405 0 89.2056 12.7683 1139 117.995 1086.43 480.999
1406 0 91.1641 12.3294 1124 119.02 1086.78 478.504
1407 0 93.2304 12.142 1132 119.398 1087.09 477.562
1408 0 98.3258 14.1672 1393 114.508 1087.77 471.268
1409 0 99.2159 12.6089 1251 118.657 1087.79 469.379
1410 0 105.399 14.0608 1482 115.123 1087.36 467.356
1411 0 108.367 13.2143 1432 117.597 1087.44 466.242
1412 0 112.249 14.0313 1575 115.246 1087.75 462.42
1413 0 116.304 15.0553 1751 112.664 1087.6 459.784
1414 0 118.214 14.7021 1738 114.897 1087.05 454.951
1415 0 126.289 14.0471 1774 115.503 1087.71 456.577
1416 0 128.411 12.4678 1601 119.276 1087.42 454.955
1417 0 134.479 13.7939 1855 116.056 1087.09 450.955
1418 0 139.321 14.2548 1986 115.331 1087.43 450.617
1419 0 144.514 14.1509 2045 115.405 1087.16 447.174
1420 1 78.325 13.7376 1076 109.586 1087.26 478.055
1421 0 82.1369 13.0879 1075 110.617 1085.64 484.138
1422 0 83.0716 13.1333 1091 110.998 1086.07 483.704
1423 0 85.2163 13.5655 1156 111.53 1086.5 480.936
1424 0 87.0964 13.2267 1152 112.349 1086.91 478.674
1425 0 91.2704 14.1338 1290 110.656 1086.51 478.929
1426 0 93.3118 14.5426 1357 110.936 1087.04 478.279
1427 0 98.1866 13.8104 1356 112.249 1087.3 476.861
1428 0 101.304 13.0202 1319 115.926 1088.04 474.294
1429 0 104.26 14.1857 1479 113.683 1087.19 473.736
1430 0 108.347 14.6843 1591 113.554 1087.27 472.82
1431 0 111.146 14.2875 1588 119.003 1087.05 467.948
1432 1 62.0428 11.7016 726 117.383 1087.41 495.47
1433 0 63.0421 12.3885 781 118.455 1087.2 492.184
1434 0 67.0817 13.1481 882 111.616 1086.88 490.183
1435 0 67.1739 12.0285 808 119.349 1087.26 487.87
1436 0 70.168 12.3561 867 118.599 1086.8 486.113
1437 0 74.2058 15.0393 1116 111.53 1086.87 486.758
1438 0 77.3218 14.3556 1110 112.408 1086.74 485.168
1439 0 79.2586 13.702 1086 113.96 1086.68 485.256
1440 0 81.2016 13.8175 1122 115.809 1087.04 481.102
1441 0 85.3653 14.3384 1224 113.359 1086.92 481.811
1442 0 86.3318 14.1894 1225 115.471 1087.24 479.339
1443 0 90.2718 14.0465 1268 114.773 1087.62 479.627
1444 0 90.3975 14.4362 1305 115.651 1087.39 475.291
1445 0 94.3216 13.9841 1319 114.221 1087.8 476.088
1446 0 96.186 13.4739 1296 113.343 1088.97 474.072
1447 0 99.2401 13.3615 1326 114.816 1088.4 470.51
1448 0 101.275 12.0957 1225 117.134 1088.03 470.946
1449 1 53.1765 11.8473 630 107.444 1088.66 498.83
1450 0 54.0567 13.7448 743 105.198 1088.81 496.736
1451 0 56.0593 13.2003 740 112.173 1089.97 496.577
1452 0 58.0883 12.5154 727 113.856 1089.52 493.937
1453 0 57.0562 11.9531 682 115.446 1090.39 494.33
1454 0 59.2852 12.6339 749 114.27 1088.82 493.443
1455 0 61.1628 13.0799 800 111.744 1088.59 492.038
1456 0 65.0896 13.1818 858 109.918 1089.98 493.119
1457 0 67.0583 12.3176 826 113.039 1089.63 491.275
1458 0 67.0665 12.3907 831 114.41 1089.49 488.981
1459 0 72.039 13.7842 993 111.408 1089.3 488.212
1460 0 73.0765 13.5611 991 113.382 1089.03 487.944
1461 0 77.1434 13.5981 1049 113.716 1089.08 486.517
1462 0 77.1198 13.304 1026 116.029 1088.99 486.029
1463 0 81.3431 14.1868 1154 113.932 1089.35 482.345
1464 0 83.4874 13.535 1130 117.529 1088.98 478.136
1465 0 87.5998 14.4521 1266 115.111 1089.02 475.508
1466 0 88.5734 13.7513 1218 118.346 1089.16 473.562
1467 0 91.3526 13.6176 1244 118.584 1088.96 474.593
1468 0 93.4375 13.485 1260 120.555 1089.69 471.516
1469 0 98.5494 12.8666 1268 120.832 1089.28 470.39
1470 0 102.523 14.4357 1480 117.178 1089.54 470.202
1471 1 52.4274 11.8068 619 116.958 1090.14 496.354
1472 0 55.1758 12.5417 692 115.075 1090.05 495.4
1473 0 55.1796 13.302 734 115.475 1089.67 492.499
1474 0 59.1929 13.0421 772 115.157 1088.83 497.887
1475 0 59.1394 12.7326 753 117.811 1088.7 493.797
1476 0 61.1851 12.7645 781 117.891 1088.94 493.151
1477 0 65.2531 13.394 874 116.061 1089.28 491.26
1478 0 70.2614 14.6453 1029 116.353 1088.93 491.57
1479 0 70.2502 13.4519 945 116.509 1089.12 490.296
1480 0 72.2811 14.914 1078 114.355 1089.59 489.137
1481 0 75.2917 13.3348 1004 117.911 1089.49 489.004
1482 0 76.2153 13.3044 1014 120.165 1089.67 486.657
1483 0 81.2564 15.0142 1220 115.376 1088.93 487.538
1484 0 84.3527 14.2734 1204 117.925 1087.49 480.472
1485 0 87.3318 13.3056 1162 120.699 1088.17 480.33
1486 0 90.2018 14.2902 1289 117.836 1088.23 480.5
1487 0 91.278 13.1467 1200 122.284 1087.56 471.952
1488 1 48.0621 10.9234 525 115.297 1085.88 496.987
1489 0 50.0767 12.0815 605 112.395 1086.61 501.013
1490 0 53.0154 12.2229 648 111.981 1086.27 499.201
1491 0 54.037 12.4359 672 113.204 1086.61 500.112
1492 0 55.0775 12.1465 669 113.555 1086.43 499.595
1493 0 55.3685 12.9496 717 115.671 1088.34 498.262
1494 0 57.4124 12.2622 704 118.024 1088.66 496.945
1495 0 57.3296 11.6694 669 120.948 1088.24 495.919
1496 0 60.311 12.4853 753 118.542 1088.49 494.494
1497 0 64.3928 12.5946 811 116.736 1089.06 494.663
1498 0 66.4518 13.664 908 115.487 1089.22 493.893
1499 0 67.3516 13.0955 882 117.814 1088.77 493.652
1500 0 67.329 12.5652 846 121.331 1088.58 490.158
1501 0 72.2526 13.6051 983 117.889 1087.46 491.475
1502 0 74.2924 13.0834 972 119.23 1088.01 491.429
1503 0 74.1075 11.5508 856 116.218 1088.09 490.891
1504 0 77.1102 12.5535 968 107.1 1088.32 488.494
1505 0 76.1012 10.8277 824 113.46 1088.83 487.922
1506 0 79.1714 12.7319 1008 111.755 1088.54 486.335
1507 0 78.2161 12.6317 988 115.144 1089.11 484.121
1508 0 82.1385 12.6128 1036 115.364 1089.24 485.637
1509 0 80.1168 10.934 876 121.862 1088.59 484.486
1510 0 83.147 11.4857 955 122.341 1089.07 482.586
1511 0 88.2347 12.0247 1061 118.764 1089.62 483.224
1512 1 46.052 9.663 445 118.488 1090.02 503.524
1513 0 47.0367 10.3749 488 112.869 1089.1 502.322
1514 0 50.0514 10.689 535 108.538 1089.03 503.789
1515 0 51.0646 10.9861 561 113.742 1089.99 500.219
1516 0 52.0845 12.1917 635 111.923 1089.19 500.23
1517 0 53.0608 11.0062 584 114.135 1090.1 500.452
1518 0 56.0952 12.6036 707 110.108 1089.48 499.795
1519 0 56.0395 11.599 650 114.189 1089.48 497.908
1520 0 57.0595 11.9875 684 113.588 1089.34 496.105
1521 0 58.0452 12.0423 699 114.464 1089.9 496.295
1522 0 60.0984 11.4146 686 116.854 1089.14 494.876
1523 0 63.0739 12.7787 806 113.087 1089.45 496.433
1524 0 63.1248 11.0892 700 118.746 1089.78 496.636
1525 0 65.1242 11.0558 720 121.738 1088.17 494.454
1526 0 68.0623 12.0037 817 119.18 1088.62 493.677
1527 0 69.1347 11.4559 792 122.63 1088.85 492.586
1528 0 73.198 13.6752 1001 116.62 1088.38 492.903
1529 0 72.1697 11.9856 865 124.142 1088.5 490.432
1530 0 75.1623 11.8943 894 124.256 1087.92 490.802
1531 0 76.0951 11.0125 838 127.514 1088.04 489.661
1532 0 80.2318 12.4514 999 124.042 1088.2 487.208
1533 1 40.0197 10.5198 421 123.857 1085.76 507.271
1534 0 38.1018 8.68726 331 126.127 1085.52 508
1535 0 41.1396 10.6467 438 127.219 1085.28 507.58
1536 0 41.1705 10.8087 445 128.778 1085.05 507.418
1537 0 45.2486 12.7518 577 122.168 1085.33 505.962
1538 0 47.219 10.9702 518 126.597 1084.81 506.008
1539 0 46.1302 10.1018 466 130.506 1085.37 504.758
1540 0 49.0928 11.631 571 125.636 1084.62 503.315
1541 0 49.1057 11.3429 557 127.567 1085.33 503.838
1542 0 51.0664 10.4766 535 130.065 1084.42 504.376
1543 0 53.1169 12.0489 640 125.989 1084.2 502.5
1544 0 54.1289 12.8767 697 123.245 1084.81 499.436
1545 0 56.1038 12.3699 694 125.618 1084.51 500.797
1546 0 56.1505 12.8761 723 125.775 1084.06 499.354
1547 0 58.1012 11.3078 657 129.845 1084.41 499.006
1548 0 60.132 11.6909 703 127.164 1083.51 499.384
1549 0 63.5046 13.999 889 120.547 1086.16 497.42
1550 0 66.337 12.7983 849 122.876 1086.27 498.251
1551 0 65.3809 13.4137 877 123.042 1085.86 496.21
1552 0 67.3858 12.0648 813 125.877 1085.28 495.584
1553 0 68.3244 13.07 893 124.722 1086.56 493.184
1554 0 71.3005 12.6086 899 123.275 1086.33 494.704
1555 0 72.3952 12.7909 926 124.506 1086.35 490.741
1556 0 75.4354 13.3226 1005 121.191 1086.08 490.302
1557 0 77.4641 12.3799 959 123.058 1085.75 489.582
1558 0 80.4092 11.7151 942 124.342 1086.1 488.891
1559 0 82.3177 11.2612 927 123.886 1086.19 490.419
1560 0 85.3452 12.5022 1067 119.828 1086.06 489.246
1561 0 89.2958 11.7251 1047 121.725 1086.72 487.045
1562 0 91.2854 12.1925 1113 121.658 1085.65 483.483
1563 1 48.25 11.772 568 118.107 1087.57 505.715
1564 0 50.1791 12.7543 640 116.053 1087.71 502.35
1565 0 52.2461 13.8575 724 111.267 1087.44 502.762
1566 0 53.4369 13.7733 736 106.708 1087.43 503.474
1567 0 55.1302 13.7311 757 101.144 1087.43 500.357
1568 0 55.2523 12.5063 691 104.014 1087.4 500.201
1569 0 55.1933 12.9182 713 103.9 1087.66 498.247
1570 0 59.1391 13.7303 812 100.591 1087.53 499.016
1571 0 61.0668 13.5753 829 102.15 1086.89 498.528
1572 0 61.1439 13.0675 799 103.506 1086.53 497.816
1573 0 64.1007 13.9 891 102.153 1087.01 494.579
1574 0 66.2 12.281 813 104.123 1087.12 496.875
1575 0 65.0528 12.9894 845 104.653 1086.89 494.52
1576 0 71.1236 14.299 1017 99.6116 1087.25 493.899
1577 0 70.1669 12.8266 900 104.66 1086.64 492.359
1578 0 75.1082 13.8201 1038 101.794 1086.35 491.963
1579 0 75.2668 12.3428 929 106.414 1086.75 490.004
1580 0 80.1482 14.311 1147 102.386 1086.1 488.051
1581 0 80.1752 12.8469 1030 106.552 1086.88 487.023
1582 0 84.164 13.1885 1110 106.018 1086.81 485.628
1583 0 87.1579 13.2977 1159 105.994 1087.01 484.704
1584 0 89.2318 13.3136 1188 107.2 1085.63 481.111
1585 1 46.0279 10.5805 487 108.922 1087.32 504.938
1586 0 50.0888 12.5178 627 101.057 1087.65 505.604
1587 0 49.4201 12.8693 636 105.137 1086.96 500.73
1588 0 50.1052 12.0946 606 108.259 1085.45 504.688
1589 0 52.1158 12.76 665 109.432 1084.35 503.662
1590 0 52.0681 12.5605 654 111.638 1084.07 503.414
1591 0 54.245 13.4759 731 109.858 1084.26 502.973
1592 0 56.1992 12.0998 680 112.372 1084.28 502.197
1593 0 57.1725 11.9813 685 113.947 1084.35 500.731
1594 0 59.0612 13.3252 787 111.388 1084.86 497.882
1595 0 61.0783 13.2944 812 112.77 1084.84 497.995
1596 0 62.1423 13.63 847 112.438 1085.09 497.505
1597 0 64.1703 13.4642 864 113.797 1084.35 496.014
1598 0 66.1832 13.4324 889 115.109 1084.46 494.831
1599 0 68.1772 13.4502 917 115.396 1084.9 494.703
1600 0 71.3526 13.3702 954 117.974 1085.54 491.1
1601 0 75.3982 14.3505 1082 114.627 1085.18 490.933
1602 0 78.3473 14.5889 1143 115.168 1086.1 488.252
1603 0 81.4583 14.0317 1143 116.397 1085.9 487.795
1604 0 83.2171 13.7832 1147 118.242 1085.43 485.431
1605 0 87.2311 14.1578 1235 116.315 1085.19 486.015
1606 0 89.3597 14.1339 1263 117.095 1085.7 483.125
1607 0 94.2673 14.7559 1391 115.665 1086.31 480.648
1608 0 97.2456 13.5636 1319 116.322 1085.89 482.748
1609 1 52.3546 12.4344 651 118.541 1086.89 501.685
1610 0 55.3708 14.3216 793 112.248 1086.69 496.267
1611 0 56.2309 14.2982 804 115.496 1086.49 500.641
1612 0 57.2318 14.1355 809 117.562 1087.16 497.967
1613 0 60.241 13.9274 839 115.591 1086.62 499.865
1614 0 62.2221 13.2268 823 117.727 1086.14 496.871
1615 0 64.2363 13.139 844 116.981 1086.6 496.485
1616 0 64.247 12.8566 826 119 1085.96 496.426
1617 0 67.2633 12.518 842 120.268 1086.76 492.195
1618 0 69.2514 13.7326 951 117.199 1087.06 491.832
1619 0 73.247 14.3214 1049 114.473 1085.97 491.216
1620 0 74.2827 13.7044 1018 116.547 1086.07 490.472
1621 0 76.3602 13.2268 1010 118.446 1086.45 486.498
1622 0 77.3511 12.1007 936 120.705 1086.32 486.759
1623 0 82.3458 13.1761 1085 116.558 1086.28 485.966
1624 0 82.2993 13.1471 1082 118.55 1085.59 483.13
1625 0 86.1971 14.6873 1266 114.27 1084.87 481.115
1626 0 88.3842 13.43 1187 117.586 1084.93 477.914
1627 0 94.4013 14.9362 1410 112.173 1085.73 479.358
1628 0 94.3574 13.6502 1288 116.856 1085.49 471.903
1629 0 98.6412 13.5947 1341 114.966 1085.43 471.915
1630 0 100.364 13.72 1377 115.22 1085.4 469.936
1631 0 105.309 13.7975 1453 113.725 1085.29 470.627
1632 0 109.289 14.1369 1545 112.284 1085.59 465.727
1633 0 112.4 12.8202 1441 115.146 1085.11 463.242
1634 1 60.2516 13.2611 799 108.464 1085.79 492.407
1635 0 60.1584 11.3534 683 109.833 1086.47 484.984
1636 0 66.2914 13.0786 867 104.844 1085.96 490.195
1637 0 65.1466 13.7843 898 104.428 1084.57 490.207
1638 0 69.1234 13.8159 955 104.019 1085.13 488.57
1639 0 71.0607 15.1983 1080 101.787 1084.45 487.258
1640 0 72.0404 14.9916 1080 102.57 1084.8 485.625
1641 0 76.2219 13.2246 1008 106.59 1085.8 482.375
1642 0 80.3917 15.3498 1234 101.865 1086.03 481.566
1643 0 83.1759 13.8862 1155 105.338 1086.05 480.933
1644 0 83.3158 13.9829 1165 106.031 1086.14 479.639
1645 0 87.2491 14.3726 1254 105.254 1085.79 478.726
1646 0 90.2259 14.3085 1291 107.792 1085.4 476.029
1647 0 92.2725 14.7173 1358 95.9065 1086.03 472.706
1648 0 94.2883 15.2193 1435 106.054 1085.93 469.842
1649 0 96.2184 13.5421 1303 110.437 1086.1 467.913
1650 0 101.266 13.2226 1339 108.86 1086.02 467.553
1651 0 104.367 14.0657 1468 108.181 1085.94 463.364
1652 0 111.516 14.4464 1611 106.36 1085.26 461.713
1653 0 112.23 13.4456 1509 109.007 1085.23 462.514
1654 1 62.1765 12.8827 801 103.27 1084.89 489.886
1655 0 63.1281 13.8924 877 103.211 1084.42 486.921
1656 0 66.263 11.5902 768 107.509 1085.26 488.983
1657 0 68.3646 13.1355 898 105.014 1085.35 488.095
1658 0 70.482 12.528 883 106.284 1085.75 485.613
1659 0 70.3417 11.6289 818 109.549 1085.49 482.641
1660 0 76.3188 14.1512 1080 103.878 1085.69 480.969
1661 0 76.3176 13.0376 995 107.06 1085.81 478.53
1662 0 79.3085 12.3064 976 107.347 1085.27 481.25
1663 0 81.1886 13.1915 1071 106.605 1084.41 479.792
1664 0 86.1319 12.6202 1087 107.051 1083.72 479.859
1665 0 89.2017 12.6455 1128 108.886 1083.65 476.415
1666 0 91.2024 12.3242 1124 110.016 1084.1 477.447
1667 0 95.2501 12.9449 1233 108.399 1084.81 472.89
1668 1 47.232 10.6284 502 110.183 1083.96 493.008
1669 0 48.2057 10.31 497 111.032 1084.41 492.499
1670 0 53.1619 12.3961 659 108.543 1084.58 494.393
1671 0 54.1186 13.1193 710 108.014 1083.69 492.293
1672 0 55.1531 12.2024 673 110.076 1085.06 498.771
1673 0 58.2238 13.1218 764 108.236 1084.82 497.064
1674 0 58.1886 13.3188 775 109.409 1085.48 494.772
1675 0 62.1466 13.1302 816 109.621 1085.52 494.064
1676 0 63.1715 13.9936 884 107.92 1084.8 492.825
1677 0 65.3891 12.7544 834 113.279 1085.56 492.929
1678 0 69.3874 13.5759 942 111.712 1085.53 491.538
1679 0 72.306 14.8121 1071 109.241 1085.18 489.069
1680 0 72.5881 13.1564 955 114.101 1086.01 487.409
1681 0 79.3816 13.328 1058 112.093 1085.94 485.641
1682 0 80.6718 13.9082 1122 111.238 1085.84 480.745
1683 0 83.3994 12.7819 1066 107.107 1086.38 483.29
1684 0 85.6001 12.1962 1044 110.063 1086.02 480.645
1685 0 89.431 13.4293 1201 108.137 1086.31 477.601
1686 0 91.6218 13.4029 1228 108.429 1086.49 477.162
1687 0 94.5115 11.861 1121 112.633 1086.65 475.149
1688 1 47.4306 12.1862 578 104.417 1087.33 501.175
1689 0 49.4683 12.6546 626 104.436 1087.03 498.016
1690 0 51.2617 12.9141 662 103.332 1086.56 498.598
1691 0 52.217 11.2607 588 107.122 1087.06 501.252
1692 0 54.2347 12.4275 674 104.518 1086.96 499.524
1693 0 55.2323 13.2712 733 103.962 1086.31 496.727
1694 0 60.3712 12.3569 746 105.31 1086.46 498.225
1695 0 60.3046 11.4253 689 106.985 1086.12 497.347
1696 0 63.1482 12.827 810 104.644 1086.2 496.628
1697 0 64.1778 12.2784 788 106.933 1085.74 494.962
1698 0 66.17 12.6492 837 107.356 1085.72 492.842
1699 0 68.3573 12.186 833 109.675 1085.51 490.918
1700 0 72.3347 12.0827 874 109.256 1086.04 489.676
1701 0 74.5977 13.9012 1037 107.277 1085.88 485.747
1702 0 78.42 13.3767 1049 109.15 1085.83 482.339
1703 0 79.4089 12.2908 976 111.475 1085.91 478.94
1704 0 82.6583 12.0012 992 111.654 1084.63 479.386
1705 0 84.5019 11.7512 993 110.291 1085 476.979
1706 1 44.3901 11.7368 521 102.994 1085.44 499.733
1707 0 45.0146 10.7743 485 103.037 1085.7 504.27
1708 0 48.2984 11.5946 560 102.725 1085.13 502.462
1709 0 48.0668 12.3162 592 102.022 1084.72 502.51
1710 0 50.1406 11.5874 581 102.448 1084.97 501.835
1711 0 52.0959 11.9779 624 102.282 1085.32 501.577
1712 0 54.1061 11.459 620 106.515 1086.64 500.089
1713 0 56.1057 11.9774 672 105.503 1087.29 499.302
1714 0 56.0956 11.9617 671 106.59 1086.67 497.982
1715 0 59.1876 12.4857 739 104.433 1085.81 498.965
1716 0 61.1413 13.1989 807 103.651 1086.31 494.955
1717 0 61.2978 12.219 749 105.284 1086.28 496.208
1718 0 63.6305 12.934 823 104.266 1085.99 493.707
1719 0 66.4307 12.0426 800 107.232 1085.28 491.07
1720 0 68.6788 13.0462 896 105.724 1085.76 488.898
1721 0 70.5805 12.8931 910 106.36 1085.37 488.492
1722 0 72.6748 12.6041 916 108.199 1086.11 487.235
1723 0 77.6649 13.2621 1030 104.748 1086.07 486.084
1724 0 79.809 12.8933 1029 106.312 1086.04 484.8
1725 0 80.812 12.2135 987 108.055 1085.93 483.829
1726 0 83.5145 13.1474 1098 106.246 1085.55 482.86
1727 0 88.9401 13.436 1195 105.675 1085.63 479.926
1728 0 90.6531 12.8953 1169 107.812 1085.87 479.009
1729 1 44.4862 11.6665 519 105.726 1086.39 502.798
1730 0 44.43 11.7263 521 108.125 1086 500.52
1731 0 45.1401 11.9849 541 107.73 1086.71 503.787
1732 0 47.0857 12.1693 573 110.499 1085.32 503.492
1733 0 49.428 12.7863 632 109.606 1085.38 500.639
1734 0 52.0563 12.9283 673 109.955 1086.71 499.422
1735 0 54.1221 13.8575 750 107.051 1085.66 500.789
1736 0 56.3172 12.6072 710 110.237 1086.17 497.025
1737 0 56.6472 11.8982 674 113.061 1085.79 493.791
1738 0 58.5611 13.012 762 111.348 1086.13 492.711
1739 0 61.7722 13.1936 815 111.216 1086.04 490.44
1740 0 60.8494 13.3444 812 112.076 1086.03 490.983
1741 0 64.6721 14.5194 939 110.35 1085.41 490.027
1742 0 67.7752 14.4153 977 110.096 1086.2 490.062
1743 0 71.6753 12.0404 863 114.72 1086.16 489.705
1744 0 72.7378 13.1706 958 114.593 1085.94 486.017
1745 0 75.6276 13.7119 1037 113.365 1085.58 485.799
1746 0 76.5063 13.5675 1038 114.022 1085.1 484.912
1747 0 80.8246 13.4613 1088 114.476 1085.04 482.472
1748 0 83.5979 14.8209 1239 112.762 1085.13 480.459
1749 0 84.5709 12.7349 1077 118.197 1084.97 480.935
1750 0 89.5778 13.5971 1218 116.455 1085.83 479.636
1751 0 92.5398 14.3182 1325 115.682 1085.4 476.817
1752 0 95.5298 14.5295 1388 115.406 1085.25 475.926
1753 0 101.024 14.6995 1485 115.327 1084.96 474.659
1754 1 50.4006 12.1427 612 114.243 1086.09 497.735
1755 0 53.1624 12.4336 661 112.731 1086.24 499.039
1756 0 55.1351 13.7299 757 109.738 1085.39 499.177
1757 0 57.1065 12.3278 704 113.379 1084.98 498.033
1758 0 58.0941 12.7724 742 112.317 1087.32 498.1
1759 0 63.1653 13.6626 863 110.802 1086.97 494.812
1760 0 63.2889 12.7985 810 112.165 1086.3 493.404
1761 0 66.0766 13.0303 861 114.685 1086.38 493.851
1762 0 67.256 12.891 867 114.268 1086.18 491.461
1763 0 68.137 12.0639 822 117.277 1085.95 490.881
1764 0 74.157 13.8625 1028 112.743 1085.64 490.063
1765 0 77.1494 13.3896 1033 112.96 1085.69 490.333
1766 0 78.2496 12.2812 961 117.314 1085.15 486.86
1767 0 80.5904 12.8303 1034 116.004 1085.32 484.426
1768 0 84.6154 13.8036 1168 114.736 1085.24 480.228
1769 0 87.5097 13.5071 1182 115.541 1085.06 477.959
1770 1 45.3477 11.5552 524 111.334 1086.38 500.571
1771 0 45.0546 10.343 466 110.423 1085.98 504.045
1772 0 47.0173 11.0598 520 107.769 1087.31 503.89
1773 0 50.2928 11.9103 599 104.195 1086.79 502.402
1774 0 49.3082 11.3977 562 106.463 1086.85 501.011
1775 0 52.194 12.1662 635 104.403 1086.33 499.542
1776 0 52.2914 12.7746 668 104.353 1086.3 497.79
1777 0 53.1284 12.3663 657 104.205 1085.93 498.963
1778 0 57.1847 12.9755 742 102.691 1085.46 497.096
1779 0 58.2115 12.2484 713 104.042 1085.77 496.624
1780 0 61.1767 12.325 754 104.354 1085.9 495.39
1781 0 61.268 11.7517 720 106.201 1085.9 494.419
1782 0 64.235 12.7812 821 103.769 1086.79 493.089
1783 0 66.2655 12.5706 833 104.888 1086.06 492.953
1784 0 69.1894 11.8082 817 106.605 1086.64 492.224
1785 0 70.0935 11.6701 818 107.351 1086.58 491.098
1786 0 77.0831 13.2195 1019 102.91 1086.41 488.608
1787 0 74.2793 11.5645 859 108.589 1086.42 485.102
1788 0 79.2632 11.5943 919 108.187 1086.01 485.789
1789 0 81.279 11.9588 972 107.784 1085.48 484.498
1790 0 84.2839 12.5291 1056 105.022 1086.36 484.343
1791 0 88.1157 12.6198 1112 106.155 1086.12 481.224
1792 1 44.0579 11.1671 492 104.911 1086.63 503.098
1793 0 46.2315 10.9449 506 104.267 1086.78 502.059
1794 0 46.3746 12.6578 587 105.373 1084.91 497.77
1795 0 48.2025 13.1321 633 104.599 1084.57 495.025
1796 0 49.3237 11.9213 588 106.233 1087.13 500.08
1797 0 52.347 11.7676 616 105.503 1087.88 500.398
1798 0 55.5066 12.5931 699 109.763 1086.95 497.997
1799 0 56.4017 11.7195 661 112.663 1086.31 496.46
1800 0 57.5424 11.8521 682 111.751 1086.35 496.831
1801 0 59.4083 11.3284 673 113.199 1086.54 495.721
1802 0 62.4129 12.0488 752 110.605 1086.39 494.65
1803 0 63.3482 12.1393 769 112.086 1086.3 492.471
1804 0 65.3286 13.2561 866 109.057 1086.5 492.599
1805 0 68.4642 14.2556 976 106.509 1085.84 490.696
1806 0 70.3823 12.219 860 110.981 1086.2 490.988
1807 0 71.3452 13.8201 986 107.294 1086.32 489.582
1808 0 73.4853 12.1249 891 111.478 1086.27 486.416
1809 0 75.5492 12.9452 978 109.915 1085.95 484.158
1810 0 78.7159 13.2629 1044 108.451 1086.05 483.128
1811 0 81.7683 11.6671 954 111.852 1086.01 479.975
1812 0 82.507 12.7262 1050 104.219 1085.16 480.589
1813 0 85.2985 12.0401 1027 104.604 1084.61 479.844
1814 0 87.1992 12.6033 1099 105.396 1084.9 475.008
1815 0 92.6154 12.8488 1190 103.142 1084.95 474.979
1816 1 43.3361 8.72252 378 102.389 1085.39 494.537
1817 0 45.2898 10.1568 460 99.4587 1085.57 494.726
1818 0 46.3087 10.7539 498 98.3594 1085.34 493.711
1819 0 49.5884 10.3855 515 97.0272 1084.37 495.583
1820 0 49.4113 10.3215 510 103.573 1084.66 499.826
1821 0 50.1611 9.66884 485 104.503 1084.63 500.827
1822 0 53.3032 11.6128 619 100.528 1085.23 498.913
1823 0 52.5124 10.3214 542 104.148 1085.47 496.41
1824 0 57.3473 10.2533 588 100.524 1084.97 495.757
1825 0 58.3051 10.6166 619 101.541 1084.86 493.89
1826 0 59.367 10.7804 640 102.495 1084.86 492.178
1827 0 59.3721 10.8468 644 103.863 1084.7 492.894
1828 0 62.3677 12.266 765 102.276 1085.29 491.341
1829 0 65.3414 12.1363 793 102.984 1085.21 489.052
1830 0 66.2675 11.0009 729 105.757 1085.48 489.096
1831 0 69.1884 11.8372 819 104.548 1085.72 489.509
1832 0 70.2805 12.009 844 104.938 1085.69 487.069
1833 0 73.315 12.5486 920 103.604 1085.52 486.689
1834 0 76.4051 12.5384 958 105.891 1086.24 479.711
1835 0 76.625 12.7374 976 105.421 1085.44 480.947
1836 0 78.6908 11.7422 924 109.111 1086.24 477.907
1837 0 82.5613 10.3559 855 112.111 1085.75 477.101
1838 1 42.3166 9.38167 397 103.312 1087.24 499.446
1839 0 44.3773 9.64456 428 104.584 1087.27 496.715
1840 0 43.349 10.4731 454 104.709 1086.97 495.264
1841 0 44.2787 9.64346 427 106.347 1087.09 496.372
1842 0 47.3892 9.15821 434 105.776 1087.25 496.991
1843 0 50.2939 9.6632 486 106.422 1087.06 494.693
1844 0 50.233 11.3272 569 103.589 1087.4 494.485
1845 0 48.4146 8.11738 393 111.089 1086.63 493.224
1846 0 52.3245 10.2438 536 105.455 1087.46 494.326
1847 0 56.3535 10.2744 579 103.794 1087.59 494.717
1848 0 55.2174 10.1598 561 104.774 1087.55 494.786
1849 0 56.2312 10.6347 598 104.604 1087.59 493.48
1850 0 61.2058 9.88468 605 105.663 1087.11 491.483
1851 0 67.3328 9.13373 615 105.376 1088.03 490.672
1852 0 67.2271 10.5166 707 103.461 1087.35 491.235
1853 0 69.1105 10.476 724 104.743 1088.05 489.633
1854 0 72.2908 11.9102 861 99.439 1087.52 487.584
1855 0 72.2419 11.5861 837 100.774 1087.45 488.342
1856 0 75.2574 12.2513 922 100.127 1087.09 486.15
1857 0 73.1909 9.72798 712 106.91 1086.11 489.652
1858 0 76.2442 8.86625 676 107.257 1086.64 489.284
1859 0 79.1704 11.4437 906 102.869 1086.06 487.851
1860 0 79.184 9.74944 772 105.429 1085.4 490.048
1861 0 83.3086 10.9232 910 104.187 1083.76 484.682
1862 0 87.3007 11.2485 982 103.764 1083.97 481.431
1863 0 94.2704 10.4062 981 103.483 1083.24 484.115
1864 0 94.3068 11.6641 1100 103.995 1084.45 476.687
1865 0 96.1595 11.0649 1064 104.741 1084.07 480.08
1866 0 99.1835 11.6148 1152 103.78 1084.7 476.351
1867 0 102.235 12.0116 1228 103.88 1084.04 473.772
1868 0 104.232 12.0021 1251 106.259 1084.64 472.721
1869 0 106.396 11.0625 1177 107.971 1084.4 469.653
1870 1 60.0837 10.5519 634 106.017 1084.29 494.916
1871 0 61.1319 10.5837 647 105.144 1084.44 492.974
1872 0 63.1401 10.8489 685 105.222 1086.58 492.6
1873 0 66.2327 12.2145 809 97.0952 1084.65 492.949
1874 0 66.1315 11.3562 751 100.607 1083.62 490.937
1875 0 66.0978 10.8929 720 101.324 1084.02 490.821
1876 0 69.0879 10.9571 757 101.517 1084.04 489.704
1877 0 73.193 12.4329 910 96.9549 1083.84 488.273
1878 0 76.1619 12.1058 922 97.9208 1084.62 486.794
1879 0 79.149 11.8637 939 97.1459 1084.58 483.722
1880 0 81.0809 12.4074 1006 98.497 1083.44 483.944
1881 0 83.1426 12.7251 1058 98.5548 1083.83 480.388
1882 0 84.0921 11.9274 1003 100.005 1084.21 480.409
1883 0 87.3321 12.8475 1122 104.198 1084.55 475.887
1884 0 91.2798 12.3138 1124 104.851 1085.05 476.175
1885 0 95.1289 12.7616 1214 103.125 1084.67 478.784
1886 0 97.3271 12.1343 1181 104.465 1084.05 473.29
1887 1 52.0588 8.10622 422 103.294 1082.9 496.818
1888 0 57.1015 11.3657 649 97.6795 1083.23 496.08
1889 0 57.0382 12.4127 708 88.8686 1083.48 497.503
1890 0 60.0544 13.1214 788 94.6332 1083.79 493.728
1891 0 61.0473 11.9743 731 97.0041 1083.28 493.458
1892 0 61.0473 11.9743 731 123.735 1083.28 493.458
1893 0 62.1025 10.5471 655 99.6733 1084.06 491.606
1894 0 67.0751 11.6586 782 96.046 1084.1 488.641
1895 0 68.0652 11.4155 777 96.5573 1083.53 488.389
1896 0 69.0561 11.802 815 95.6638 1083.28 485.337
1897 0 72.1051 11.927 860 95.5663 1083.29 483.519
1898 0 73.0664 11.2637 823 96.6707 1083.21 484.281
1899 0 76.1078 11.9436 909 95.7613 1082.9 484.473
1900 0 77.0451 11.4868 885 96.4079 1083.24 485.401
1901 0 79.1219 11.8172 935 95.9647 1083.45 480.936
1902 0 83.0938 11.3366 942 96.241 1083.75 481.135
1903 0 85.062 11.1213 946 97.6427 1083.05 478.015
1904 0 87.0444 13.4874 1174 94.3671 1083.36 475.895
1905 0 90.0554 10.971 988 98.1376 1083.62 474.159
1906 0 93.0426 11.5216 1072 96.7631 1083.5 474.919
1907 0 95.108 11.4817 1092 96.6603 1083.63 470.594
1908 1 49.0382 8.05494 395 96.0608 1083.83 496.499
1909 0 50.0718 10.7046 536 93.2034 1083.76 497.565
1910 0 54.1371 11.0091 596 93.7081 1084.55 497.003
1911 0 56.0396 10.4034 583 95.3688 1082.88 492.847
1912 0 56.0226 10.6921 599 95.4007 1082.61 493.159
1913 0 57.0294 10.328 589 96.6859 1082.68 494.173
1914 0 59.0955 11.9975 709 93.8293 1082.94 493.416
1915 0 62.0412 11.2667 699 95.8813 1083.37 491.704
1916 0 64.0314 11.2601 721 96.6449 1083.28 490.164
1917 0 65.0722 10.9417 712 97.6208 1083.24 490.746
1918 0 67.0447 11.1717 749 98.3284 1083.43 488.371
1919 0 68.0524 11.7997 803 97.7148 1083.64 487.819
1920 0 71.0289 11.7699 836 98.0945 1083.33 486.605
1921 0 74.0784 11.5688 857 98.7141 1083.32 485.034
1922 0 77.1098 12.0218 927 98.74 1083.34 484.718
1923 0 79.0953 11.4798 908 101.085 1083.66 482.945
1924 0 81.0739 10.6816 866 103.547 1083.87 481.457
1925 0 87.1862 12.6511 1103 99.1324 1083.11 481.23
1926 0 89.0591 12.284 1094 101.307 1083.5 479.367
1927 1 46.0538 11.0957 511 100.703 1087.7 500.632
1928 0 45.231 10.6122 480 102.638 1085.69 499.725
1929 0 48.0645 12.2336 588 100.468 1088.74 499.204
1930 0 52.0422 12.1248 631 99.4691 1088.56 498.385
1931 0 52.0366 12.0876 629 101.528 1088.5 498.067
1932 0 52.0393 11.7411 611 104.671 1087.93 495.828
1933 0 55.0479 11.2084 617 107.204 1087.91 497.93
1934 0 54.0451 11.7124 633 108.714 1087.73 496.235
1935 0 55.0624 11.9501 658 108.743 1087.5 494.907
1936 0 57.0896 12.5417 716 109.003 1087.48 494.793
1937 0 60.0518 12.8722 773 107.758 1087.13 493.692
1938 0 61.083 12.1638 743 110.179 1087.42 492.692
1939 0 63.0566 12.2113 770 110.553 1087.62 494.342
1940 0 65.0814 12.5535 817 110.86 1087 492.674
1941 0 67.0713 13.7615 923 109.472 1087.46 490.412
1942 0 70.0982 11.9975 841 113.34 1087.26 491.998
1943 0 71.0725 12.2973 874 115.685 1087.34 487.596
1944 0 76.0583 13.3319 1014 112.751 1086.99 488.886
1945 0 76.0926 14.1669 1078 113.126 1087.41 488.061
1946 0 79.1284 14.5207 1149 112.015 1087.34 486.921
1947 0 80.1108 13.2192 1059 116.226 1087.48 487.109
1948 0 84.0943 14.7929 1244 113.173 1087.63 482.688
1949 0 88.1301 15.7721 1390 110.387 1086.93 482.581
1950 0 88.0965 14.6657 1292 115.733 1086.81 479.152
1951 0 91.0588 14.0239 1277 116.68 1086.22 480.765
1952 1 45.0768 11.6246 524 114.779 1086.7 503.546
1953 0 46.1304 12.0745 557 105.794 1086.81 501.259
1954 0 47.1005 12.4203 585 107.338 1086.65 501.193
1955 0 48.049 12.3832 595 108.296 1086.53 502.301
1956 0 51.1159 12.0315 615 106.894 1086.34 499.424
1957 0 49.0589 12.7806 627 109.014 1086.76 499.662
1958 0 53.0729 13.8866 737 104.117 1086.87 499.929
1959 0 54.1232 13.1552 712 105.567 1087.61 498.597
1960 0 54.1136 13.2499 717 107.298 1086.83 497.247
1961 0 57.2012 12.9193 739 103.257 1086.02 494.938
1962 0 61.1928 12.7629 781 101.85 1086.65 495.896
1963 0 63.1642 13.4412 849 99.0612 1086.06 495.42
1964 0 64.1532 12.9222 829 99.9831 1086.45 493.748
1965 0 66.2234 12.2766 813 101.617 1086.8 491.427
1966 0 69.3936 13.5459 940 98.7415 1086.74 490.088
1967 0 72.3976 13.9369 1009 96.7245 1086.51 490.14
1968 0 74.2752 14.1366 1050 96.4752 1086.68 487.83
1969 0 76.2548 14.386 1097 97.072 1086.9 486.456
1970 0 77.2478 13.036 1007 100.207 1086.42 484.786
1971 0 80.2754 12.0211 965 101.163 1086.39 484.178
1972 0 83.2739 12.8612 1071 99.6489 1086.14 480.383
1973 0 85.2849 13.6015 1160 99.4345 1085.57 478.166
1974 0 88.3048 12.4569 1100 103.257 1086.37 476.481
1975 0 93.2921 12.3483 1152 102.607 1086.56 477.85
1976 1 49.0883 11.958 587 102.877 1087.62 496.918
1977 0 50.1052 12.4139 622 102.042 1087.57 496.531
1978 0 52.13 12.4688 650 103.875 1083.63 499.551
1979 0 52.0472 12.2581 638 105.478 1083.79 498.677
1980 0 54.0717 12.354 668 103.871 1083.24 500.192
1981 0 57.0827 12.368 706 104.483 1083.45 497.269
1982 0 58.0803 13.0853 760 103.129 1083.03 494.555
1983 0 61.0606 13.0854 799 101.959 1083.01 496.409
1984 0 60.1143 12.4263 747 103.373 1083.16 495.253
1985 0 64.0892 13.8713 889 100.458 1083.21 492.619
1986 0 63.0882 12.9343 816 102.62 1083.61 493.711
1987 0 67.2203 12.9276 869 102.174 1085.94 491.414
1988 0 70.3595 13.6868 963 100.807 1085.83 488.91
1989 0 72.3322 13.203 955 101.708 1085.88 487.599
1990 0 75.5453 13.5548 1024 100.164 1086.49 488.81
1991 0 74.3458 12.119 901 104.758 1086.39 487.253
1992 0 79.2827 13.2942 1054 102.085 1086.2 486.07
1993 0 81.3567 13.6313 1109 101.801 1085.9 484.379
1994 0 83.3742 11.4184 952 106.081 1085.23 485.364
1995 0 86.2818 11.926 1029 104.353 1085.61 483.294
1996 1 46.1177 9.4107 434 103.615 1087.2 503.21
1997 0 47.0478 11.2439 529 101.285 1087.23 501.257
1998 0 49.1788 11.9767 589 99.9559 1087.11 499.593
1999 0 50.1766 11.9179 598 100.027 1086.91 499.283
2000 0 51.1301 11.637 595 98.1731 1087.13 497.491
2001 0 55.1233 11.6285 641 98.2324 1087.33 497.718
2002 0 55.0693 12.2391 674 98.2507 1086.92 497.01
2003 0 56.0615 11.8798 666 100.535 1087.35 496.01
2004 0 56.0409 10.992 616 103.476 1086.78 494.042
2005 0 61.066 13.1988 806 98.0447 1086.53 491.909
2006 0 63.1947 13.5771 858 98.3496 1087.29 493.6
2007 0 63.0405 11.8178 745 103.22 1087.08 491.871
2008 0 67.0958 12.8771 864 100.549 1086.94 491.096
2009 0 68.1325 13.2683 904 100.789 1086.46 487.95
2010 0 71.0747 12.2969 874 102.585 1086.58 489.032
2011 0 71.1107 12.6704 901 102.794 1086.89 489.63
2012 0 74.0959 12.5783 932 104.011 1086.65 486.555
2013 0 77.1674 14.151 1092 101.219 1086.71 484.436
2014 0 80.1696 13.7459 1102 102.348 1086.14 484.686
2015 0 82.3282 14.1385 1164 102.454 1085.9 481.644
2016 0 83.2057 12.6674 1054 107.031 1085.43 480.165
2017 0 89.3102 13.6715 1221 103.528 1085.55 481.647
2018 0 90.4452 13.4446 1216 105.905 1085.66 477.799
2019 1 48.3396 10.1573 491 112.98 1086.22 499.096
2020 0 47.2538 11.8509 560 112.009 1086.45 490.579
2021 0 49.1076 10.589 520 108.244 1086.11 491.308
2022 0 49.2741 10.8779 536 108.146 1085.2 492.795
2023 0 55.3143 11.7149 648 103.642 1085.99 495.387
2024 0 56.3105 11.7207 660 105.13 1085.18 492.742
2025 0 55.2392 10.5179 581 109.244 1085.32 489.83
2026 0 59.2172 11.2805 668 106.347 1085.93 490.519
2027 0 61.2179 11.7123 717 103.562 1084.84 489.962
2028 0 64.2576 11.5784 744 103.261 1085.37 489.617
2029 0 67.2861 12.2165 822 102.641 1085.21 488.78
2030 0 69.4513 12.1668 845 103.138 1084.93 487.376
2031 0 71.3176 12.0868 862 101.401 1085.78 487.832
2032 0 75.2297 11.8969 895 100.8 1085.9 486.751
2033 0 74.3321 9.95532 740 106.85 1085.51 481.785
2034 0 79.3929 12.3689 982 102.112 1085.37 482.397
2035 0 82.3264 11.2358 925 105.48 1084.4 479.378
2036 0 84.2857 11.6034 978 104.928 1084.66 478.806
2037 0 86.2117 10.7178 924 107.124 1084.92 476.464
2038 1 45.1132 11.3936 514 98.0214 1086.53 499.969
2039 0 46.4447 12.0358 559 103.342 1084.95 496.224
2040 0 49.1467 12.2287 601 110.283 1086.64 499.474
2041 0 51.0938 13.074 668 109.022 1087.04 499.258
2042 0 50.0267 11.234 562 113.915 1086.55 500.272
2043 0 53.1122 12.8031 680 110.421 1086.99 498.463
2044 0 55.1581 12.6727 699 109.515 1086.63 497.491
2045 0 56.072 12.5018 701 110.561 1086.92 496.214
2046 0 59.1951 13.7511 814 106.921 1087.31 493.816
2047 0 58.0888 12.1366 705 112.162 1087.07 495.058
2048 0 61.1453 13.1163 802 109.489 1087.51 491.799
2049 0 64.1837 12.7447 818 110.127 1087.28 491.74
2050 0 65.071 13.6774 890 109.18 1087.15 490.099
2051 0 67.2621 13.0534 878 109.868 1087.45 489.26
2052 0 68.1524 12.8682 877 110.109 1086.96 489.025
2053 0 74.2735 13.5984 1010 106.848 1086.82 486.778
2054 0 75.2914 12.6575 953 109.821 1086.75 484.776
2055 1 37.3246 9.61833 359 109.251 1086.01 503.061
2056 0 38.4174 11.5312 443 105.37 1085.41 499.081
2057 0 39.4818 11.8282 467 102.225 1085.48 499.503
2058 0 42.2208 11.3451 479 100.678 1087.53 502.85
2059 0 43.1902 12.6649 547 98.0859 1087.42 501.499
2060 0 42.3063 10.8022 457 103.516 1088.08 500.923
2061 0 42.3063 10.8258 458 128.533 1088.06 500.904
2062 0 46.1898 11.5177 532 103.103 1087.74 500.188
2063 0 47.2267 10.6931 505 99.6911 1087.48 499.44
2064 0 48.2248 11.4879 554 119.202 1087.5 500.388
2065 0 49.3869 11.1973 553 99.9349 1087.37 498.139
2066 0 51.2645 12.8939 661 97.5991 1087.14 497.192
2067 0 53.2248 12.5505 668 97.9551 1087.26 497.629
2068 0 55.3109 12.3484 683 97.9356 1087.4 497.723
2069 0 57.2305 14.2581 816 95.4681 1086.77 495.244
2070 0 58.3222 12.9453 755 98.6185 1085.98 494.24
2071 0 60.1711 13.5613 816 98.7561 1086.61 492.536
2072 0 63.184 12.7406 805 100.154 1087.36 494.696
2073 0 65.2308 12.6934 828 102.605 1086.54 494.069
2074 0 66.253 12.7994 848 102.952 1086.6 491.154
2075 0 69.2827 12.8026 887 103.82 1086.25 490.578
2076 0 71.2257 12.6499 901 105.163 1086.15 488.465
2077 0 72.1187 13.3669 964 102.373 1086.49 487.33
2078 0 74.4012 13.0777 973 104.571 1086.63 486.955
2079 0 78.1117 12.9686 1013 104.562 1085.99 485.698
2080 0 80.1465 14.5234 1164 102.546 1086.15 483.552
2081 0 84.1944 13.3382 1123 105.299 1085.92 484.221
2082 0 83.1745 12.5038 1040 109.127 1085.63 483.307
2083 0 85.1504 12.5073 1065 110.153 1085.14 481.233
2084 0 90.2185 13.4562 1214 107.026 1085.58 477.109
2085 0 94.1376 13.0554 1229 107.368 1085.39 476.665
2086 1 50.0307 11.0532 553 109.756 1087.07 498.514
2087 0 54.1022 11.5152 623 107.981 1086.96 496.803
2088 0 56.226 11.8806 668 106.202 1087.06 496.771
2089 0 58.1133 14.248 828 101.634 1086.81 493.684
2090 0 57.125 12.814 732 106.135 1086.26 494.882
2091 0 61.1669 11.0844 678 107.956 1086.08 495.524
2092 0 62.1553 12.7584 793 103.472 1086.35 494.087
2093 0 64.1745 12.2634 787 104.534 1086.66 490.304
2094 0 66.0806 12.2578 810 104.73 1086.34 491
2095 0 66.1256 12.5368 829 104.916 1086.61 487.888
2096 0 71.2103 13.0459 929 104.414 1086.54 489.042
2097 0 72.188 12.7306 919 106.495 1086.25 488.802
2098 0 76.2268 12.3972 945 107.687 1086.61 486.837
2099 0 78.1438 13.987 1093 104.88 1086 483.725
2100 0 80.2487 13.3585 1072 110.148 1086.69 481.187
2101 0 86.1797 14.8759 1282 105.47 1086.72 480.722
2102 1 45.0564 10.9197 492 110.295 1088.15 499.817
2103 0 46.0286 11.2539 518 110.075 1087.98 500.932
2104 0 47.22 12.8335 606 108.198 1086.04 501.71
2105 0 49.2318 12.5325 617 110.468 1086.44 499.838
2106 0 50.2226 13.5596 681 108.468 1085.73 499.065
2107 0 50.1207 12.1307 608 113.337 1085.91 500.357
2108 0 52.1606 13.1709 687 112.402 1086.05 497.233
2109 0 53.0825 11.2466 597 116.737 1086.03 497.725
2110 0 56.074 12.3587 693 113.877 1086.02 497.205
2111 0 59.1461 13.7794 815 109.242 1085.71 498.136
2112 0 57.2713 12.7638 731 114.505 1084.48 495.183
2113 0 60.1939 13.2406 797 113.503 1085.37 494.094
2114 0 62.1758 12.8507 799 114.354 1085.22 494.563
2115 0 65.1435 13.8771 904 111.565 1084.9 493.55
2116 0 67.3763 14.0109 944 112.334 1084.68 491.956
2117 0 67.3774 13.7583 927 114.797 1084.56 490.579
2118 0 70.3252 13.7362 966 115.023 1084.41 489.364
2119 0 72.3029 14.3563 1038 114.155 1084.43 487.994
2120 0 73.2857 12.9357 948 117.748 1084.1 489.621
2121 0 76.235 14.0224 1069 116.113 1084.03 485.536
2122 0 78.282 14.3072 1120 115.923 1084.3 485.028
2123 0 82.2563 14.6372 1204 114.411 1083.88 484.54
2124 0 84.4216 14.2618 1204 115.288 1083.54 484.363
2125 0 86.2218 14.3583 1238 115.503 1084.71 482.726
2126 0 90.2045 14.4228 1301 114.885 1084.45 480.108
2127 1 48.0465 10.8228 520 113.879 1082.6 502.571
2128 0 48.0267 12.972 623 111.008 1082.82 500.27
2129 0 50.0974 13.9129 697 110.562 1082.92 500.458
2130 0 50.0304 12.4124 621 108.414 1082.51 497.734
2131 0 52.0559 12.6595 659 108.118 1082.68 496.78
2132 0 53.1222 12.2924 653 109.582 1082.53 496.167
2133 0 55.077 12.7095 700 108.763 1082.29 496.371
2134 0 57.1087 12.7126 726 108.521 1082.74 494.54
2135 0 57.0856 14.014 800 106.96 1082.89 491.951
2136 0 59.0529 11.9385 705 110.685 1082.9 492.979
2137 0 59.0504 13.0566 771 109.891 1082.94 492.964
2138 0 61.0722 13.263 810 109.442 1083.11 490.005
2139 0 64.1066 13.1656 844 108.501 1082.39 490.909
2140 0 67.1944 13.5874 913 108.428 1083.47 488.884
2141 0 68.0576 13.4445 915 110.201 1082.98 487.469
2142 0 69.0871 12.4481 860 113.645 1082.89 486.955
2143 0 74.1569 12.8781 955 112.142 1083.17 485.064
2144 0 77.0855 12.3629 953 111.86 1083.31 485.195
2145 0 79.1298 13.3199 1054 110.59 1083.17 484.652
2146 0 79.2209 13.2919 1053 113.165 1083.02 481.19
2147 0 83.0978 14.3205 1190 111.191 1083.74 479.906
2148 0 85.2963 14.1272 1205 112.252 1082.96 479.503
2149 0 87.2465 14.3272 1250 112.938 1084.92 474.376
2150 0 90.233 12.5121 1129 117.833 1085.22 473.81
2151 0 92.1721 12.6285 1164 118.73 1085.04 475.834
2152 0 97.1744 14.2116 1381 115.623 1085.14 471.898
2153 0 101.207 14.3073 1448 114.372 1085.19 472.057
2154 0 102.289 12.0638 1234 113.543 1084.51 471.912
2155 1 50.0733 10.6444 533 109.448 1084.94 497.773
2156 0 51.0746 11.3364 579 110.143 1085.49 495.689
2157 0 54.1054 12.5126 677 111.567 1083.57 495.092
2158 0 56.1497 12.0927 679 113.093 1083.79 493.786
2159 0 58.1136 13.2155 768 110.829 1083.7 493.081
2160 0 61.2825 12.8911 790 110.849 1084.2 491.181
2161 0 61.1127 11.4052 697 115.676 1083.33 489.867
2162 0 65.162 11.9395 778 113.009 1083.89 489.406
2163 0 67.1268 12.2753 824 112.346 1083.64 487.51
2164 0 70.0725 13.2862 931 109.973 1083.78 487.586
2165 0 73.0829 12.8484 939 110.526 1083.53 486.382
2166 0 74.1092 12.1712 902 112.366 1082.98 484.528
2167 0 76.0552 12.4383 946 111.192 1082.72 483.273
2168 0 81.1681 13.4289 1090 108.341 1083.64 481.755
2169 0 83.1146 13.2347 1100 109.424 1083.43 479.692
2170 0 84.0516 12.7422 1071 110.402 1083.46 478.415
2171 0 87.1834 13.3397 1163 108.64 1083.77 475.969
2172 0 93.1141 13.4137 1249 108.927 1083.72 475.889
2173 0 95.1553 12.3377 1174 111.486 1083.34 474.256
2174 0 98.113 13.3316 1308 110.718 1083.01 473.976
2175 0 102.084 13.8219 1411 109.093 1082.8 471.729
2176 1 55.2718 12.2124 675 103.723 1082.92 495.879
2177 0 56.4119 11.806 666 104.215 1083.38 495.443
2178 0 56.0291 10.7623 603 106.668 1083.39 498.37
2179 0 59.2326 12.1048 717 105.008 1085.39 494.768
2180 0 61.1965 13.1707 806 103.49 1085.5 492.599
2181 0 65.2719 13.0531 852 102.579 1085.16 491.839
2182 0 66.2378 12.3947 821 105.322 1085.59 490.303
2183 0 69.3483 13.1077 909 103.638 1085.54 489.954
2184 0 70.4436 13.0175 917 105.327 1085.59 489.179
2185 0 74.3327 12.9284 961 105.355 1085.42 487
2186 0 77.328 13.0095 1006 106.114 1085.56 485.541
2187 0 80.2953 12.6284 1014 107.614 1085.12 485.018
2188 0 82.1805 12.1075 995 109.623 1086.42 484.664
2189 0 85.1735 12.5508 1069 109.033 1086.23 483.171
2190 1 45.1211 11.6132 524 106.544 1086.8 501.695
2191 0 47.1557 12.2785 579 106.064 1086.59 500.653
2192 0 48.2053 12.1148 584 108.798 1086.75 499.329
2193 0 52.1204 12.2409 638 106.27 1086.5 499.848
2194 0 50.0685 12.3231 617 108.896 1085.9 499.895
2195 0 51.1133 11.6995 598 111.007 1086.98 499.316
2196 0 53.1987 12.5191 666 108.584 1086.76 499.224
2197 0 54.0823 12.1297 656 108.845 1086.33 498.314
2198 0 56.091 12.7471 715 107.978 1086.52 497.263
2199 0 59.1991 12.686 751 108.454 1085.9 496.116
2200 0 60.1024 11.4804 690 111.368 1086.55 495.287
2201 0 61.0654 12.3802 756 110.205 1086.05 493.791
2202 0 63.0824 13.2367 835 108.377 1085.17 490.513
2203 0 67.127 13.8841 932 106.768 1085.92 489.789
2204 0 70.0911 13.5538 950 106.665 1086.14 488.896
2205 0 70.1513 12.8579 902 109.426 1086.1 488.473
2206 0 73.0473 13.457 983 107.829 1086.21 486.764
2207 0 74.1647 12.243 908 111.476 1086.37 485.98
2208 0 78.2213 13.1678 1030 108.542 1085.97 483.363
2209 0 82.0622 12.3077 1010 110.414 1085.43 483.215
2210 0 83.1001 12.6113 1048 110.118 1085.8 481.556
2211 0 86.3146 12.4544 1075 110.727 1085.27 480.288
2212 0 88.1061 12.4509 1097 111.697 1085.68 478.207
2213 0 91.2223 12.3325 1125 110.83 1086.08 477.732
2214 0 94.2984 12.0151 1133 111.161 1085.77 478.187
2215 1 50.0702 12.3427 618 109.021 1086.85 498.595
2216 0 52.1295 13.2746 692 105.205 1086.63 496.856
2217 0 53.1461 13.7357 730 103.373 1086.39 496.608
2218 0 54.0853 11.0751 599 109.252 1086.31 495.272
2219 0 56.0749 11.2885 633 107.913 1086.73 497.011
2220 0 59.1194 12.8215 758 104.016 1086.46 492.693
2221 0 59.1002 11.4382 676 106.46 1086.46 493.988
2222 0 62.1001 13.8969 863 101.411 1086.54 491.508
2223 0 64.0952 11.9354 765 105.175 1086.48 491.072
2224 0 66.071 11.6541 770 105.618 1086.69 489.765
2225 0 69.2003 12.2398 847 103.919 1086.22 488.067
2226 0 70.1979 12.5787 883 103.317 1086.63 486.938
2227 0 71.1198 12.4297 884 103.46 1086.78 488.188
2228 0 73.121 12.7597 933 102.778 1086.57 486.095
2229 0 77.176 14.1236 1090 99.4587 1085.88 483.6
2230 0 79.2814 12.4998 991 102.605 1085.82 483.603
2231 0 80.1262 12.3306 988 103.899 1085.49 483.385
2232 0 83.2917 12.1861 1015 104.003 1086.02 481.632
2233 0 85.1861 13.1242 1118 102.773 1085.74 479.445
2234 0 88.4085 12.9173 1142 102.996 1085.53 478.363
2235 0 91.118 13.499 1230 102.948 1086.15 474.786
2236 0 92.1635 13.3024 1226 103.998 1086.34 476.984
2237 0 96.2198 12.6377 1216 105.103 1085.38 472.583
2238 0 98.3309 13.2105 1299 104.256 1085.52 472.199
2239 0 102.163 13.8895 1419 102.942 1085.72 469.193
2240 0 106.213 14.1415 1502 104.277 1085.81 470.172
2241 0 107.144 12.6372 1354 109.725 1086.23 469.674
2242 1 61.0459 12.5807 768 103.055 1086.65 492.557
2243 0 63.08 12.6982 801 99.0375 1086.47 491.517
2244 0 63.1244 11.8813 750 106.329 1086.61 490.004
2245 0 67.0731 13.1498 882 102.79 1086.63 487.87
2246 0 70.0921 13.0257 913 102.825 1086.65 487.004
2247 0 72.162 12.2641 885 104.956 1086.41 487.781
2248 0 73.1434 13.0155 952 103.709 1086.51 485.109
2249 0 78.0644 13.1302 1025 103.225 1086.54 483.396
2250 0 81.1274 13.0659 1060 102.951 1086.88 482.582
2251 0 83.1264 12.4148 1032 104.485 1086.58 480.832
2252 0 85.2207 12.5908 1073 104.185 1086.15 479.79
2253 0 87.3986 12.3 1075 104.668 1085.28 477.339
2254 0 89.3486 12.6695 1132 104.919 1085.62 473.915
2255 0 91.2397 12.4398 1135 105.949 1085.12 470.829
2256 0 95.2484 12.9556 1234 104.559 1084.49 471.925
2257 0 96.3685 12.0994 1166 107.247 1084.97 469.966
2258 0 103.465 11.6175 1202 105.742 1084.28 474.712
2259 1 55.2398 10.6988 591 101.261 1083.69 498.748
2260 0 54.1101 10.146 549 101.568 1083.07 499.812
2261 0 58.1971 11.8047 687 99.2882 1082.77 499.559
2262 0 60.3595 13.1048 791 97.6119 1082.61 497.857
2263 0 62.4667 11.5582 722 100.935 1082.07 500.489
2264 0 64.3242 13.1521 846 98.4492 1081.56 498.837
2265 0 65.2215 12.0666 787 101.954 1081.83 500.038
2266 0 68.1808 12.1589 829 102.253 1081.23 498.092
2267 0 69.6931 11.9668 834 103.127 1081.26 499.594
2268 0 71.4436 11.5756 827 104.36 1080.95 499.861
2269 0 73.5402 12.4694 917 102.441 1080.93 500.503
2270 0 76.641 12.4346 953 103.463 1081.47 499.015
2271 0 78.4903 13.4029 1052 101.753 1081.21 497.757
2272 0 80.6107 12.182 982 104.231 1080.72 497.801
2273 0 81.3463 11.617 945 106.24 1080.43 497.099
2274 0 86.6989 13.172 1142 102.985 1080.82 493.903
2275 0 90.8348 13.3979 1217 102.575 1080.71 493.223
2276 0 90.488 13.8361 1252 103.325 1080.15 488.987
2277 0 93.66 13.549 1269 103.893 1079.82 488.616
2278 0 97.6456 13.5388 1322 104.727 1080.35 485.936
2279 0 98.6785 13.9544 1377 104.792 1080.19 481.894
2280 0 102.645 14.5452 1493 104.262 1079.51 482.088
2281 0 103.52 12.9637 1342 107.579 1079.47 477.093
2282 0 109.813 13.8509 1521 106.005 1079.3 473.912
2283 0 114.791 14.4785 1662 103.537 1079.57 473.14
2284 0 118.732 13.0883 1554 107.263 1079.64 471.379
2285 0 121.415 12.9144 1568 100.649 1079.29 474.145
2286 0 126.426 12.7031 1606 102.455 1079.35 468.643
2287 0 129.673 12.3464 1601 103.953 1079.53 464.016
2288 1 73.3676 11.0539 811 93.2836 1079.67 495.125
2289 0 74.1782 11.5263 855 92.462 1078.91 495.88
2290 0 76.2207 11.9652 912 91.7697 1079.32 497.47
2291 0 79.3728 13.1027 1040 89.724 1079.91 497.962
2292 0 82.3008 12.916 1063 90.5183 1080.17 497.549
2293 0 85.4141 11.4033 974 91.9877 1079.15 496.07
2294 0 88.2346 13.0561 1152 88.8707 1080.19 496.175
2295 0 89.4304 12.1659 1088 91.6425 1079.77 492.08
2296 0 93.3027 12.2397 1142 91.9545 1080.09 492.391
2297 0 96.2727 12.1218 1167 92.1465 1080.7 491.944
2298 0 99.4209 11.0842 1102 94.7486 1080.43 489.292
2299 0 103.315 11.7312 1212 93.6906 1080.12 489.71
2300 0 107.394 12.1608 1306 92.8002 1079.39 483.912
2301 1 57.4594 11.0513 635 95.4378 1079.92 503.129
2302 0 61.376 12.8063 786 95.7112 1078.06 507.337
2303 0 62.2578 13.4602 838 94.71 1077.83 506.285
2304 0 64.4994 13.1319 847 94.5466 1077.84 506.506
2305 0 68.2793 13.0786 893 94.9182 1077.99 504.614
2306 0 66.1994 11.6466 771 99.0337 1077.45 502.175
2307 0 71.3677 13.0311 930 95.6785 1077.75 503.471
2308 0 70.2717 12.7647 897 98.0524 1077.76 500.775
2309 0 73.2752 13.0467 956 97.6716 1077.98 500.605
2310 0 76.2786 13.1098 1000 98.093 1077.58 499.158
2311 0 79.5613 11.7519 935 101.274 1077.82 495.691
2312 0 82.5326 13.5098 1115 97.7265 1077.9 495.199
2313 0 85.4511 13.5282 1156 98.0995 1078 493.583
2314 0 85.6274 12.9748 1111 101.146 1078.44 492.386
2315 0 92.4988 13.0164 1204 100.376 1078.16 492.435
2316 0 94.5466 13.6864 1294 99.0564 1078.38 492.047
2317 0 97.478 14.9059 1453 97.3283 1078.53 487.878
2318 0 100.547 13.0188 1309 101.747 1078.32 487.986
2319 0 102.497 13.7564 1410 102.525 1077.97 485.77
2320 0 107.574 15.1524 1630 98.8969 1078.62 484.682
2321 0 108.582 13.8145 1500 103.324 1078.76 481.913
2322 0 109.361 13.6428 1492 106.34 1078.75 478.237
2323 0 111.349 13.2197 1472 107.284 1079.32 482.773
2324 0 116.341 14.5692 1695 106.268 1078.43 478.26
2325 0 122.484 13.8222 1693 108.628 1079.25 472.119
2326 1 66.5845 12.2851 818 108.908 1079.15 501.446
2327 0 68.2374 11.6945 798 101.444 1080.83 500.465
2328 0 70.2431 11.8446 832 100.886 1080.72 498.416
2329 0 72.1757 12.3864 894 98.6421 1081.14 497.981
2330 0 75.2348 11.8429 891 98.9574 1080.86 497.264
2331 0 78.2939 12.0827 946 98.2992 1080.43 492.897
2332 0 80.3029 12.0295 966 98.9814 1080.83 494.072
2333 0 81.1549 11.4719 931 99.478 1079.95 490.597
2334 0 82.2177 12.1993 1003 99.1047 1079.59 490.671
2335 0 87.3871 12.3245 1077 97.2906 1080.14 489.221
2336 0 88.2739 11.7702 1039 99.6015 1079.6 483.768
2337 0 92.2936 11.6585 1076 102.073 1080.18 485.717
2338 0 95.2806 12.4789 1189 100.882 1080.14 482.579
2339 0 97.293 12.2105 1188 102.93 1079.84 480.642
2340 0 100.203 12.784 1281 103.495 1080.32 478.289
2341 0 101.279 12.0558 1221 107.831 1080.07 478.35
2342 0 107.365 12.3597 1327 106.998 1079.83 475.751
2343 0 110.25 13.0158 1435 106.475 1081.01 473.348
2344 0 112.471 12.7322 1432 107.856 1081.21 470.424
2345 0 113.465 10.62 1205 113.716 1081.47 467.703
2346 0 119.462 12.414 1483 109.66 1081.43 469.128
2347 0 121.496 10.4777 1273 114.064 1080.81 465.363
2348 0 130.441 11.9058 1553 109.727 1081.53 466.241
2349 1 69.2672 11.1597 773 102.845 1082.05 490.585
2350 0 72.2678 11.0423 798 102.778 1082.04 493.383
2351 0 74.3095 12.5421 932 101.398 1082.55 490.851
2352 0 77.2215 12.7814 987 101.727 1083.22 489.227
2353 0 81.2651 12.4285 1010 102.528 1083.31 488.371
2354 0 82.2178 12.3209 1013 103.641 1083.33 487.043
2355 0 82.2788 12.0809 994 106.137 1082.88 484.14
2356 0 86.2521 12.7301 1098 104.718 1082.7 483.168
2357 0 89.1723 12.4254 1108 105.042 1082.63 482.917
2358 0 91.2139 11.8951 1085 107.513 1082.61 480.003
2359 0 95.2383 12.621 1202 105.654 1082.59 481.051
2360 0 98.2512 12.0202 1181 110.53 1082.76 474.87
2361 0 101.162 11.7238 1186 110.595 1082.7 474.028
2362 0 106.337 13.429 1428 106.564 1082.52 471.772
2363 0 108.376 11.7554 1274 109.509 1081.38 473.704
2364 0 111.32 11.3905 1268 111.766 1082.74 469.878
2365 1 63.1683 12.1738 769 105.375 1084.66 491.453
2366 0 64.1928 12.3846 795 104.126 1084.82 489.785
2367 0 69.1508 12.3932 857 104.764 1084.29 490.086
2368 0 70.2257 13.3142 935 100.335 1084.11 488.662
2369 0 72.1908 11.4142 824 104.229 1083.93 486.894
2370 0 77.292 12.718 983 100.327 1084.4 488.314
2371 0 78.2325 12.8208 1003 100.503 1083.88 485.661
2372 0 78.2337 12.0153 940 103.978 1084.05 483.429
2373 0 81.3135 12.6055 1025 102.578 1084.36 484.753
2374 0 87.2161 13.1283 1145 100.546 1083.81 484.023
2375 0 89.2226 13.0124 1161 101.494 1083.89 479.548
2376 0 90.4304 11.4342 1034 105.543 1084.2 479.07
2377 0 92.2218 9.94341 917 105.817 1083.54 476.888
2378 0 97.3113 12.4138 1208 101.923 1084.01 474.655
2379 0 100.369 11.7068 1175 104.813 1084.44 474.89
2380 0 101.357 10.468 1061 109.03 1083.68 472.869
2381 1 54.2183 9.49864 515 104.761 1085.61 496.153
2382 0 59.4637 10.662 634 102.18 1084.94 495.472
2383 0 61.3157 11.4 699 100.559 1085.15 495.333
2384 0 62.1046 12.3984 770 103.562 1085.78 494.201
2385 0 62.0726 12.4371 772 104.957 1085.87 493.424
2386 0 61.0973 10.9334 668 111.272 1086.08 492.49
2387 0 64.0828 11.6256 745 109.526 1085.28 491.426
2388 0 67.1349 13.6889 919 104.469 1084.88 491.672
2389 0 67.1315 12.3042 826 107.427 1085.26 492.398
2390 0 70.1271 12.9337 907 107.418 1085.31 488.669
2391 0 73.1523 12.3851 906 107.103 1085.48 489.837
2392 0 74.1107 13.0211 965 108.296 1085.54 484.602
2393 0 76.1835 12.5355 955 110.186 1085.12 486.392
2394 0 80.1547 12.1764 976 111.461 1085.35 485.553
2395 0 83.1778 12.7678 1062 109.572 1085.2 484.128
2396 0 87.0914 13.6523 1189 109.039 1085.41 482.254
2397 0 88.1138 12.8924 1136 110.881 1085.14 481.172
2398 0 91.0946 12.8548 1171 111.614 1085.18 478.02
2399 0 95.3988 13.0085 1241 110.66 1084.98 479.678
2400 0 96.1553 13.3326 1282 110.387 1084.75 479.304
2401 0 98.2557 11.7856 1158 115.394 1084.44 475.556
2402 0 104.204 12.9074 1345 112.119 1084.56 472.302
2403 0 109.3 13.678 1495 108.924 1084.65 469.946
2404 1 59.1899 11.7926 698 111.255 1084.02 497.617
2405 0 60.2188 11.9896 722 104.587 1082.68 489.964
2406 0 63.1117 12.1848 769 102.819 1081.77 494.324
2407 0 65.0467 12.7139 827 105.372 1081.48 493.66
2408 0 66.0537 13.0651 863 105.976 1081.67 493.411
2409 0 69.0843 13.5197 934 106.066 1082.12 492.011
2410 0 71.1656 12.5201 891 113.99 1082.84 491.331
2411 0 74.0311 12.076 894 115.474 1081.81 488.626
2412 0 76.0466 13.7284 1044 112.018 1081.87 486.244
2413 0 77.1254 12.7455 983 115.221 1081.78 487.001
2414 0 80.0997 12.6467 1013 116.508 1081.77 483.987
2415 0 82.0406 13.4446 1103 115.534 1081.63 484.282
2416 0 83.049 12.884 1070 118.621 1081.42 483.189
2417 0 88.1239 13.8214 1218 116.034 1081.75 481.243
2418 0 90.0581 13.4025 1207 117.525 1081.54 481.366
2419 0 93.1624 13.3423 1243 117.654 1081.37 480.142
2420 0 97.124 13.8689 1347 117.635 1081.68 476.895
2421 0 100.082 14.0186 1403 118.049 1082.02 476.475
2422 0 104.127 13.9445 1452 118.103 1081.61 475.223
2423 0 105.148 13.7521 1446 120.937 1082.12 472.61
2424 1 56.1427 11.6667 655 121.188 1082.06 495.426
2425 0 60.3597 11.5971 700 119.246 1083.57 495.227
2426 0 61.4899 13.2054 812 109.207 1084.72 491.813
2427 0 64.4195 11.984 772 110.491 1084.59 493.562
2428 0 66.0863 12.6653 837 108.542 1086.24 493.421
2429 0 68.0827 12.8961 878 107.163 1085.39 494.107
2430 0 70.0712 12.7727 895 107.584 1085.86 492.276
2431 0 73.1546 12.9452 947 107.133 1085.81 490.744
2432 0 75.1055 13.4477 1010 106.498 1086.06 488.1
2433 0 77.1667 13.9438 1076 105.882 1085.53 486.615
2434 0 79.1528 13.0254 1031 108.06 1085.15 487.83
2435 0 80.2426 12.1507 975 111.692 1085.07 484.98
2436 0 85.2822 15.8884 1355 103.345 1084.68 484.194
2437 0 86.2218 13.6392 1176 109.383 1085.49 482.832
2438 0 89.2863 14.7167 1314 107.176 1084.95 480.737
2439 0 90.2187 12.9352 1167 112.316 1084.29 481.868
2440 0 93.2009 13.9484 1300 111.837 1084.8 479.672
2441 0 98.1383 13.7867 1353 112.887 1084.32 477.789
2442 0 98.2631 14.4408 1419 113.331 1084.16 477.519
2443 0 102.253 13.7502 1406 116.007 1084.25 476.679
2444 0 104.215 12.7237 1326 119.705 1084.06 474.282
2445 0 109.245 14.4538 1579 116.908 1084.25 472.543
2446 0 111.216 14.3324 1594 118.779 1083.97 470.046
2447 0 113.199 13.8871 1572 122.159 1083.82 469.359
2448 0 118.275 13.2065 1562 124.762 1083.18 469.892
2449 0 120.454 13.7563 1657 125.9 1083.33 465.18
2450 0 125.367 14.2062 1781 125.613 1083.91 462.918
2451 0 129.602 14.1587 1835 127.102 1084.59 457.39
2452 1 69.3842 12.6254 876 124.461 1084.43 489.493
2453 0 73.422 13.6744 1004 118.81 1084.14 486.761
2454 0 74.2673 13.1283 975 117.632 1083.98 486.79
2455 0 78.1361 13.7325 1073 116.216 1084.27 483.498
2456 0 78.3315 13.4301 1052 116.875 1084.02 483.064
2457 0 82.253 12.9965 1069 117.645 1084.18 482.471
2458 0 85.1895 13.6871 1166 115.791 1084.04 481.24
2459 0 89.2535 13.7025 1223 115.262 1083.99 479.046
2460 0 92.1636 13.3458 1230 116.058 1084.34 476.545
2461 0 94.3389 13.8437 1306 114.961 1084.17 475.441
2462 0 98.1508 13.1125 1287 115.601 1083.98 475.552
2463 0 100.241 14.2855 1432 113.284 1084.01 472.947
2464 0 105.274 13.2322 1393 114.775 1084.48 471.462
2465 0 108.137 14.7775 1598 110.09 1085.17 472.58
2466 0 109.277 13.0952 1431 113.984 1084.75 471.766
2467 0 113.203 13.1003 1483 114.142 1084.47 469.502
2468 0 118.555 12.7873 1516 119.185 1084.14 465.536
2469 0 121.522 13.6107 1654 113.493 1084.89 462.949
2470 0 126.332 13.5595 1713 113.614 1084.42 459.301
2471 0 128.415 12.2805 1577 115.562 1084.78 459.296
2472 0 133.449 11.8772 1585 115.789 1085.51 453.851
2473 0 140.39 12.7288 1787 113.708 1084.99 453.069
2474 0 146.351 13.29 1945 111.636 1084.97 450.403
2475 1 79.173 12.4032 982 103.69 1085.31 483.255
2476 0 77.3429 10.0203 775 106.583 1085.17 480.832
2477 0 83.248 11.2675 938 103.415 1084.94 480.034
2478 0 85.2989 12.7786 1090 99.722 1085.01 482.075
2479 0 89.4296 12.9264 1156 99.8581 1084.58 477.414
2480 0 92.2296 12.393 1143 101.343 1084.99 477.196
2481 0 94.2697 13.5144 1274 99.9482 1084.47 474.579
2482 0 95.199 11.1661 1063 105.328 1084.22 473.139
2483 0 100.471 11.7845 1184 103.606 1083.98 473.033
2484 0 104.429 11.6922 1221 103.122 1083.68 468.806
2485 0 104.501 10.4688 1094 108.31 1084.27 463.326
2486 0 108.624 11.2038 1217 105.875 1083.82 466.282
2487 0 114.575 11.1281 1275 110.036 1084.12 462.775
2488 0 120.714 12.5752 1518 105.282 1083.73 463.335
2489 0 126.017 13.3871 1687 104.692 1083.3 456.576
2490 1 72.831 12.124 883 95.9173 1083.68 486.051
2491 0 73.9306 10.8751 804 98.5025 1084.31 485.541
2492 0 75.4715 11.8985 898 96.5735 1084.21 487.109
2493 0 75.5542 10.7473 812 100.361 1083.92 482.861
2494 0 80.6384 11.0865 894 99.9485 1083.32 482.729
2495 0 83.558 12.3387 1031 98.0921 1082.93 481.193
2496 0 87.3574 11.6075 1014 100.217 1083.88 478.485
2497 0 89.5866 11.7652 1054 99.9222 1083.67 478.081
2498 0 91.7198 10.6084 973 102.277 1083.64 475.088
2499 0 95.7534 10.8195 1036 102.397 1083.48 471.95
2500 0 97.902 12.584 1232 100.36 1083.12 465.827
2501 0 101.879 10.5223 1072 103.25 1083.46 467.469
2502 0 105.827 11.2447 1190 102.895 1082.92 464.713
2503 0 108.616 13.0551 1418 99.4993 1083 461.205
2504 0 112.995 11.6288 1314 102.161 1083.12 461.202
2505 0 114.634 11.262 1291 101.986 1083.8 464.208
2506 0 116.609 11.1055 1295 104.87 1083.55 458.028
2507 0 121.873 12.1191 1477 102.754 1083.81 455.31
2508 1 66.9093 9.77442 654 100.002 1084.29 483.65
2509 0 70.5996 7.63461 539 101.102 1083.87 478.801
2510 0 73.4406 10.934 803 97.1332 1084.2 485.306
2511 0 73.5577 11.0797 815 99.0748 1083.87 481.735
2512 0 76.3502 11.146 851 99.0258 1084.06 482.347
2513 0 78.4527 11.2424 882 99.8537 1084.28 480.58
2514 0 81.5129 11.8386 965 98.7026 1083.89 480.284
2515 0 84.5788 11.646 985 98.8162 1084.3 477.741
2516 0 85.5735 11.4989 984 101.033 1084.32 475.206
2517 0 87.6357 11.3538 995 101.24 1085.05 473.674
2518 0 90.5352 12.3046 1114 99.4937 1084.95 472.765
2519 0 93.6514 12.3436 1156 98.8028 1085.21 472.028
2520 0 95.7612 12.9384 1239 99.8095 1085.02 470.78
2521 0 100.754 11.7911 1188 102.542 1084.82 469.327
2522 0 103.91 11.8564 1232 102.333 1085.34 465.341
2523 0 105.88 11.4281 1210 102.315 1085.47 466.226
2524 1 60.2628 9.54154 575 96.5583 1086.11 492.325
2525 0 61.093 10.7214 655 96.3359 1086.36 489.455
2526 0 60.2343 9.23062 556 99.1817 1086.29 487.721
2527 0 64.263 10.0369 645 96.4372 1085.86 488.966
2528 0 67.2148 12.1551 817 93.0502 1086.01 486.531
2529 0 68.3287 10.4202 712 95.927 1085.47 487.851
2530 0 70.4061 11.036 777 95.9112 1085.94 486.205
2531 0 72.3105 11.6442 842 95.4952 1085.8 482.887
2532 0 75.3371 11.9994 904 94.6184 1085.62 482.427
2533 0 75.2896 10.7585 810 98.1235 1085.56 480.759
2534 0 78.249 11.8596 928 96.5312 1085.87 479.582
2535 0 80.21 11.7192 940 97.3479 1086.41 479.588
2536 0 83.2908 11.9101 992 97.2772 1085.54 478.295
2537 0 84.3073 11.3513 957 99.7503 1085.75 475.064
2538 0 91.275 12.5445 1145 96.3004 1085.96 477.572
2539 0 90.2428 12.2558 1106 98.4991 1085.52 474.217
2540 0 94.2574 12.5189 1180 97.5619 1085.74 474.525
2541 0 97.3285 11.8978 1158 99.5855 1085.77 473.681
2542 0 100.254 11.7702 1180 100.609 1085.38 470.356
2543 0 101.192 13.0149 1317 98.4799 1086.41 467.15
2544 0 105.217 11.8612 1248 101.04 1086.89 468.45
2545 1 57.1288 10.5201 601 101.118 1087.49 488.383
2546 0 60.0978 11.7808 708 98.9859 1087.46 486.105
2547 0 61.2038 10.8817 666 102.002 1087.63 487.411
2548 0 65.2333 12.0184 784 102.835 1087.3 485.305
2549 0 66.2543 12.6331 837 101.958 1087.68 482.976
2550 0 68.193 12.6846 865 101.271 1086.84 483.965
2551 0 69.1907 12.1837 843 103.295 1086.53 481.179
2552 0 73.2112 13.1401 962 100.931 1087.07 479.36
2553 0 73.2692 12.1606 891 103.263 1087.23 478.053
2554 0 76.2532 12.9044 984 101.563 1086.93 477.67
2555 0 76.2978 12.5561 958 103.244 1086.46 474.61
2556 0 78.367 12.2245 958 103.308 1087.93 477.421
2557 0 81.3622 11.1477 907 105.831 1086.72 476.023
2558 0 85.3477 12.9236 1103 102.19 1087.04 473.41
2559 0 86.3789 12.0979 1045 103.951 1086.39 473.504
2560 0 90.3089 13.93 1258 100.634 1086.25 470.8
2561 0 92.3808 14.083 1301 100.612 1086.65 470.917
2562 0 93.3109 11.5099 1074 106.642 1087.33 468.619
2563 0 94.3574 11.4988 1085 107.484 1086.4 465.455
2564 0 99.4062 12.3332 1226 105.507 1086.03 466.502
2565 0 102.43 12.6721 1298 105.548 1086.55 462.876
2566 0 106.248 12.8849 1369 104.555 1086.17 460.476
2567 0 111.554 12.6665 1413 104.016 1085.4 463.444
2568 1 60.2453 9.92608 598 103.373 1087.44 490.186
2569 0 62.2404 12.2589 763 99.4037 1087.16 486.565
2570 0 64.3902 11.7254 755 102.143 1086.07 485.42
2571 0 67.4819 13.2628 895 98.3676 1086.16 482.616
2572 0 70.4258 10.8909 767 102.11 1087.01 486.103
2573 0 72.4289 12.6745 918 98.8617 1086 484.769
2574 0 73.5381 11.5314 848 101.052 1085.96 484.54
2575 0 76.3975 13.2072 1009 97.5788 1085.95 482.274
2576 0 81.5103 13.2376 1079 95.2706 1085.9 481.95
2577 0 81.5728 13.0068 1061 97.1734 1085.76 478.279
2578 0 84.6324 11.7922 998 99.1784 1085.16 479.341
2579 0 87.5483 13.3869 1172 95.7116 1085.33 479.54
2580 0 89.5877 13.7742 1234 95.8104 1085.69 476.297
2581 0 90.3769 12.8241 1159 99.2407 1085.15 474.177
2582 0 93.6182 12.4228 1163 100.448 1084.63 472.041
2583 0 98.6412 14.0915 1390 96.377 1085.07 472.163
2584 0 100.742 12.1896 1228 100.883 1084.92 466.931
2585 0 103.796 13.883 1441 97.2373 1083.81 466.192
2586 1 59.3416 11.2063 665 96.782 1085.75 495.537
2587 0 58.1799 12.2035 710 98.0197 1085.27 492.63
2588 0 58.2251 12.8639 749 95.4219 1086.38 492.263
2589 0 63.1086 12.1853 769 94.1079 1086.33 492.057
2590 0 63.2019 13.9394 881 93.6243 1086.4 490.138
2591 0 61.1397 11.58 708 100.266 1086.17 489.499
2592 0 68.2823 14.6744 1002 91.476 1085.65 485.223
2593 0 69.1497 13.5503 937 95.428 1085.73 486.603
2594 0 69.2383 12.3631 856 98.7523 1086.21 487.259
2595 0 71.4227 12.9511 925 98.6649 1085.83 486.547
2596 0 75.3702 14.3823 1084 96.667 1085.38 483.29
2597 0 78.2843 14.3835 1126 96.9574 1086.14 484.307
2598 0 81.3694 15.5587 1266 95.7725 1085.34 481.705
2599 0 81.6253 12.8514 1049 104.216 1085.66 479.82
2600 0 86.4184 13.0065 1124 107.021 1084.92 480.393
2601 0 86.7267 13.5137 1172 108.273 1085.08 473.43
2602 0 88.7795 12.9985 1154 109.658 1085.06 472.516
2603 0 92.3758 12.4708 1152 104.241 1084.6 475.452
2604 0 95.3503 12.9418 1234 103.31 1084.73 474.838
2605 0 97.5066 12.5838 1227 104.946 1083.85 469.203
2606 0 98.4312 12.6281 1243 105.248 1084.01 469.92
2607 0 104.404 13.4861 1408 102.84 1084.17 469.108
2608 0 104.496 11.6464 1217 108.975 1084.55 464.882
2609 0 110.636 12.7987 1416 106.554 1084.14 460.873
2610 0 113.634 11.8891 1351 107.945 1084 461.788
2611 1 62.3481 11.7566 733 99.648 1084.05 489.568
2612 0 62.3226 11.7453 732 100.934 1084.51 486.493
2613 0 67.1538 12.8064 860 98.4244 1083.62 487.008
2614 0 68.0909 11.7784 802 100.582 1083.96 485.712
2615 0 72.1504 12.3769 893 106.468 1085.64 485.918
2616 0 73.3658 12.6489 928 109.822 1087.8 482.579
2617 0 74.2789 12.3992 921 110.324 1087.12 483.548
2618 0 78.1744 12.6512 989 107.84 1087.42 480.582
2619 0 80.2683 12.072 969 109.244 1087.26 481.06
2620 0 83.3252 12.6852 1057 108.416 1086.98 479.696
2621 0 84.3579 12.3758 1044 111.792 1085.63 477.579
2622 0 87.2638 11.5053 1004 111.405 1085.82 475.105
2623 0 94.3513 13.6511 1288 107.922 1086.39 478.38
2624 0 98.4502 13.8852 1367 107.119 1085.9 475.87
2625 0 99.4613 12.7688 1270 110.705 1085.87 470.326
2626 0 99.5531 11.3105 1126 114.987 1085.42 465.404
2627 0 91.214 10.744 980 115.953 1085.43 459.843
2628 0 98.196 11.6705 1146 113.161 1085.69 463.088
2629 0 101.173 11.3865 1152 111.977 1085.82 452.762
2630 0 107.633 11.4278 1230 111.753 1084.94 454.772
2631 1 64.1745 11.2194 720 106.862 1086.16 488.836
2632 0 64.1423 10.9912 705 109.61 1084.81 484.957
2633 0 68.2115 12.0068 819 107.767 1083.78 487.057
2634 0 72.2393 12.0156 868 107.268 1082.94 488.123
2635 0 74.3541 12.2656 912 106.133 1083.09 487.166
2636 0 74.1603 11.8392 878 106.68 1083.78 487.68
2637 0 75.2142 11.0219 829 108.709 1083.39 483.192
2638 0 76.3257 9.62978 735 113.782 1083.67 477.978
2639 0 82.2735 13.4916 1110 104.933 1083.21 478.249
2640 0 85.1313 12.0285 1024 105.958 1084.02 480.714
2641 0 87.2021 11.3185 987 105.19 1084.45 480.787
2642 0 89.1817 9.72173 867 100.582 1083.52 479.003
2643 0 91.1568 9.62078 877 100.276 1083.58 474.34
2644 0 99.2165 12.1048 1201 95.3772 1083.3 474.097
2645 0 103.276 11.232 1160 97.7086 1083.55 472.926
2646 1 55.0619 11.7867 649 93.0339 1083.2 498.983
2647 0 58.0217 12.2713 712 93.9565 1085.83 498.447
2648 0 58.0833 12.2238 710 94.7648 1085.77 497.031
2649 0 58.0588 10.5927 615 95.3512 1085.64 494.776
2650 0 61.1539 12.5094 765 91.464 1084.96 494.638
2651 0 63.1129 11.8518 748 93.3422 1085.39 495.186
2652 0 64.0591 12.1919 781 93.1805 1085.03 493.831
2653 0 66.1013 12.3749 818 93.7139 1084.86 490.912
2654 0 68.0582 13.7676 937 91.6147 1084.98 489.121
2655 0 71.1553 11.5663 823 95.5103 1084.41 488.397
2656 0 71.1445 13.5639 965 92.6902 1085.08 486.352
2657 0 73.1169 12.4185 908 95.087 1084.81 487.556
2658 0 74.2058 13.6108 1010 93.7218 1084.27 484.937
2659 0 78.1293 12.7481 996 95.3173 1084.16 483.824
2660 0 80.1409 13.6135 1091 94.7269 1084.5 484.085
2661 0 81.1042 12.3298 1000 97.438 1084.47 482.244
2662 0 83.1758 11.9746 996 98.3946 1084.19 482.642
2663 0 87.1929 12.5698 1096 97.6414 1084.59 479.503
2664 0 91.1492 13.7247 1251 94.6747 1084.37 480.539
2665 0 90.1781 11.7434 1059 100.827 1082.87 478.256
2666 0 94.2818 13.099 1235 98.3328 1083 478.813
2667 0 100.235 14.0869 1412 96.1544 1084.04 472.895
2668 0 102.103 12.1838 1244 101.568 1083.41 471.171
2669 0 105.164 13.9686 1469 97.3451 1084.18 471.892
2670 0 107.197 13.4333 1440 98.5875 1083.99 467.762
2671 0 112.276 13.5559 1522 98.954 1083.12 470.531
2672 0 115.359 13.6184 1571 98.3412 1081.98 470.073
2673 1 65.0569 11.4361 744 101.866 1080.69 494.302
2674 0 69.1814 12.5901 871 98.9988 1081.42 491.216
2675 0 70.0829 12.3996 869 98.6709 1081.45 492.736
2676 0 74.2812 12.5604 933 100.383 1081.6 489.058
2677 0 76.1163 13.4268 1022 98.6321 1080.85 490.677
2678 0 80.3711 14.4206 1159 95.9594 1081.55 486.543
2679 0 80.164 12.3247 988 101.479 1081.8 485.588
2680 0 84.1719 13.615 1146 99.3996 1082.04 482.8
2681 0 87.1928 12.2946 1072 101.07 1081.62 485.039
2682 0 90.2619 13.6159 1229 98.5281 1082.44 479.225
2683 0 92.2332 12.978 1197 101.205 1082.34 480.717
2684 0 97.168 14.264 1386 98.6804 1082.34 476.429
2685 0 99.2263 12.7386 1264 102.085 1082.26 478.128
2686 0 101.262 11.653 1180 108.209 1081.71 474.495
2687 0 106.31 12.9432 1376 102.959 1082.26 472.404
2688 1 61.0511 12.3831 756 103.821 1081.21 494.725
2689 0 61.2248 11.6129 711 108.74 1080.48 494.395
2690 0 65.1885 13.2078 861 104.326 1081.16 493.909
2691 0 67.2596 12.2213 822 108.71 1081.67 493.363
2692 0 66.1786 11.8467 784 111.538 1081.83 492.087
2693 0 70.1731 12.6259 886 109.306 1081.13 491.602
2694 0 72.1705 12.9277 933 109.24 1081.81 488.627
2695 0 74.3156 13.1332 976 109.908 1082.02 488.424
2696 0 75.3152 12.6402 952 111.789 1081.45 485.749
2697 0 75.3506 11.0815 835 116.269 1081.77 485.35
2698 0 81.3638 14.048 1143 108.399 1082.08 485.374
2699 0 83.2644 13.331 1110 111.282 1082.5 482.766
2700 0 86.3747 12.9089 1115 112.77 1081.99 483.454
2701 0 89.3117 13.4473 1201 112.765 1081.94 482.247
2702 0 91.3342 13.8612 1266 113.54 1082.26 479.908
2703 0 93.4154 12.6639 1183 117.807 1082.66 477.029
2704 0 95.3296 13.4271 1280 114.97 1082.38 478.689
2705 0 99.4274 13.3967 1332 113.625 1082.34 477.577
2706 0 101.27 12.5901 1275 116.29 1082.19 471.878
2707 0 104.215 13.712 1429 110.878 1082.18 475.361
2708 0 107.447 13.6254 1464 111.299 1082.25 471.47
2709 0 111.483 13.2666 1479 114.291 1082.71 470.629
2710 0 113.564 13.6751 1553 114.43 1082.37 467.024
2711 0 116.533 13.9875 1630 113.236 1083.07 467.591
2712 0 120.706 13.2222 1596 113.311 1083.58 462.467
2713 0 121.486 13.3431 1621 113.72 1082.83 457.448
2714 0 124.407 13.1745 1639 112.399 1082.41 456.935
2715 0 132.687 14.1234 1874 109.351 1082.17 453.562
2716 1 70.1383 8.71136 611 115.38 1082.07 482.733
2717 0 73.1739 10.9875 804 109.256 1083.6 478.453
2718 0 75.1631 11.016 828 108.313 1083.96 479.068
2719 0 74.1037 10.04 744 112.155 1084.01 477.02
2720 0 80.2471 11.2527 903 107.291 1082.91 475.333
2721 0 82.2134 10.8255 890 106.807 1082.91 476.361
2722 0 88.2702 10.5358 930 109.857 1083 473.313
2723 0 89.3061 11.5558 1032 109.529 1084.26 476.676
2724 0 96.3854 12.4189 1197 114.744 1084.04 478.811
2725 0 100.417 13.434 1349 112.764 1084.5 474.757
2726 0 100.282 11.8665 1190 111.993 1084.36 473.206
2727 0 104.322 13.1612 1373 109.467 1084.4 469.741
2728 0 107.364 12.1455 1304 111.845 1085.19 469.974
2729 0 112.447 13.304 1496 109.341 1084.17 468.056
2730 0 114.284 12.8977 1474 111.172 1084.35 466.702
2731 0 117.38 13.648 1602 109.361 1084.89 466.444
2732 0 122.358 13.4359 1644 110.093 1084.74 463.319
2733 0 123.533 12.5797 1554 114.008 1084.13 457.057
2734 1 69.5064 10.7472 747 111.546 1084.73 486.123
2735 0 71.2954 11.0386 787 112.787 1084.19 482.142
2736 0 73.3318 11.2775 827 110.516 1083.95 482.381
2737 0 77.5703 12.1052 939 109.154 1084.18 479.905
2738 0 79.4568 13.0889 1040 107.629 1084.01 479.246
2739 0 82.4129 12.7893 1054 107.003 1085.25 482.825
2740 0 85.3023 13.7863 1176 105.067 1085.43 482.476
2741 0 86.3618 13.1192 1133 107.994 1085.52 478.969
2742 0 88.3722 13.4205 1186 107.213 1085.26 478.44
2743 0 90.303 12.3141 1112 109.451 1085.56 477.423
2744 0 95.3956 14.3717 1371 104.133 1085.12 475.121
2745 0 96.3964 12.3863 1194 109.613 1084.92 472.1
2746 0 98.4989 13.1169 1292 109.149 1085.25 473.058
2747 0 101.378 12.5866 1276 110.324 1084.74 473.04
2748 0 105.527 13.3899 1413 108.848 1085.15 468.626
2749 0 107.292 13.1789 1414 110.231 1084.41 466.155
2750 0 112.347 13.307 1495 109.346 1084.38 462.825
2751 0 117.512 13.454 1581 108.519 1084.56 461.911
2752 0 117.237 11.6772 1369 111.899 1086.23 460.396
2753 0 122.305 12.9676 1586 109.171 1085.87 459.197
2754 1 65.3056 11.9745 782 108.494 1086.05 488.59
2755 0 66.336 10.6126 704 106.876 1085.7 483.33
2756 0 69.2782 12.6735 878 106.883 1085.09 481.983
2757 0 71.2275 12.2144 870 108.187 1084.93 479.418
2758 0 75.3156 12.7729 962 105.785 1084.65 482.382
2759 0 77.2055 12.5509 969 106.382 1085.19 482.053
2760 0 77.2301 12.2621 947 107.983 1084.83 480.872
2761 0 81.1453 13.8394 1123 104.511 1084.87 479.485
2762 0 84.2383 13.1769 1110 106.223 1085.5 479.002
2763 0 85.1825 13.0661 1113 107.161 1084.97 476.24
2764 0 88.195 13.1754 1162 107.465 1085.16 475.859
2765 0 93.2104 12.7776 1191 108.292 1085.25 475.508
2766 0 93.2269 13.1936 1230 108.146 1085.21 474.192
2767 0 96.2787 11.9029 1146 104.771 1085.02 471.263
2768 0 100.353 13.4425 1349 102.326 1085.55 468.575
2769 0 101.199 10.9685 1110 107.164 1085.55 465.741
2770 0 104.216 12.1766 1269 104.324 1084.94 463.109
2771 0 108.2 11.8577 1283 105.055 1084.59 464.322
2772 0 110.437 11.1286 1229 107.441 1084.35 459.797
2773 1 64.1015 12.3866 794 98.8741 1085.28 486.542
2774 0 66.1699 11.2589 745 99.1826 1085.24 484.544
2775 0 70.1289 13.575 952 94.2248 1084.92 482.589
2776 0 70.1687 11.5579 811 99.6141 1084.7 482.449
2777 0 73.2337 11.593 849 98.8068 1085.53 480.96
2778 0 75.2572 12.4506 937 97.2305 1084.42 478.178
2779 0 78.2862 13.2463 1037 95.134 1084.43 477.692
2780 0 79.3046 12.08 958 96.8413 1084.57 476.474
2781 0 81.2293 11.7322 953 97.5352 1084.42 473.275
2782 0 86.2947 12.7586 1101 95.7084 1084.48 474.769
2783 0 87.3737 11.777 1029 98.1837 1083.75 471.237
2784 0 86.3406 12.0569 1041 99.1057 1083.84 470.053
2785 0 92.2545 11.5008 1061 100.174 1084.1 469.511
2786 0 97.1525 13.906 1351 102.951 1085.34 470.354
2787 0 99.3466 12.9546 1287 104.368 1085.09 469.224
2788 0 104.117 13.6577 1422 102.103 1085.41 468.303
2789 0 106.247 13.1109 1393 104.396 1085.59 469.578
2790 0 110.249 13.2699 1463 105.727 1084.94 460.279
2791 1 57.1116 11.0661 632 104.59 1084.17 487.604
2792 0 62.2655 12.2861 765 108.003 1084.33 488.031
2793 0 63.1368 11.4355 722 106.216 1084.44 485.287
2794 0 64.2794 13.5191 869 103.255 1084.38 485.368
2795 0 65.1278 11.8843 774 107.775 1084.4 484.217
2796 0 70.1359 13.317 934 103.522 1084.62 483.49
2797 0 73.2459 13.0929 959 105.576 1083.99 480.504
2798 0 73.2209 12.7149 931 107.671 1083.74 479.928
2799 0 76.2102 13.9089 1060 103.458 1083.3 480.29
2800 0 78.1962 13.5684 1061 105.152 1084 476.604
2801 0 82.1523 13.7793 1132 104.724 1083.68 478.045
2802 0 85.1222 14.8492 1264 100.074 1083.43 477.024
2803 0 88.1425 14.2383 1255 102.107 1083.14 475.048
2804 0 90.1623 13.4646 1214 104.289 1083.53 476.108
2805 0 95.1771 14.2471 1356 105.147 1083.72 471.915
2806 0 96.2333 13.3218 1282 108.821 1083.94 471.788
2807 0 100.118 13.9036 1392 107.578 1083.65 472.711
2808 0 102.121 15.0116 1533 104.731 1083.65 466.879
2809 0 105.189 15.2868 1608 104.322 1084.06 468.295
2810 0 107.171 14.1177 1513 106.643 1083.16 467.383
2811 0 110.161 13.4985 1487 109.399 1084.07 464.691
2812 0 113.152 14.1932 1606 109.412 1083.7 461.124
2813 0 117.175 13.4072 1571 111.603 1083.56 457.682
2814 0 122.258 12.9725 1586 113.611 1083 457.64
2815 1 68.1184 12.2434 834 106.705 1081.94 484.239
2816 0 70.1409 12.9311 907 106.537 1081.78 482.496
2817 0 72.0718 11.322 816 110.266 1082 482.332
2818 0 75.1319 12.6444 950 107.748 1082.12 481.626
2819 0 77.1931 12.9286 998 106.878 1082.96 479.019
2820 0 76.1834 12.1286 924 110.36 1082.22 475.41
2821 0 81.2384 13.1711 1070 108.003 1083.18 475.064
2822 0 84.1744 12.6167 1062 108.802 1082.71 476.323
2823 0 88.1752 13.5866 1198 105.987 1082.45 475.669
2824 0 90.1877 12.4075 1119 109.184 1082.72 473.681
2825 0 93.221 12.5508 1170 109.137 1082.07 471.657
2826 0 94.1988 12.0065 1131 111.042 1082.46 468.969
2827 0 100.177 11.6594 1168 105.467 1083.27 473.967
2828 0 104.288 13.9902 1459 103.447 1082.92 471.99
2829 0 108.452 13.3238 1445 105.765 1084.69 469.335
2830 0 110.371 13.4184 1481 108.698 1084.3 464.741
2831 0 114.406 12.4294 1422 109.991 1083.7 465.053
2832 1 67.1432 12.5553 843 102.47 1084.03 490.977
2833 0 66.1408 10.6893 707 106.641 1084.78 492.098
2834 0 69.13 13.9303 963 105.357 1084.43 487.932
2835 0 73.1216 13.6485 998 106.007 1084.67 486.408
2836 0 74.0742 13.581 1006 106.667 1085.16 486.245
2837 0 75.0664 13.0684 981 107.988 1084.68 485.687
2838 0 79.0426 13.7647 1088 106.576 1085.11 483.727
2839 0 81.1164 14.3991 1168 105.908 1084.72 482.037
2840 0 85.1088 13.1009 1115 108.869 1085.06 481.391
2841 0 86.1182 13.3537 1150 108.51 1084.76 477.081
2842 0 89.1123 14.4088 1284 105.833 1084.65 476.417
2843 0 92.1583 13.7698 1269 106.837 1085.02 478.486
2844 0 95.1654 14.0177 1334 109.127 1083.89 479.825
2845 0 98.2737 13.8287 1359 110.096 1083.3 477.525
2846 0 101.326 14.4582 1465 108.848 1083.6 476.385
2847 0 104.25 13.3045 1387 111.986 1083.67 473.969
2848 0 106.354 13.1823 1402 112.193 1083.74 473.689
2849 0 110.368 14.1617 1563 109.715 1083.68 472.274
2850 0 114.369 14.6631 1677 108.671 1083.27 469.302
2851 0 120.289 14.4568 1739 108.841 1083.6 468.618
2852 0 121.451 14.0633 1708 110.636 1083.32 466.253
2853 0 125.423 13.2034 1656 111.393 1083.08 465.801
2854 1 66.3267 11.3077 750 107.501 1083.8 495.444
2855 0 65.273 11.9651 781 106.691 1083.64 489.549
2856 0 69.3797 13.4477 933 103.262 1083.38 486.355
2857 0 72.415 13.3536 967 103.906 1083.18 488.812
2858 0 74.3839 13.8874 1033 101.144 1084.16 491.522
2859 0 76.2752 14.487 1105 102.34 1084.53 489.285
2860 0 79.3514 13.6734 1085 103.718 1084.79 489.436
2861 0 80.3778 13.5361 1088 105.008 1083.95 488.03
2862 0 81.3883 14.5598 1185 103.582 1083.93 485.25
2863 0 84.2971 14.9115 1257 102.549 1084.24 483.074
2864 0 86.5792 14.5762 1262 103.193 1084.48 483.471
2865 0 87.3893 13.9033 1215 105.946 1083.76 482.33
2866 0 90.356 12.6278 1141 109.064 1083.51 481.366
2867 0 94.4549 14.1549 1337 105.717 1083.27 480.403
2868 0 95.5622 14.3781 1374 106.406 1083.63 474.211
2869 0 96.6143 13.8489 1338 108.787 1083.41 476.515
2870 0 101.625 14.7798 1502 109.703 1083.73 476.126
2871 0 102.663 13.7245 1409 113.919 1082.97 473.798
2872 0 105.454 14.1769 1495 112.474 1082.56 471.999
2873 0 107.757 13.6883 1475 113.602 1082.7 473.083
2874 0 114.644 14.7849 1695 110.048 1082.72 470.957
2875 0 116.504 13.6648 1592 113.079 1083.3 468.082
2876 0 119.563 14.4693 1730 112.231 1083.16 465.351
2877 0 122.647 13.2168 1621 116.749 1083.44 460.88
2878 0 126.31 11.5747 1462 110.274 1081.88 459.687
2879 0 133.447 13.2188 1764 107.845 1082.18 455.818
2880 0 136.641 12.2438 1673 112.593 1083.03 453.525
2881 1 69.1063 11.1567 771 102.318 1083.45 493.594
2882 0 72.2703 12.3426 892 100.738 1082.26 489.944
2883 0 74.1055 12.9545 960 100.336 1082.18 489.253
2884 0 78.1272 12.6844 991 99.6509 1083.83 490.139
2885 0 78.1992 12.3147 963 101.353 1083.58 488.276
2886 0 80.1114 13.4812 1080 100.776 1083.75 485.998
2887 0 81.1015 11.9603 970 102.893 1083.72 487.868
2888 0 84.1779 13.6378 1148 100.341 1083.63 483.892
2889 0 85.0828 12.6465 1076 102.837 1083.68 483.803
2890 0 86.1653 11.0021 948 105.731 1083.62 485.126
2891 0 87.1041 10.1029 880 107.934 1083.97 482.684
2892 0 92.3019 13.6509 1260 100.436 1083.18 479.719
2893 0 93.3067 12.8179 1196 101.654 1082.88 479.675
2894 0 95.1218 12.7626 1214 103.066 1083.33 478.648
2895 0 98.3082 13.6408 1341 102.186 1083.45 475.599
2896 0 103.346 14.7949 1529 97.8084 1083.27 471.521
2897 0 105.495 13.8585 1462 99.8201 1082.78 472.081
2898 0 106.259 14.2387 1513 100.931 1082.92 468.167
2899 0 110.297 13.6359 1504 102.659 1083.22 469.205
2900 0 112.342 14.9187 1676 103.144 1082.69 466.088
2901 0 113.496 15.56 1766 102.181 1082.7 465.159
2902 0 115.339 14.271 1646 104.874 1083.24 463.671
2903 0 119.458 15.6205 1866 100.419 1082.78 461.856
2904 0 123.297 15.0936 1861 100.743 1083.22 460.174
2905 0 122.328 13.57 1660 103.768 1082.91 459.586
2906 0 127.287 15.0448 1915 101.107 1082.43 456.095
2907 0 131.59 15.4495 2033 99.7462 1082.57 456.657
2908 0 132.392 15.1368 2004 100.647 1083.32 454.471
2909 0 135.385 14.1892 1921 101.797 1082.78 453.661
2910 0 139.374 16.7678 2337 96.9606 1083.04 454.101
2911 0 142.305 15.3473 2184 99.5499 1083.44 449.558
2912 0 145.248 15.5458 2258 99.5748 1082.87 447.656
2913 0 150.585 16.4226 2473 96.8682 1082.77 445.207
2914 0 150.533 14.1763 2134 102.341 1082.41 446.924
2915 0 156.528 14.6811 2298 101.307 1082.75 445.934
2916 0 159.557 16.3578 2610 97.9973 1082.58 445.487
2917 0 159.478 15.1307 2413 100.785 1083.12 443.799
2918 0 164.436 15.015 2469 100.008 1083.15 441.887
2919 0 167.249 14.6308 2447 100.438 1082.8 437.705
2920 0 170.417 15.1687 2585 99.0209 1082.32 438.046
2921 0 173.309 14.6213 2534 100.775 1082.3 432.967
2922 0 177.409 15.2529 2706 99.1578 1082.79 432.691
2923 0 181.308 15.9838 2898 97.7326 1082.85 432.848
2924 0 183.253 14.8865 2728 99.7133 1083.31 430.192
2925 0 187.368 16.0486 3007 96.3615 1083.8 429.92
2926 0 189.392 14.3037 2709 98.5079 1083.4 434.704
2927 0 192.328 14.5949 2807 98.7645 1082.73 430.081
2928 0 196.324 15.0466 2954 98.019 1082.68 426.64
2929 0 202.448 15.0507 3047 97.7072 1083.12 422.439
2930 0 204.429 14.8805 3042 98.5224 1082.81 419.488
2931 0 208.551 14.9891 3126 97.3637 1082.87 416.264
2932 0 212.369 14.6867 3119 97.4277 1082.98 418.101
2933 0 217.255 16.5105 3587 94.2283 1082.88 415.382
2934 0 220.245 14.9197 3286 97.018 1082.8 411.908
2935 0 226.349 15.6219 3536 95.4661 1082.6 407.837
2936 0 232.381 17.0195 3955 92.6056 1082.82 406.683
2937 0 235.324 16.7132 3933 93.194 1082.39 407.595
2938 0 238.419 13.9041 3315 97.635 1082.62 407.24
2939 0 242.362 14.825 3593 95.7721 1082.35 406.575
2940 0 246.475 15.0279 3704 96.044 1082.37 396.824
2941 0 253.611 16.5805 4205 93.0036 1082.08 391.486
2942 0 260.387 16.7942 4373 92.6547 1082.7 393.397
2943 0 266.81 16.0451 4281 92.5697 1082.41 394.963
2944 0 269.652 15.3531 4140 93.7099 1082.66 390.553
2945 0 274.603 15.5898 4281 93.0724 1082.49 382.962
2946 1 286.687 21.9333 6288 81.2316 1082.54 379.736
2947 0 287.737 15.5003 4460 91.578 1082.57 382.824
2948 0 294.69 17.3539 5114 87.919 1082.45 371.936
2949 0 299.63 16.9543 5080 88.1547 1081.91 373.545
2950 0 304.682 19.0067 5791 84.3464 1082.05 369.198
2951 0 310.481 20.0238 6217 82.2027 1082.02 367.854
2952 0 315.582 18.3153 5780 84.4503 1082.22 367.022
2953 0 319.757 17.8167 5697 84.9807 1082.02 362.12
2954 0 326.523 18.6357 6085 82.9558 1082.14 357.324
2955 0 329.593 17.9616 5920 83.8029 1081.92 361.203
2956 0 335.806 17.3612 5830 84.1698 1081.84 356.391
2957 0 342.608 19.1764 6570 80.6881 1081.91 351.824
2958 0 349.87 20.1732 7058 78.6557 1081.47 355.842
2959 0 355.126 19.655 6980 79.7016 1082.03 344.716
2960 0 358.556 17.9302 6429 81.4117 1082 346.444
2961 0 368.854 19.8859 7335 78.2048 1082.76 336.472
2962 0 367.939 20.1175 7402 78.1335 1082.61 342.325
2963 0 364.727 18.3425 6690 81.3568 1082.58 338.874
2964 0 369.768 17.5759 6499 82.1343 1082.31 340.098
2965 0 373.118 18.7206 6985 80.6387 1082.41 334.61
2966 0 373.029 18.2077 6792 81.285 1082.3 335.495
2967 0 373.598 17.6607 6598 82.1967 1082.18 337.841
2968 0 373.763 17.1526 6411 83.3597 1082.17 337.665
2969 0 376.918 19.7709 7452 79.3472 1081.96 333.705
2970 0 375.699 18.9833 7132 81.0001 1082.05 334.847
