time division length width area intensity CMx CMy
0 0 91.1568 13.0435 1189 118.839 957.56 415.222
1 0 91.1339 12.4542 1135 119.544 957.899 414.826
2 1 50.0346 10.7925 540 115.072 957.894 436.846
3 0 50.0785 12.2608 614 115.436 957.365 435.34
4 0 52.0936 11.1914 583 111.496 957.268 435.508
5 0 54.1489 11.9855 649 105.248 956.778 433.134
6 0 57.044 11.1668 637 106.188 956.837 434.736
7 0 60.0241 11.2122 673 105.272 957.593 434.386
8 0 61.0932 10.6395 650 109.143 958.258 432.597
9 0 64.1363 12.1928 782 109.573 958.68 425.739
10 0 66.0915 11.5143 761 112.108 956.912 426.332
11 0 69.0902 11.2172 775 112.919 957.274 427.152
12 0 73.1845 13.6914 1002 107.922 959.036 428.981
13 0 73.1158 12.8563 940 116.304 959.766 428.011
14 0 78.1654 13.2795 1038 119.482 959.392 430.797
15 0 80.2529 14.0306 1126 118.782 959.338 428.187
16 0 81.2099 12.5601 1020 122.709 958.192 430.187
17 0 85.1816 13.2893 1132 121.36 958.911 428.072
18 0 86.1002 12.8687 1108 124.685 958.157 425.906
19 0 91.3479 12.6221 1153 125.27 958.243 426.199
20 1 47.1418 10.9881 518 119.911 958.251 447.127
21 0 48.1059 11.3707 547 121.539 958.28 445.623
22 0 51.0587 12.4563 636 117.462 958.385 444.819
23 0 54.2436 13.0522 708 117.356 958.829 444.136
24 0 53.2901 11.7846 628 123.833 958.914 443.997
25 0 57.2666 11.9791 686 122.599 959.901 442.516
26 0 57.238 11.3561 650 124.906 959.863 442.555
27 0 60.1648 12.3826 745 122.495 959.358 440.439
28 0 61.1421 12.2665 750 122.815 960.175 440.319
29 0 65.1876 12.5944 821 121.85 960.162 439.229
30 0 67.2049 12.6032 847 122.351 959.475 437.883
31 0 69.2742 12.4577 863 123.621 960.074 435.122
32 0 68.1217 12.6538 862 125.461 959.566 430.51
33 0 72.3018 12.185 881 125.721 959.56 429.623
34 0 75.2851 12.4992 941 125.219 959.579 431.265
35 0 78.1725 13.2655 1037 123.43 959.783 430.194
36 0 80.2076 12.5799 1009 125.979 958.34 427.638
37 0 83.2119 12.8467 1069 125.354 959.25 425.941
38 0 85.232 12.0143 1024 128.431 958.274 422.9
39 0 87.1831 11.4931 1002 127.426 958.329 422.191
40 0 89.0981 11.8746 1058 124.855 957.406 418.035
41 0 95.0691 13.3797 1272 120.256 958.362 416.35
42 1 47.0491 9.62824 453 116.656 958.499 438.905
43 0 48.074 10.0262 482 117.328 958.402 430.888
44 0 50.0484 9.25104 463 111.425 959.197 433.663
45 0 52.0858 12.153 633 110.831 958.918 437.823
46 0 52.0942 12.1703 634 113.405 958.699 437.746
47 0 56.1163 12.4206 697 110.178 957.983 437.706
48 0 55.0411 11.7367 646 112.833 958.093 436.749
49 0 58.0645 11.9867 696 112.425 958.474 436.391
50 0 60.0883 12.6647 761 110.076 958.79 432.737
51 0 62.0821 13.0795 812 108.369 958.044 434.202
52 0 64.0535 14.7845 947 107.891 958.012 432.183
53 0 63.1041 12.3605 780 115.246 958.399 432.213
54 0 66.204 13.1714 872 112.37 958.44 431.948
55 0 69.1516 12.9136 893 111.727 958.018 430.505
56 0 69.0504 12.2809 848 114.114 959.034 426.524
57 0 72.1571 12.3481 891 112.97 958.655 428.149
58 0 75.1588 12.6532 951 112.122 958.776 426.724
59 0 77.0719 13.5069 1041 110.74 957.886 424.201
60 0 80.093 13.6591 1094 109.953 958.837 423.838
61 0 83.0973 13.7068 1139 109.76 958.157 420.762
62 0 81.062 11.7318 951 115.779 958.653 420.423
63 0 87.071 12.8516 1119 110.914 958.103 420.685
64 0 88.0701 13.0124 1146 111.137 958.899 414.31
65 0 93.0854 13.5682 1263 108.69 959.487 417.623
66 0 94.1311 14.2992 1346 108.133 959.405 414.227
67 0 98.0431 13.2799 1302 110.73 959.043 413.019
68 1 50.0655 11.1654 559 112.36 958.653 437.823
69 0 51.0531 11.4978 587 111.503 959.549 435.388
70 0 55.0403 10.3924 572 104.808 960.794 434.885
71 0 53.0994 11.0359 586 106.442 960.792 431.961
72 0 56.0719 11.4853 644 109.089 960.453 433.742
73 0 55.0351 11.102 611 111.871 960.183 430.067
74 0 59.075 11.8663 701 109.161 959.773 430.937
75 0 61.0566 11.7596 718 109.596 960.029 430.879
76 0 62.0387 11.928 740 108.024 959.974 428.369
77 0 65.2335 11.9724 781 107.277 960.242 428.967
78 0 67.1041 11.4151 766 107.463 959.336 429.329
79 0 67.0704 11.7638 789 109.035 959.117 426.774
80 0 70.1787 11.257 790 110.268 959.023 424.737
81 0 73.0537 11.3478 829 111.106 959.545 424.053
82 0 77.1218 12.6423 975 109.321 959.144 424.308
83 0 81.1541 12.5933 1022 110.219 958.847 424.049
84 0 81.0854 11.827 959 115.264 959.285 425.258
85 0 86.2132 12.8287 1106 118.58 959.522 423.901
86 0 89.1646 13.6601 1218 116.135 959.03 422.647
87 0 91.1131 13.5765 1237 116.07 959.927 422.213
88 0 92.1542 12.9674 1195 119.281 959.284 418.782
89 0 94.2421 11.9798 1129 119.354 958.689 421.172
90 0 99.1608 12.9083 1280 117.741 958.888 417.733
91 1 52.0826 11.5586 602 113.723 959.561 443.068
92 0 54.0566 12.2464 662 109.825 959.924 440.198
93 0 56.0666 12.4851 700 110.829 959.693 436.161
94 0 57.1414 10.0628 575 108.339 958.28 436.195
95 0 60.1584 12.3009 740 103.119 959.165 435.065
96 0 61.1361 10.9101 667 106.481 959.496 433.702
97 0 63.1313 11.0246 696 106.882 958.704 433.917
98 0 66.1566 10.9286 723 107.386 957.97 432.231
99 0 68.2091 12.8429 876 106.403 958.458 429.74
100 0 70.1927 12.3232 865 97.133 958.703 428.994
101 0 71.2264 11.8495 844 100.935 958.525 428.668
102 0 75.2768 12.3943 933 100.186 958.098 426.574
103 0 74.1086 11.6451 863 74.3662 958.29 424.662
104 0 80.0616 12.5278 1003 103.793 958.349 424.63
105 0 83.1515 13.5897 1130 107.671 958.246 421.058
106 0 86.1958 13.0285 1123 108.426 958.139 422.829
107 0 88.1569 12.1488 1071 110.271 957.433 424.728
108 0 92.1928 12.9837 1197 109.165 956.868 422.683
109 0 95.193 14.0662 1339 106.692 957.464 423.935
110 0 98.2036 13.8997 1365 107.329 957.32 421.32
111 0 104.152 12.8274 1336 106.291 958.429 421.083
112 0 104.181 13.611 1418 107.617 957.788 416.819
113 0 108.18 14.3095 1548 105.735 958.05 415.627
114 0 110.314 13.4344 1482 108.872 957.312 415.366
115 0 115.296 13.6345 1572 108.446 957.886 413.359
116 0 121.272 14.2984 1734 107.031 957.754 412.94
117 0 123.297 14.3556 1770 109.871 957.571 405.959
118 0 125.249 12.8943 1615 114.954 957.695 406.214
119 1 70.1145 13.1784 924 108.491 958.469 436.282
120 0 70.1205 11.4945 806 114.148 958.653 433.61
121 0 76.1664 13.9432 1062 111.202 958.515 428.805
122 0 78.1583 14.0612 1099 111.735 958.666 427.778
123 0 81.2139 13.9016 1129 111.883 958.836 424.524
124 0 83.2168 14.288 1189 110.839 957.966 422.258
125 0 85.1663 13.0686 1113 114.124 957.491 424.532
126 0 88.0927 13.4971 1189 112.766 957.82 422.097
127 0 90.3754 13.1894 1192 113.576 958.074 419.408
128 0 93.2354 13.5893 1267 111.676 958.605 419.56
129 0 96.1449 13.7709 1324 111.568 958.696 410.729
130 0 100.154 15.1067 1513 108.889 957.868 408.866
131 0 104.125 13.3398 1389 111.654 958.877 410.064
132 0 107.14 14.9057 1597 108.28 957.757 394.969
133 0 108.115 13.3376 1442 108.286 957.947 405.781
134 0 111.104 12.3308 1370 110.777 958.178 407.326
135 0 117.17 13.3311 1562 107.723 958.218 407.367
136 0 118.18 12.2863 1452 110.869 959.638 405.176
137 0 124.102 13.094 1625 108.486 958.542 404.711
138 0 130.172 13.4898 1756 107.363 958.583 400.215
139 0 134.159 13.5361 1816 108.291 959.335 398.563
140 0 139.152 12.605 1754 112.095 958.463 394.934
141 1 72.0535 11.4776 827 111.329 958.954 426.288
142 0 71.0792 11.1566 793 113.623 957.671 423.533
143 0 78.076 13.2307 1033 106.229 958.444 423.434
144 0 82.0241 12.4598 1022 108.2 958.442 421.455
145 0 81.0295 12.6991 1029 107.962 958.835 420.843
146 0 84.0816 12.8447 1080 108.103 958.346 419.343
147 0 86.1834 12.9259 1114 104.657 958.307 416.305
148 0 89.1721 12.3245 1099 106.779 957.678 415.305
149 0 94.1907 12.8463 1210 104.655 957.807 414.919
150 0 96.2375 14.1629 1363 104.627 957.279 409.88
151 0 97.123 11.6244 1129 111.837 958.07 411.26
152 0 102.185 13.0548 1334 109.019 958.128 409.608
153 0 105.149 12.9721 1364 110.357 957.886 405.792
154 0 109.134 13.0207 1421 110.089 958.458 402.653
155 0 114.139 14.053 1604 108.277 958.233 400.437
156 0 116.162 14.0923 1637 108.981 957.458 401.369
157 0 120.171 14.1132 1696 109.246 957.508 400.241
158 0 122.081 12.1722 1486 115.225 957.837 395.874
159 0 127.149 13.6533 1736 111.794 957.847 392.445
160 0 132.213 13.864 1833 111.582 957.474 389.918
161 0 138.226 14.5124 2006 109.073 957.988 390.611
162 0 141.268 12.2958 1737 115.012 958.006 390.242
163 0 146.118 13.5165 1975 112.63 958.408 387.106
164 0 149.192 13.3386 1990 114.848 956.89 383.074
165 0 152.227 12.1464 1849 118.456 956.607 383.367
166 0 160.325 13.1421 2107 116.589 957.187 377.741
167 1 71.2371 10.2475 730 115.67 957.132 427.786
168 0 73.167 13.1343 961 109.373 956.828 425.559
169 0 76.0381 12.1255 922 116.214 956.5 419.628
170 0 78.049 12.7996 999 112.665 956.636 422.142
171 0 84.1052 12.2347 1029 112.431 956.292 423.094
172 0 87.1508 12.7021 1107 111.887 957.014 419.736
173 0 90.0527 13.3922 1206 110.057 956.42 419.541
174 0 92.0713 13.0551 1202 112.121 955.867 417.087
175 0 94.0654 12.5764 1183 112.807 956.476 415.728
176 1 46.1169 10.9504 505 105.65 956.723 442.42
177 0 47.0731 10.643 501 104.359 955.914 443.479
178 0 49.0929 11.6718 573 100.714 956.555 441.527
179 0 46.1013 10.0648 464 103.698 956.8 442.972
180 0 49.0628 10.619 521 102.173 956.699 440.509
181 0 51.1952 11.0752 567 101.915 957.175 440.679
182 0 53.1159 10.7877 573 100.501 957.281 443.274
183 0 56.1518 12.4306 698 97.182 957.426 441.673
184 0 55.1619 10.8046 596 99.6091 957.545 444.726
185 0 58.0667 11.1424 647 100.924 957.323 434.777
186 0 61.1017 11.5709 707 102.673 956.977 432.382
187 0 62.0754 10.7289 666 104.102 956.554 430.77
188 0 65.0918 11.6605 759 101.055 957.119 429.884
189 0 67.1125 11.0263 740 102.884 956.597 428.745
190 0 71.1584 11.6782 831 106.366 957.022 426.798
191 0 72.1278 13.3513 963 103.877 956.732 424.714
192 0 74.1515 11.7597 872 108.907 957.003 423.889
193 0 75.1145 11.7421 882 108.525 956.705 423.249
194 1 38.008 9.91895 377 108.037 956.289 439.135
195 0 42.0545 10.962 461 103.401 955.933 439.679
196 0 43.0245 11.2726 485 102.396 956.406 439.171
197 0 44.0261 10.6755 470 104.834 955.557 439.981
198 0 45.0356 11.8129 532 104.141 956.671 437.235
199 0 44.0663 10.8473 478 107.814 956.68 436.481
200 0 47.0322 10.8862 512 108.584 956.09 437.203
201 0 47.1263 11.2888 532 108.289 956.827 436.306
202 0 48.0482 10.5727 508 110.01 956.154 434.764
203 0 51.067 11.8668 606 106.031 956.639 435.449
204 0 50.0296 11.1934 560 109.279 956.288 433.143
205 0 55.0299 13.1565 724 103.369 956.239 433.456
206 0 55.0482 11.6625 642 108.425 956.114 431.646
207 0 53.0368 11.8408 628 109.839 955.662 432.24
208 0 56.0468 11.8472 664 109.096 956.848 431.536
209 0 56.1312 12.4173 697 108.789 956.957 430.043
210 0 61.1151 12.321 753 106.594 957.428 429.793
211 0 62.0661 11.5683 718 108.578 956.795 429.412
212 0 63.0393 12.627 796 108.062 956.558 425.327
213 0 66.1531 12.8188 848 106.762 956.165 427.645
214 0 67.0709 13.031 874 106.287 956.427 426.047
215 0 70.0597 13.1174 919 106.134 957.761 423.708
216 0 70.0853 13.0841 917 106.421 957.971 424.025
217 0 73.0672 11.8932 869 108.964 958.034 423.044
218 0 75.1325 13.2033 992 108.404 957.602 420.865
219 0 77.1163 12.9415 998 109.399 957.655 420.029
220 0 81.1254 12.5608 1019 110.006 957.87 418.154
221 0 83.0911 13.3588 1110 108.556 957.848 417.283
222 1 45.1728 13.0388 589 105.506 958.261 431.939
223 0 47.2327 12.4067 586 105.72 958.121 434.041
224 0 46.2138 12.1392 561 108.656 957.513 435.369
225 0 48.1517 12.3568 595 107.017 957.41 435.575
226 0 50.2224 12.3053 618 107.696 957.482 434.602
227 0 52.1465 12.5991 657 106.244 958.212 435.595
228 0 53.1676 12.9966 691 106.166 958.699 433.414
229 0 53.1415 12.3632 657 109.105 958.213 432.977
230 0 54.2526 11.5017 624 111.825 958.189 433.046
231 0 58.1518 13.0521 759 106.934 957.542 431.906
232 0 59.0902 13.4371 794 106.568 957.516 433.686
233 0 61.0818 12.6552 773 108.423 958.64 433.285
234 0 62.1002 12.7375 791 109.381 958.168 430.879
235 0 64.1532 12.8754 826 109.941 957.755 427.759
236 0 66.0821 12.7569 843 111.202 957.007 427.179
237 0 68.0841 12.7636 869 111.787 957.273 426.992
238 0 70.0731 13.0292 913 111.669 956.93 425.593
239 0 71.0774 12.9718 922 112.358 957.312 424.752
240 0 74.1267 12.5326 929 114.161 957.23 423.8
241 0 77.093 13.5421 1044 111.89 957.03 422.768
242 0 81.0639 13.3845 1085 111.934 957.751 422.912
243 1 41.0296 9.99279 410 115.766 958.095 439.427
244 0 42.1029 10.1656 428 116.589 957.269 437.946
245 0 45.0576 12.5839 567 108.312 957.531 436.46
246 0 45.0232 11.9494 538 113.388 957.011 436.898
247 0 48.1814 13.5114 651 109.882 958.198 435.495
248 0 48.1023 13.1387 632 112.693 958.362 435.359
249 0 50.1395 13.1433 659 112.052 957.83 435.381
250 0 50.1919 13.2691 666 113.922 957.176 432.965
251 0 52.1553 13.1147 684 113.586 957.503 433.618
252 0 55.1078 14.2267 784 109.829 957.853 433.374
253 0 57.108 14.0085 800 110.94 958.409 432.169
254 0 57.0364 13.43 766 112.932 957.551 432.364
255 0 60.0814 13.9311 837 112.276 957.785 431.103
256 0 62.0752 13.9508 866 111.926 957.286 430.052
257 0 63.0917 14.4076 909 111.327 956.444 429.735
258 0 65.0699 14.2616 928 113.45 957.397 427.595
259 0 68.0457 14.5343 989 112.257 957.505 427.972
260 0 67.0436 13.9163 933 116.648 957.244 426.282
261 0 72.0822 14.2476 1027 113.684 957.249 429.44
262 0 74.2552 14.733 1094 113.029 957.03 426.696
263 0 78.1155 14.1457 1105 112.476 957.597 429.562
264 0 79.1545 14.238 1127 112.787 957.72 427.914
265 0 81.1895 13.4008 1088 114.895 956.554 428.062
266 0 86.1352 14.2102 1224 111.09 957.972 428.284
267 0 90.2182 13.9661 1260 111.62 957.577 425.459
268 0 91.042 13.708 1248 115.38 956.96 422.324
269 1 48.0633 11.6513 560 114.105 957.659 438.6
270 0 48.0753 12.106 582 112.823 957.162 437.112
271 0 49.0199 11.6891 573 102.981 957.546 431.977
272 0 50.0845 11.0214 552 105.449 958.346 430.819
273 0 52.0358 12.7412 663 102.706 958.609 432.217
274 0 54.1012 11.5709 626 106.832 957.888 431.188
275 0 59.1262 11.7545 695 108.039 958.276 428.426
276 0 57.0869 12.4722 712 111.719 957.806 427.753
277 0 62.0911 12.7554 792 109.99 958.462 427.179
278 0 63.07 12.9221 815 111.379 958.132 424.252
279 0 65.0679 12.0336 783 113.641 957.816 424.153
280 0 69.186 13.3842 926 116.111 958.33 424.312
281 0 70.1803 12.6104 885 118.453 958.686 424.142
282 0 73.0569 13.4005 979 116.379 958.886 423.144
283 0 76.0707 13.2377 1007 118.685 958.381 420.794
284 0 81.0998 14.2294 1154 115.326 959.38 420.302
285 0 81.0947 13.811 1120 120.41 957.814 417.762
286 0 86.15 13.4881 1162 120.282 957.723 418.585
287 0 87.1203 13.4067 1168 121.821 958.407 416.491
288 1 44.0271 11.0841 488 120.377 957.928 436.639
289 0 47.0079 12.2107 574 117.956 957.714 435.005
290 0 48.0452 13.2583 637 116.242 957.133 437.278
291 0 47.0972 12.7821 602 113.412 957.598 437.663
292 0 50.0934 11.798 591 111.2 957.831 436.54
293 0 51.0595 11.751 600 103.497 958.437 432.26
294 0 54.1762 12.4593 675 102.356 957.646 431.67
295 0 52.0484 12.3347 642 105.847 957.746 428.863
296 0 57.0481 12.7086 725 104.419 958.153 429.335
297 0 59.1124 12.5355 741 105.351 957.516 428.91
298 0 59.0323 11.553 682 108.419 957.85 427.252
299 0 60.0935 11.6818 702 110.019 957.67 426.902
300 0 65.1437 13.2016 860 107.855 958.364 424.97
301 0 66.0852 12.4385 822 111.472 957.653 422.247
302 0 69.0643 12.6838 876 111.249 958.199 423.468
303 0 73.2635 14.6185 1071 116.203 958.538 422.86
304 0 76.1572 14.0367 1069 115.565 958.272 423.556
305 0 78.2377 13.753 1076 117.504 959.155 422.441
306 0 78.1052 12.752 996 120.718 958.458 422.823
307 0 82.1346 13.7457 1129 116.128 958.009 423.453
308 0 87.1009 13.5475 1180 118.347 957.45 418.338
309 1 43.0662 10.6116 457 116.786 958.243 439.228
310 0 46.0935 10.7824 497 104.252 958.072 433.046
311 0 47.0991 11.8261 557 102.664 958.7 433.404
312 0 47.0287 11.6737 549 103.896 958.933 434.366
313 0 49.0647 12.3103 604 103.283 958.272 433.028
314 0 49.1746 10.5136 517 109.031 958.499 433.269
315 0 51.1941 11.8568 607 105.669 959.872 431.771
316 0 51.0799 11.0024 562 109.4 959.117 430.24
317 0 53.108 11.9191 633 109.782 959.202 430.175
318 0 54.068 9.96893 539 111.323 958.302 430.091
319 0 59.0754 12.137 717 105.644 958.442 429.969
320 0 59.1016 10.6935 632 111.222 958.54 429.222
321 0 61.0836 10.6248 649 112.653 959.37 427.627
322 0 65.1194 12.3312 803 112.705 958.714 429.093
323 0 67.1089 12.7852 858 116.325 958.739 427.716
324 0 67.221 11.7672 791 118.723 958.726 428.403
325 0 73.1868 12.4203 909 114.801 958.046 430.345
326 0 75.166 13.1975 992 112.908 957.988 429.529
327 0 77.1565 12.8699 993 113.404 958.332 430.105
328 1 43.0347 10.8982 469 111.186 957.853 448.561
329 0 43.0559 12.1238 522 109.469 959.764 434.538
330 0 43.2021 10.7402 464 105.045 958.047 433.401
331 0 44.1 10.907 481 101.266 959.765 433.05
332 0 46.1002 10.4121 480 101.623 959.177 434.656
333 0 47.0801 12.2345 576 103.634 958.979 435.969
334 0 49.0814 12.0005 589 99.5314 957.992 430.611
335 0 51.1403 11.3414 580 100.086 958.371 432.097
336 0 52.0704 11.8109 615 99.8488 958.618 430.628
337 0 55.0113 11.7249 645 99.6279 958.732 428.267
338 0 55.0943 12.1428 669 99.722 959.55 429.694
339 0 58.0634 12.1247 704 100.839 959.129 428.44
340 0 58.0892 12.5669 730 101.655 959.129 427.175
341 0 61.0414 11.7297 716 106.081 958.864 426.543
342 0 63.0225 12.4717 786 104.422 959.246 425.753
343 0 67.1328 12.6913 852 103.933 959.399 424.518
344 0 68.0706 12.0169 818 108.347 957.832 423.518
345 0 72.044 13.7277 989 110.424 957.822 422.727
346 0 74.111 13.5203 1002 110.886 957.792 423.119
347 1 41.0432 11.5488 474 109.291 957.219 440.637
348 0 41.0216 11.9693 491 110.617 958.289 439.028
349 0 44.0433 11.6703 514 110.632 958.603 438.87
350 0 44.0439 12.6011 555 108.402 957.991 441.321
351 0 45.0556 12.4513 561 110.283 957.123 438.791
352 0 47.0306 12.864 605 109.838 958.056 437.585
353 0 49.0346 13.256 650 107.549 957.863 438.265
354 0 51.0439 14.0859 719 104.844 958.241 437.679
355 0 53.0438 13.2155 701 107.223 957.609 437.077
356 0 54.0888 11.8694 642 111.899 957.886 435.974
357 0 55.1594 13.8145 762 107.345 958.322 435.249
358 0 57.0516 13.1109 748 108.93 958.291 434.837
359 0 58.1491 13.0526 759 109.937 958.054 433.655
360 0 60.0806 13.898 835 107.96 957.388 432.634
361 0 62.0678 14.0008 869 106.217 958.142 431.71
362 0 65.0764 13.6455 888 107.775 958.157 430.583
363 0 66.1221 13.7322 908 107.57 958.378 431.108
364 0 67.1206 13.4385 902 109.21 958.059 428.568
365 0 72.199 13.8368 999 107.982 957.946 425.474
366 0 73.0518 14.127 1032 107.556 957.608 427.102
367 0 78.2072 13.9118 1088 106.582 957.922 424.246
368 0 82.141 15.0229 1234 102.198 957.806 424.9
369 0 84.1387 13.8343 1164 102.625 958.316 424.94
370 1 45.1071 12.9248 583 103.419 959.525 440.899
371 0 46.1405 12.1802 562 104.429 958.843 437.24
372 0 47.2001 12.6271 596 93.5151 958.908 437.72
373 0 46.0705 11.6994 539 99.7477 958.696 437.07
374 0 47.0671 10.9631 516 100.529 958.211 438.399
375 0 50.1623 12.7586 640 97.5969 958.188 437.248
376 0 51.126 12.0682 617 99.389 958.06 437.862
377 0 54.2206 13.0946 710 96.4676 957.537 437.631
378 0 54.1502 12.5761 681 99.7254 958.004 436.41
379 0 58.1181 13.4037 779 104.388 958.534 435.054
380 0 59.0792 12.5763 743 106.42 957.665 435.054
381 0 61.1633 12.8835 788 105.907 958.321 433.081
382 0 62.0745 11.4862 713 109.459 958.167 432.794
383 0 63.0714 12.4938 788 108.094 957.643 431.302
384 0 65.189 11.9652 780 103.759 957.508 430.235
385 0 67.1282 11.2471 755 106.988 957.207 429.295
386 0 71.0702 12.2414 870 106.48 957.613 427.059
387 0 73.0362 11.6654 852 108.34 957.238 429.617
388 0 76.071 12.5803 957 106.538 957.051 429.707
389 0 80.1953 13.4172 1076 105.295 957.365 428.652
390 0 79.2902 11.9309 946 108.766 957.226 429.912
391 1 40.177 11.7231 471 99.1592 957.433 451.662
392 0 42.1814 12.5411 529 99.6182 957.864 451.102
393 0 45.0559 10.9198 492 102.823 957.313 444.878
394 0 45.0489 11.4542 516 105.14 956.779 443.105
395 0 44.1216 12.1709 537 99.8901 956.473 440.715
396 0 44.1378 9.90082 437 105.293 957.178 441.082
397 0 48.1363 10.3456 498 103.697 957.227 440.906
398 0 51.0965 11.5272 589 99.8098 957.947 440.969
399 0 52.0462 11.0671 576 102.108 957.83 439.507
400 0 53.1548 11.9274 634 99.9984 957.721 436.486
401 0 54.1507 12.2251 662 100.287 957.486 436.276
402 0 57.1208 11.2043 640 101.967 957.616 436.988
403 0 60.3266 11.9184 719 100.719 957.36 435.508
404 0 62.1292 12.7637 793 100.892 957.63 432.821
405 0 64.3011 12.1615 782 102.762 957.629 432.451
406 0 63.1758 11.4759 725 109.157 958.116 431.08
407 0 68.0733 12.0605 821 106.082 957.189 429.033
408 0 71.1787 12.1947 868 105.013 957.674 430.372
409 0 75.2031 12.1804 916 103.988 957.938 430.499
410 0 78.3491 12.8144 1004 102.544 957.551 431.117
411 0 80.1794 12.4221 996 103.466 957.548 430.357
412 0 82.4023 11.1405 918 107.897 957.73 427.625
413 0 86.2027 12.9694 1118 103.326 958.29 425.776
414 0 88.3166 11.4361 1010 107.236 957.891 426.661
415 1 51.1246 11.6773 597 103.045 957.64 445.439
416 0 50.1934 12.1131 608 103.832 957.658 444.817
417 0 50.1287 10.6127 532 107.558 957.876 442.541
418 0 54.1799 12.3108 667 103.426 957.46 442.384
419 0 55.0818 12.0548 664 104.291 957.727 442.965
420 0 57.1179 13.2358 756 102.275 958.845 439.761
421 0 59.2139 12.9699 768 102.388 957.646 440.418
422 0 60.1415 13.1689 792 101.485 958.056 441.485
423 0 61.146 12.233 748 104.412 957.301 439.874
424 0 64.2174 12.302 790 102.225 957.784 440.182
425 0 66.1535 12.6977 840 102.276 958.193 437.55
426 0 68.2702 12.3626 844 102.012 958.359 438.156
427 0 70.1455 12.4456 873 102.05 957.367 436.749
428 0 71.2066 12.8921 918 100.52 958.253 437.012
429 0 75.2731 13.4045 1009 98.5966 957.911 435.145
430 0 76.1911 13.243 1009 99.5748 957.237 435.117
431 0 80.1479 11.6659 935 101.658 956.845 432.41
432 0 82.1125 12.4829 1025 99.8527 956.912 430.922
433 0 83.2005 11.6946 973 100.553 957.77 433.34
434 0 87.2296 12.5072 1091 101.331 957.566 429.615
435 0 89.2718 13.6997 1223 99.9845 958.036 428.886
436 0 91.1441 11.7067 1067 104.484 956.908 428.037
437 0 89.2688 12.8264 1145 101.091 956.896 429.044
438 0 92.2971 11.9614 1104 103.151 957.025 427.917
439 1 48.0849 10.4607 503 100.531 956.952 448.767
440 0 52.0724 9.4868 494 100.119 957.233 451.208
441 0 55.1975 11.178 617 97.718 956.955 450.169
442 0 55.1847 11.978 661 96.3238 957.322 448.52
443 0 57.23 11.2354 643 98.0513 957.286 448.666
444 0 61.2263 12.0373 737 94.9471 957.421 448.328
445 0 62.1432 12.5838 782 93.9476 957.271 447.527
446 0 64.104 10.7482 689 97.4151 957.646 446.209
447 0 67.1007 11.0282 740 97.4743 956.501 444.48
448 0 69.113 12.3566 854 94.3208 957.144 443.995
449 0 71.0974 11.6601 829 96.5573 956.566 443.24
450 0 74.1609 12.2437 908 95.3216 957.053 442.953
451 0 78.1547 12.3985 969 94.8596 956.859 443.412
452 0 80.1684 12.8729 1032 96.3488 957.184 440.069
453 0 85.088 13.2334 1126 96.8242 956.648 439.973
454 1 44.1677 10.7771 476 95.271 956.065 460.962
455 0 46.1495 10.8994 503 95.6978 956.288 459.39
456 0 47.1987 11.4622 541 95.342 956.281 460.03
457 0 49.1049 11.3227 556 95.9011 956.558 460.509
458 0 50.0448 10.3507 518 96.6486 956.959 461.512
459 0 49.1378 11.7832 579 93.0933 956.826 455.254
460 0 51.1564 10.7513 550 95.42 956.769 449.491
461 0 52.2055 11.359 593 94.8853 957.239 446.767
462 0 51.1421 10.3046 527 98.4687 956.953 442.915
463 0 53.1041 10.7901 573 95.1518 956.853 436.656
464 0 56.1087 11.1747 627 96.5199 956.434 436.284
465 0 58.1087 12.1841 708 96.2726 956.904 438.179
466 0 61.1397 11.4492 700 97.4443 955.893 439.739
467 0 64.1736 12.6688 813 98.1255 957.108 435.401
468 0 65.1096 12.4252 809 104.287 956.69 434.382
469 0 69.0974 13.0251 900 103.081 956.933 432.671
470 0 69.0999 11.6787 807 107.66 956.048 430.501
471 0 73.131 13.592 994 104.426 956.068 428.994
472 0 76.155 14.2735 1087 103.662 956.834 428.902
473 0 75.1179 13.805 1037 108.07 957.71 425.203
474 0 80.1212 14.0038 1122 106.34 957.448 424.84
475 0 83.1045 13.3807 1112 109.258 958.343 415.832
476 0 85.2079 13.6724 1165 110.838 957.27 414.605
477 0 88.2199 14.3165 1263 109.754 957.922 415.21
478 0 87.2229 12.5082 1091 113.343 958.838 413.753
479 0 92.2545 13.3435 1231 110.249 958.659 415.446
480 0 96.1628 13.6539 1313 109.184 958.512 413.678
481 0 99.1618 14.078 1396 108.097 958.021 414.727
482 1 55.0331 11.3568 625 109.574 957.595 433.624
483 0 56.0884 12.2664 688 105.817 958.331 431.134
484 0 58.0398 11.4232 663 104.48 958.063 431.893
485 0 57.0186 11.6278 663 107.009 958.694 427.519
486 0 61.0297 11.5026 702 106.987 958.66 428.651
487 0 61.0558 11.6942 714 107.966 957.735 426.62
488 0 64.0911 12.0766 774 108.01 957.574 425.497
489 0 65.0617 12.3729 805 109.23 957.562 425.007
490 0 68.0588 11.5488 786 110.603 956.836 426.02
491 0 72.0923 12.4424 897 109.416 958.249 423.572
492 0 74.0565 12.6255 935 110.838 958.118 422.552
493 0 76.0968 11.919 907 114.127 957.867 421.576
494 0 78.0448 12.0316 939 115.649 957.175 421.225
495 0 81.0802 13.9245 1129 111.411 957.223 418.764
496 0 84.1389 13.4183 1129 113.962 957.236 419.444
497 0 85.0677 12.8956 1097 116.18 957.733 415.884
498 0 89.1535 12.8206 1143 115.217 958.458 417.466
499 0 94.0987 12.4444 1171 116.868 957.691 414.557
500 0 96.1564 12.3029 1183 117.158 959.067 412.107
501 0 99.1238 12.2271 1212 118.064 958.361 408.612
502 1 52.1509 8.93561 466 110.549 957.137 435.68
503 0 55.0237 11.0498 608 106.942 956.896 434.87
504 0 55.046 10.8273 596 106.128 957.163 431.466
505 0 56.0666 10.9156 612 108.768 956.833 432.691
506 0 58.0718 10.5731 614 111.625 956.443 429.542
507 0 61.0694 11.839 723 109.52 957.297 429.336
508 0 64.1057 10.8103 693 111.896 956.636 429.405
509 0 64.034 11.244 720 113.506 957.525 427.768
510 0 68.0394 11.8167 804 114.011 956.532 426.685
511 0 70.1125 12.0806 847 114.268 956.286 424.578
512 0 71.065 11.0322 784 118.537 956.709 424.624
513 0 75.1019 12.8492 965 114.587 956.714 422.776
514 0 78.0458 11.6855 912 117.421 956.519 423.259
515 0 81.0878 12.7146 1031 115.744 957.168 419.425
516 0 84.093 12.7002 1068 113.985 957.58 419.957
517 0 85.1026 12.2323 1041 118.5 957.194 417.165
518 0 89.0948 12.6943 1131 116.308 957.79 415.214
519 0 93.1397 13.3992 1248 115.595 957.895 414.942
520 0 98.0657 12.4202 1218 117.531 957.149 413.603
521 1 52.0396 9.26218 482 110.62 956.359 435.444
522 0 54.0691 10.6345 575 111.035 955.894 434.346
523 0 54.0737 10.8001 584 112.834 955.584 432.884
524 0 56.0198 12.0315 674 111.088 955.702 431.777
525 0 57.0198 11.2768 643 112.081 956.191 432.882
526 0 58.0568 10.8859 632 114.815 956.247 429.684
527 0 63.0706 11.7329 740 111.008 957.405 429.024
528 0 65.0622 11.22 730 111.563 956.701 428.184
529 0 66.0373 11.3875 752 112.754 956.346 426.234
530 0 69.1056 12.1987 843 110.39 956.601 426.674
531 0 70.0602 11.4473 802 113.126 956.106 424.767
532 0 73.0396 10.6381 777 113.907 956.548 425.405
533 0 77.1084 11.2309 866 112.739 956.63 422.919
534 0 78.152 12.3605 966 109.835 956.795 422.051
535 0 81.1565 12.6176 1024 105.429 956.71 421.631
536 0 81.1685 11.4084 926 110.805 957.043 417.644
537 0 84.1805 10.6557 897 112.938 957.019 418.924
538 0 87.2315 12.5643 1096 109.322 958.005 415.686
539 0 92.1448 13.0881 1206 109.537 957.812 415.188
540 0 96.1953 11.7677 1132 112.451 957.625 414.966
541 1 50.1321 8.77681 440 107.925 957.509 433.398
542 0 51.1528 9.75509 499 105.206 957.186 434.331
543 0 52.066 9.81447 511 98.6399 956.967 437.123
544 0 53.1671 9.42312 501 101.018 958.19 433.339
545 0 56.1284 11.349 637 97.7912 957.661 436.259
546 0 58.1282 10.2532 596 100.831 958.039 435.403
547 0 59.1046 10.4391 617 103.029 958.776 431.489
548 0 63.1212 11.4383 722 102.125 958.5 430.468
549 0 60.1344 9.06303 545 112.161 957.75 428.747
550 0 66.119 11.7364 776 106.321 958.6 428.117
551 0 65.1152 11.1341 725 108.443 958.131 427.719
552 0 69.1054 11.9962 829 106.227 957.565 426.565
553 0 72.1489 11.4763 828 107.122 957.839 425.88
554 0 74.1652 11.2452 834 110.351 958.079 424.79
555 0 78.1529 12.3988 969 114.825 958.913 425.286
556 0 82.1721 12.6199 1037 109.282 958.936 428.323
557 0 81.1256 12.043 977 117.766 959.214 426.864
558 0 83.1318 12.414 1032 118.887 957.817 425.091
559 0 84.1003 12.0689 1015 112.382 958.366 427.623
560 0 86.161 12.2213 1053 112.564 958.033 428.045
561 0 86.1351 12.8983 1111 116.186 957.125 425.68
562 1 45.1206 11.0149 497 114.672 956.893 448.076
563 0 45.0615 11.0072 496 117.933 956.724 446.74
564 0 43.0587 10.985 473 112.484 957.216 448.524
565 0 44.0679 9.9619 439 114.465 956.779 448.852
566 0 45.2318 11.0984 502 112.002 957.249 445.968
567 0 45.0585 10.1646 458 112.358 956.319 447.177
568 0 47.0939 11.0418 520 110.046 956.567 444.908
569 0 49.083 11.4093 560 107.914 956.73 444.616
570 0 49.1085 10.0797 495 110.17 956.614 443.804
571 0 53.039 9.18192 487 109.959 955.982 444.172
572 0 56.0553 11.9525 670 103.924 956.693 441.276
573 0 58.1194 11.8377 688 103.642 956.054 441.305
574 0 58.159 10.7464 625 106.384 957.33 442.853
575 0 58.1439 10.732 624 106.942 957.564 443.857
576 0 62.0887 10.9843 682 106.647 957.447 443.935
577 0 65.0762 11.402 742 108.26 956.76 440.508
578 0 67.0993 11.2222 753 113.956 956.716 437.147
579 0 68.1396 12.0194 819 113.946 956.578 438.195
580 0 70.1398 11.3488 796 119.068 956.445 439.756
581 0 72.1276 11.549 833 123.115 955.581 436.589
582 0 73.0796 11.7133 856 123.354 955.71 437.201
583 0 75.0313 12.3415 926 122.248 956.35 431.266
584 1 40.0564 10.1357 406 128.394 956.103 446.079
585 0 41.0544 10.4739 430 126.581 955.921 444.312
586 0 42.0739 11.6462 490 126.69 955.539 444.424
587 0 45.1923 12.2145 552 125.779 956.531 444.321
588 0 45.1615 12.0899 546 129.007 957.115 443.799
589 0 46.2017 12.6619 585 128.166 956.668 443.52
590 0 48.1052 12.4103 597 128.975 957.285 442.762
591 0 48.1298 13.0273 627 129.356 956.558 442.663
592 0 50.1608 12.3204 618 130.549 957.222 442.049
593 0 49.1438 11.6597 573 135.571 956.756 440.15
594 0 52.1057 11.9181 621 134.076 957.274 440.729
595 0 54.1732 12.7369 690 133.216 956.838 437.538
596 0 55.0871 12.9613 714 131.924 957.296 439.825
597 0 55.1554 12.7095 701 135.084 957.354 438.481
598 0 58.0669 12.8472 746 134.899 956.76 436.46
599 0 61.1204 12.8599 786 133.387 956.737 437.258
600 0 61.0325 12.6326 771 135.444 956.852 435.437
601 0 62.0276 12.9781 805 134.332 956.276 435.698
602 0 66.0339 13.9777 923 131.876 956.816 432.103
603 0 68.0205 13.4224 913 133.51 956.267 432.26
604 0 69.1758 13.3428 923 135.404 955.779 430.616
605 0 69.1417 12.5684 869 138.894 957.314 430.078
606 0 72.2215 13.2648 958 135.603 957.54 428.581
607 0 74.3229 13.105 974 137.683 957.218 425.912
608 0 76.1921 13.2428 1009 137.987 957.166 425.493
609 0 81.1978 14.0644 1142 135.305 957.412 423.821
610 0 84.3323 14.7037 1240 132.46 957.409 422.357
611 0 86.408 14.0033 1210 134.772 957.415 421.099
612 0 89.1715 13.3787 1193 137.526 957.936 419.085
613 1 45.1632 10.6281 480 138.344 957.577 442.144
614 0 47.1714 11.7656 555 135.492 957.438 440.957
615 0 48.1157 12.5323 603 134.932 957.24 439.683
616 0 50.1279 12.7474 639 134.753 957.078 440.415
617 0 52.1613 13.5158 705 132.047 957.008 439.267
618 0 51.1555 12.8628 658 135.427 957.196 438.617
619 0 53.213 13.0607 695 136.078 955.87 435.53
620 0 57.12 13.813 789 131.749 956.387 435.928
621 0 57.1166 13.6738 781 132.516 957.084 436.576
622 0 60.1839 13.5086 813 132.103 957.166 434.027
623 0 61.1265 13.5948 831 131.504 956.811 432.714
624 0 64.1276 14.9857 961 125.964 956.978 433.245
625 0 67.0895 13.7428 922 128.966 956.863 431.954
626 0 69.1014 13.1256 907 130.307 956.424 430.539
627 0 71.135 13.1159 933 129.824 956.123 428.969
628 0 73.2375 14.1048 1033 127.877 955.622 427.29
629 0 77.1321 14.1705 1093 126.625 956.029 425.789
630 0 80.0992 13.9952 1121 125.14 956.582 427.734
631 0 82.1139 13.1403 1079 128.908 956.392 424.545
632 0 86.1709 13.2179 1139 128.409 956.425 421.692
633 0 88.0611 13.2749 1169 129.47 956.7 418.293
634 0 91.1026 13.2268 1205 128.602 956.328 420.795
635 1 46.0589 11.2899 520 125.346 957.287 441.712
636 0 46.0597 11.941 550 124.355 956.967 441.375
637 0 48.0963 12.87 619 114.129 956.071 441.809
638 0 48.1023 11.8913 572 118.636 955.71 439.691
639 0 49.1206 11.8484 582 119.074 956.409 441.627
640 0 48.1504 10.6333 512 122.824 955.625 442.578
641 0 53.0741 12.7369 676 115.472 956.064 441.275
642 0 53.0766 11.9262 633 118.761 956.125 439.687
643 0 55.0521 11.8615 653 118.13 956.028 439.988
644 0 58.0329 12.4068 720 118.996 955.478 438.575
645 0 59.1401 11.9039 704 123.288 954.97 436.064
646 0 64.0605 11.9418 765 122.908 954.79 435.46
647 0 67.0677 13.3447 895 120.039 956.182 430.263
648 0 67.0738 11.7184 786 125.878 955.963 432.112
649 0 70.0531 13.2328 927 122.249 956.257 430.043
650 0 74.1225 12.938 959 123.608 955.847 427.111
651 0 77.0509 13.1991 1017 122.829 955.767 424.912
652 0 79.0596 13.357 1056 122.877 955.779 424.293
653 0 80.117 12.5816 1008 125.33 955.956 422.498
654 0 85.0476 13.6277 1159 122.076 956.651 420.054
655 1 43.009 11.4162 491 118.609 955.837 442.248
656 0 45.0287 11.5926 522 118.653 955.851 443.824
657 0 46.1346 12.1817 562 119.623 956.269 438.452
658 0 47.1678 11.2789 532 122.274 957.045 440.938
659 0 49.2565 11.2879 556 121.306 957.09 439.5
660 0 51.1877 11.956 612 119.686 957.103 438.68
661 0 53.0893 13.2984 706 116.548 956.737 437.432
662 0 55.0956 12.7959 705 117.397 956.474 436.976
663 0 55.0939 13.123 723 118.252 956.487 435.9
664 0 57.0663 11.8634 677 120.668 957.034 435.58
665 0 60.0398 12.042 723 119.462 956.498 434.351
666 0 61.1246 12.2537 749 120.109 956.842 432.183
667 0 64.233 12.299 790 119.981 957.061 433.624
668 0 68.1546 13.0732 891 117.565 957.46 430.25
669 0 71.1609 13.2376 942 116.333 957.812 430.323
670 0 72.2069 11.9518 863 120.075 958.002 427.738
671 0 76.4092 12.1059 925 120.292 957.865 428.037
672 1 40.1422 10.9361 439 117.096 958.194 447.244
673 0 42.2349 11.6018 490 114.398 957.874 447.153
674 0 42.2568 11.2645 476 119.973 957.134 445.782
675 0 43.1543 10.474 452 123.312 956.741 444.427
676 0 46.196 11.5162 532 119.701 957.857 442.752
677 0 47.3133 11.5824 548 119.06 957.757 444.182
678 0 48.2515 10.8598 524 121.471 958.418 443.504
679 0 51.2208 12.7097 651 115.578 957.802 441.3
680 0 53.2598 12.3545 658 116.804 957.31 440.743
681 0 55.2861 11.7208 648 118.241 956.824 440.904
682 0 57.2512 11.4233 654 118.119 956.807 439.887
683 0 56.1849 10.9282 614 119.985 957.513 439.047
684 0 60.2057 12.5736 757 118.859 957.454 435.544
685 0 64.2774 12.5238 805 117.407 957.132 432.276
686 0 65.1476 11.5584 753 121.444 957.179 430.963
687 0 67.2732 11.8175 795 120.716 957.326 430.166
688 0 69.2452 12.3907 858 118.352 958.351 430.217
689 0 72.2339 11.6566 842 120.502 957.102 426.917
690 0 73.3347 12.0816 886 121.315 957.117 425.393
691 0 80.2516 11.7381 942 120.472 956.799 424.781
692 0 81.1526 12.3718 1004 120.73 957.897 422.579
693 0 84.2338 12.1685 1025 121.699 957.985 421.778
694 0 86.1715 10.9317 942 123.243 958.262 422.276
695 0 87.1992 10.1377 884 121.716 958.378 413.009
696 0 91.2081 9.31935 850 125.701 958.88 412.378
697 1 45.0738 11.4701 517 110.242 959.46 435.634
698 0 46.0636 11.7229 540 109.874 959.339 437.194
699 0 47.1074 11.909 561 110.465 959.433 441.438
700 0 47.0454 12.0522 567 113.316 957.134 440.39
701 0 49.107 11.8924 584 113.248 957.127 440.192
702 0 51.0183 12.7209 649 111.94 957.092 438.875
703 0 52.0692 12.2721 639 113.296 956.646 438.74
704 0 52.0232 11.6487 606 117.309 956.934 436.284
705 0 55.0444 12.8987 710 114.082 957.01 436.201
706 0 56.0724 12.9297 725 114.772 957.388 435.723
707 0 58.0327 12.5619 729 118.61 956.975 434.122
708 0 58.0798 12.1557 706 121.517 956.712 432.405
709 0 61.0439 14.4159 880 113.389 957.123 432.116
710 0 62.0454 12.7004 788 120.307 956.953 430.048
711 0 64.0656 12.6277 809 119.148 957.656 426.198
712 0 65.0678 12.4025 807 120.981 957.885 422.363
713 0 68.129 13.401 913 116.373 958.102 424.677
714 0 71.0998 13.685 973 115.013 957.814 424.113
715 0 71.0707 13.8172 982 117.101 957.371 421.187
716 0 72.0676 13.5567 977 116.989 957.836 425.219
717 0 77.0662 13.5338 1043 115.861 957.681 422.047
718 0 79.0918 14.1355 1118 114.072 957.666 421.871
719 0 83.082 12.6983 1055 117.035 958.041 422.964
720 0 84.0951 13.1637 1107 116.911 958.06 418.693
721 0 86.0532 12.5155 1077 118.265 958.546 418.594
722 0 92.0977 14.452 1331 112.653 958.832 416.878
723 0 93.1227 13.9601 1300 114.181 958.832 413.38
724 1 51.0723 12.2571 626 118.957 958.446 434.337
725 0 52.0216 12.2641 638 118.538 958.414 432.792
726 0 55.0727 12.547 691 119.246 958.981 434.865
727 0 56.0495 12.8636 721 118.46 958.001 433.588
728 0 58.0557 13.2804 771 116.589 958.157 433.807
729 0 60.0478 13.8057 829 115.654 958.012 431.91
730 0 64.1401 13.8915 891 114.254 957.661 432.713
731 0 64.0711 12.7983 820 118.684 957.282 430.671
732 0 67.0354 13.2766 890 117.143 958.151 430.065
733 0 69.0523 12.7295 879 119.719 957.462 427.867
734 0 71.0498 12.2027 867 120.671 957.211 427.813
735 0 76.0415 12.5326 953 118.257 957.674 427.045
736 0 79.1285 14.1795 1122 114.693 957.092 425.619
737 0 82.0924 14.435 1185 115.216 957.559 423.209
738 0 83.091 13.7319 1141 117.046 957.823 423.04
739 0 87.1572 13.9059 1212 116.341 957.238 421.551
740 1 46.0558 11.6598 537 113.004 957.3 442.449
741 0 48.1696 12.4352 599 108.312 956.962 438.511
742 0 50.1254 13.1071 657 107.064 956.714 436.11
743 0 51.1184 13.635 697 105.842 956.842 439.298
744 0 53.1077 12.4841 663 108.489 957.636 438.808
745 0 54.1054 12.4572 674 109.021 956.874 437.442
746 0 56.035 12.1888 683 111.272 956.801 439.413
747 0 59.0186 12.8942 761 115.168 956.328 434.482
748 0 62.063 12.6645 786 114.894 956.468 434.215
749 0 63.078 13.5229 853 113.928 956.842 433.998
750 0 66.0533 13.0804 864 114.31 957.096 431.777
751 0 66.0954 13.072 864 114.988 956.471 432.147
752 0 70.0704 14.5996 1023 112.107 956.208 430.778
753 0 73.0864 14.1613 1035 113.022 956.588 427.933
754 0 76.0659 13.0676 994 116.197 956.981 427.12
755 0 79.1016 13.3878 1059 115.925 955.973 424.76
756 0 83.076 12.302 1022 117.847 957.35 422.549
757 0 83.1329 12.5221 1041 118.082 956.976 424.785
758 1 44.0296 11.8102 520 112.742 956.602 445.113
759 0 44.008 11.6797 514 112.924 956.786 441.185
760 0 48.0611 13.0667 628 112.768 956.847 437.349
761 0 48.064 12.525 602 116.321 956.535 439.179
762 0 51.1136 13.3037 680 114.204 955.85 440.122
763 0 53.1654 13.2417 704 113.859 955.822 439.507
764 0 56.0996 12.2461 687 114.868 955.697 439.266
765 0 55.1257 12.6438 697 117.516 956.032 437.742
766 0 58.0988 12.7713 742 110.807 957.627 438.41
767 0 59.1235 13.1589 778 116.027 956.7 434.519
768 0 61.1422 12.8716 787 116.501 957.168 433.268
769 0 63.0716 12.0974 763 113.507 957.02 429.735
770 0 64.0868 12.0618 773 114.595 957.481 430.977
771 0 66.1131 12.1307 802 115.529 956.125 427.455
772 0 69.1579 12.9269 894 112.813 956.321 427.198
773 0 72.1098 12.5087 902 113.815 956.146 425.695
774 0 75.1059 12.5423 942 113.51 956.927 423.583
775 0 76.1058 13.0476 993 113.378 956.345 421.823
776 0 77.2503 11.8834 918 116.143 957.03 422.449
777 1 43.0209 11.0179 474 109.511 957.876 439.319
778 0 44.0362 10.7639 474 109.608 957.595 439.951
779 0 47.0496 11.9023 560 95.7268 956.734 437.448
780 0 49.0529 11.8444 581 94.8451 956.339 438.979
781 0 50.0806 12.8792 645 94.8899 955.712 435.426
782 0 52.0213 11.6875 608 96.7615 957.197 436.092
783 0 54.1306 12.4514 674 173.904 955.714 432.272
784 0 53.0934 11.621 617 95.5932 956.977 434.864
785 0 57.1019 11.7334 670 95.4164 957.002 434.61
786 0 57.2989 12.7228 729 94.0782 956.811 431.1
787 0 58.1386 11.9198 693 96.2727 956.639 433.253
788 0 60.2296 11.8546 714 97.3964 957.776 429.258
789 0 62.1032 12.1572 755 96.8596 956.797 430.123
790 0 65.1567 12.8306 836 95.9414 956.685 428.556
791 0 67.1605 11.8224 794 97.1776 956.261 428.283
792 0 67.1556 12.2551 823 96.3803 955.767 425.776
793 0 72.1921 12.6468 913 96.4304 955.267 426.244
794 0 74.0962 12.1059 897 109.515 955.987 423.352
795 0 77.192 12.2033 942 110.251 955.3 421.703
796 0 80.0814 12.8869 1032 111.025 956.292 420.52
797 0 81.1541 13.3696 1085 110.849 956.746 421.636
798 0 86.0623 12.4445 1071 113.106 956.247 419.561
799 1 46.0289 10.7758 496 107.79 956.669 439.768
800 0 46.0809 12.0657 556 109.151 956.32 438.531
801 0 47.0424 10.6074 499 107.511 956.994 438.637
802 0 49.0735 12.3488 606 105.205 956.239 437.071
803 0 49.0735 12.3896 608 134.498 955.247 436.944
804 0 53.0308 13.445 713 110.689 955.302 442.236
805 0 53.0513 14.175 752 111.444 955.943 440.302
806 0 57.1013 14.1678 809 110.77 956.26 440.879
807 0 59.0453 13.8368 817 116.259 956.266 438.147
808 0 61.1367 14.2958 874 116.018 955.651 438.076
809 0 63.0338 14.2463 898 117.38 955.767 437.215
810 0 66.0474 14.3836 950 117.362 956.624 437.105
811 0 68.08 17.1122 1165 111.177 956.62 437.748
812 0 70.1113 13.992 981 119.48 956.465 437.863
813 0 73.069 15.0816 1102 116.22 955.69 437.168
814 0 76.0689 15.3676 1169 115.802 955.458 434.737
815 0 78.0575 14.5021 1132 118.594 956.136 434.565
816 0 80.0686 15.1495 1213 116.962 955.951 433.22
817 0 82.1255 14.3317 1177 119.171 955.18 431.393
818 0 87.1788 12.9848 1132 120.472 955.71 431.372
819 1 46.0427 11.4459 527 121.269 955.916 447.406
820 0 49.0418 12.9277 634 118.798 955.707 444.106
821 0 52.0237 12.9364 673 115.949 954.982 445.746
822 0 53.0497 12.4035 658 117.919 955.731 445.296
823 0 52.131 11.8739 619 115.998 955.134 446.737
824 0 53.0655 13.1724 699 113.791 955.8 445.783
825 0 57.1168 12.0105 686 114.376 955.719 444.432
826 0 58.1414 11.7644 684 113.867 955.654 446.079
827 0 62.2024 13.1988 821 112.391 955.733 441.307
828 0 66.104 13.8721 917 112.153 956.087 439.169
829 0 68.1877 13.9175 949 112.672 955.092 438.843
830 0 69.0525 14.1776 979 114.514 955.845 438.089
831 0 71.0905 13.1945 938 117.797 955.678 436.708
832 0 76.108 14.3743 1094 113.886 955.49 430.774
833 0 81.2038 13.9156 1130 112.178 955.712 432.618
834 0 81.2922 13.6914 1113 113.27 955.357 433.948
835 0 84.1276 13.111 1103 116.2 955.84 431.206
836 0 88.1857 14.9344 1317 112.748 955.121 427.685
837 0 91.2584 14.6398 1336 113.852 956.207 428.124
838 1 47.0397 11.9048 560 113.029 956.296 447.982
839 0 49.102 12.6879 623 108.14 956.48 445.642
840 0 51.1331 13.3377 682 112.072 956.795 441.919
841 0 52.0768 12.6736 660 113.614 956.982 442.076
842 0 54.0785 12.3339 667 113.844 956.748 442.342
843 0 57.086 12.8753 735 112.333 957.386 442.435
844 0 59.172 13.3509 790 111.708 957.391 441.897
845 0 60.1333 12.0067 722 113.551 957.993 439.676
846 0 62.0346 12.7187 789 113.193 957.863 438.318
847 0 66.1224 13.5355 895 109.975 957.37 438.391
848 0 69.0892 12.9977 898 112.335 958.33 437.827
849 0 71.1084 11.9255 848 114.426 957.758 433.592
850 0 75.1063 12.6354 949 113.255 957.038 427.424
851 0 76.0913 10.9999 837 117.4 956.511 428.054
852 0 80.1679 11.6506 934 114.592 956.621 428.065
853 1 40.0129 11.3463 454 106.952 955.734 446.771
854 0 42.1259 11.4182 481 107.069 955.838 445.482
855 0 42.1468 11.0803 467 104.707 957.953 440.58
856 0 43.1131 10.6232 458 107.205 957.594 444.834
857 0 46.0922 12.5184 577 102.849 957.752 442.515
858 0 48.1656 12.0418 580 102.978 957.464 444.803
859 0 46.1487 11.3329 523 107.4 957.013 443.18
860 0 50.0986 12.6151 632 103.282 956.801 441.729
861 0 51.0726 11.0039 562 106.527 956.575 444.959
862 0 53.1692 11.548 614 104.73 956.718 439.156
863 0 56.1314 12.9339 726 101.952 957.006 437.412
864 0 58.1083 12.4939 726 104.649 956.621 436.018
865 0 59.1148 12.5349 741 106.564 957.115 437.094
866 0 58.1327 11.0093 640 114.197 956.995 435.491
867 0 66.1886 12.691 840 107.239 956.998 436.536
868 0 67.1062 11.8618 796 111.274 957.031 431.705
869 0 71.1314 12.02 855 112.379 956.902 434.449
870 0 72.1703 10.9186 788 115.084 956.924 430.377
871 0 75.2538 11.0958 835 115.037 956.732 428.875
872 0 77.268 11.7384 907 115.311 956.73 427.24
873 0 82.0976 11.7665 966 113.479 956.391 426.072
874 0 83.2731 12.9934 1082 112.079 956.494 424.898
875 0 87.242 10.7173 935 115.404 956.952 425.149
876 1 48.2258 11.695 564 108.356 956.895 441.699
877 0 50.155 12.6807 636 105.884 957.794 440.909
878 0 51.1135 12.3059 629 107.14 957.013 440.315
879 0 54.0914 12.2386 662 107.63 956.662 441.363
880 0 55.155 12.5646 693 108.16 957.036 440.439
881 0 58.1281 12.5241 728 107.823 957.764 436.641
882 0 60.138 13.9512 839 106.077 957.93 435.58
883 0 63.0652 12.9866 819 110.35 956.393 433.39
884 0 64.0949 11.8418 759 118.614 956.453 433.231
885 0 68.1638 12.1912 831 116.527 956.596 433.207
886 0 69.1025 12.4453 860 116.37 956.757 429.548
887 0 72.1268 12.4503 898 116.48 956.567 429.204
888 0 75.1728 13.7816 1036 112.712 957.323 430.096
889 0 77.1459 12.4699 962 116.49 957.44 430.345
890 0 79.1454 12.7992 1013 115.509 956.152 430.6
891 0 82.0975 12.8749 1057 116.433 955.979 430.452
892 0 84.1021 12.1043 1018 119.371 955.854 429.209
893 0 89.125 13.8345 1233 113.991 956.323 429.431
894 1 47.0486 11.6263 547 118.905 955.181 446.856
895 0 49.1246 11.3385 557 122.682 957.433 438.89
896 0 51.11 12.4046 634 121.995 957.836 437.803
897 0 54.0394 11.8802 642 113.299 957.846 437.16
898 0 54.1477 11.0254 597 115.717 957.859 437.05
899 0 58.1035 11.9958 697 113.809 957.814 434.977
900 0 61.1507 12.7227 778 113.524 957.356 433.728
901 0 59.1322 11.5335 682 119.554 958.125 432.145
902 0 65.0966 12.5659 818 120.302 957.626 430.656
903 0 66.1221 13.0365 862 119.055 957.825 430.123
904 0 69.1131 12.8196 886 120.419 957.734 426.719
905 0 72.1264 13.3516 963 118.183 957.368 426.294
906 0 74.1035 12.6175 935 120.586 956.877 425.298
907 0 76.153 12.79 974 119.8 958.257 425.35
908 0 79.1095 11.5157 911 123.562 957.869 422.617
909 1 42.0274 11.1594 469 115.902 958.292 442.418
910 0 42.0416 10.2993 433 119.633 958.614 442.09
911 0 42.0119 11.6634 490 109.055 957.694 435.959
912 0 45.0647 10.4738 472 102.699 957.021 436.358
913 0 47.0294 11.8224 556 99.7968 957.405 434.313
914 0 48.0286 10.0982 485 102.571 957.53 434.592
915 0 52.0375 11.4725 597 100.139 956.653 431.338
916 0 51.0268 11.1118 567 101.82 956.84 432.284
917 0 54.0782 11.7238 634 101.773 956.429 431.666
918 0 55.0953 12.3422 680 102.663 956.012 431.493
919 0 56.0861 12.0351 675 106.216 955.966 428.972
920 0 60.08 13.4321 807 104.292 956.011 427.881
921 0 60.0379 12.2256 734 112.349 956.214 426.989
922 0 63.0496 11.6416 734 113.403 956.771 426.035
923 0 66.0847 12.5445 829 113.031 956.676 424.42
924 0 69.0959 13.3438 922 111.309 956.705 423.462
925 0 70.0467 14.4761 1014 116.913 956.183 426.209
926 0 74.2405 13.5101 1003 118.113 956.344 425.912
927 0 76.0987 13.9556 1062 117.882 955.644 425.693
928 0 81.1299 15.0746 1223 114.034 955.678 425.134
929 0 82.0586 14.8065 1215 115.799 955.788 427.045
930 0 87.1508 15.5707 1357 112.702 956.571 423.815
931 0 88.1118 13.1651 1160 116.293 956.552 414.947
932 0 91.1184 13.5648 1236 116.57 957.254 411.711
933 0 94.0828 13.3181 1253 117.448 956.986 409.872
934 1 47.1593 11.4506 540 109.757 956.932 436.32
935 0 48.0313 10.6805 513 114.776 957.004 433.107
936 0 48.0313 10.6181 510 147.135 957.026 433.304
937 0 52.0918 11.4413 596 111.564 956.562 431.765
938 0 54.1104 11.7537 636 111.491 956.697 430.324
939 0 56.0682 12.1281 680 110.744 956.635 430.86
940 0 57.0951 11.1743 638 113.622 957.061 430.273
941 0 60.0875 11.7995 709 112.193 956.984 428.546
942 0 61.037 11.2391 686 113.822 956.79 429.469
943 0 65.1296 13.0202 848 109.353 956.996 427.142
944 0 66.1589 11.7142 775 114.346 956.228 427.565
945 0 71.1077 13.5288 962 116.764 955.888 428.937
946 0 72.066 13.4599 970 117.477 955.777 427.306
947 0 76.0835 12.6309 961 118.364 955.566 427.659
948 0 79.1622 14.4892 1147 113.301 955.339 427.429
949 0 82.1017 13.3249 1094 116.205 956.391 427.619
950 0 84.1921 13.1485 1107 117.328 956.45 426.78
951 0 88.1431 13.1377 1158 116.598 956.65 425.629
952 0 91.1048 13.8192 1259 114.804 956.012 424.621
953 0 94.0641 13.0656 1229 117.019 956.332 423.208
954 1 51.0439 11.2256 573 113.332 956.061 444.229
955 0 51.0606 12.2991 628 112.158 956.822 440.629
956 0 53.1276 12.31 654 111.031 956.234 437.219
957 0 56.1055 13.0825 734 106.864 956.605 438.008
958 0 56.0764 12.9466 726 109.959 957.118 438.584
959 0 58.103 12.6672 736 110.159 957.075 440.293
960 0 60.0785 12.8498 772 110.119 956.6 437.278
961 0 61.1185 10.6842 653 114.066 957.201 439.629
962 0 64.099 11.1702 716 114.047 957.108 439.092
963 0 69.1718 13.1846 912 111.464 957.549 434.255
964 0 71.1518 12.5928 896 112.791 957.702 435.791
965 0 76.1316 13.0301 992 111.988 957.196 433.75
966 0 79.1458 13.1024 1037 114.17 956.626 431.464
967 0 81.0876 13.4423 1090 113.567 957.13 428.826
968 0 84.1612 13.5098 1137 113.573 956.664 428.111
969 0 89.1005 13.5016 1203 112.883 956.785 425.881
970 0 90.2161 12.2151 1102 117.263 956.582 426.832
971 0 95.1665 14.0281 1335 112.733 955.912 424.359
972 1 47.1146 11.2067 528 114.184 956.994 445.991
973 0 49.1601 11.7168 576 111.139 958.109 440.319
974 0 52.0968 13.1678 686 106.625 957.382 445.331
975 0 51.252 11.7849 604 107.897 956.77 446.209
976 0 53.1346 11.9696 636 107.616 956.91 438.997
977 0 55.1248 12.6803 699 106.084 956.273 437.536
978 0 58.0846 13.6697 794 104.442 957.001 435.032
979 0 59.3049 12.3261 731 109.915 956.651 433.796
980 0 62.2525 12.1762 758 109.828 956.636 434.39
981 0 63.1916 13.0872 827 113.47 956.969 430.128
982 0 69.2355 12.5225 867 114.133 956.852 428.988
983 0 72.365 12.6028 912 113.814 956.547 428.307
984 0 76.2745 13.3596 1019 110.875 957.693 428.21
985 0 76.1574 12.4479 948 115.054 958.308 425.92
986 0 80.3366 14.153 1137 111.347 957.431 422.479
987 1 42.146 10.2738 433 110.547 957.612 443.058
988 0 44.1257 10.8554 479 107.919 956.864 442.342
989 0 45.08 11.4463 516 103.18 957.39 438.103
990 0 45.1499 12.2259 552 102.263 958.353 440.71
991 0 46.0771 10.0267 462 104.028 958.299 441.758
992 0 48.0844 10.6063 510 105.098 958.316 440.255
993 0 49.1071 11.3833 559 105.572 957.878 441.091
994 0 52.0666 10.9091 568 104.22 958.903 440.437
995 0 56.1043 12.8511 721 98.8668 958.251 437.35
996 0 56.1328 11.8291 664 105.134 957.479 438.809
997 0 59.1741 12.0661 714 107.092 957.272 436.405
998 0 61.2375 12.5413 768 108.831 957.336 432.997
999 0 65.2389 12.4925 815 109.309 957.499 431.02
1000 0 69.2418 12.7957 886 106.919 957.728 430.635
1001 0 68.2096 12.6522 863 108.509 957.644 430.878
1002 0 69.2669 12.7767 885 108.748 957.081 425.626
1003 0 71.2099 12.9898 925 107.243 957.206 426.08
1004 0 75.1388 13.0159 978 104.672 957.181 426.566
1005 0 76.0908 12.2091 929 106.879 957.285 423.877
1006 0 81.1132 12.2791 996 105.192 957.782 422.89
1007 0 83.1068 13.5248 1124 103.056 957.338 420.56
1008 0 85.0867 12.3403 1050 105.645 957.618 419.293
1009 0 89.18 12.7159 1134 104.247 957.298 415.89
1010 1 48.1375 10.8232 521 105.96 957.511 436.877
1011 0 50.0305 10.7934 540 106.161 957.174 435.043
1012 0 52.0618 12.8309 668 101.699 957.398 434.898
1013 0 56.1115 12.4039 696 100.628 957.244 434.486
1014 0 55.1663 12.4714 688 101.772 957.02 434.746
1015 0 56.0557 13.4331 753 102.077 956.968 431.167
1016 0 60.0614 13.8358 831 99.8688 956.868 431.764
1017 0 61.0858 13.6038 831 100.592 956.925 431.316
1018 0 62.1409 11.49 714 105.716 956.503 428.839
1019 0 64.0873 13.0135 834 102.844 957.6 427.836
1020 0 66.1186 12.9162 854 103.79 957.505 426.338
1021 0 70.0763 13.7422 963 101.563 957.865 426.736
1022 0 70.1824 12.724 893 105.61 958.349 424.346
1023 0 73.1105 12.9804 949 105.183 958.276 423.199
1024 0 76.257 13.0742 997 104.787 957.723 422.049
1025 0 79.1801 13.8166 1094 104.367 957.714 420.597
1026 0 81.1744 12.9105 1048 107.042 958.133 420.343
1027 1 42.0892 10.6678 449 108.898 958.492 438.815
1028 0 44.1135 10.9717 484 109.254 958.006 439.419
1029 0 44.2156 11.6249 514 109.673 958.103 436.823
1030 0 48.2106 14.1255 681 102.552 957.137 437.36
1031 0 46.0477 10.7714 496 108.097 959.212 438.659
1032 0 48.0576 11.7775 566 106.318 958.91 438.256
1033 0 50.0498 11.4686 574 108.963 958.666 438.382
1034 0 51.1044 12.4647 637 106.859 958.799 439.904
1035 0 51.0678 11.612 593 109.54 957.577 440.26
1036 0 54.0164 12.4221 671 109.164 957.118 433.033
1037 0 57.0663 12.4242 709 108.938 956.917 434.917
1038 0 60.0924 14.045 844 109.102 956.873 432.299
1039 0 61.0232 13.0934 799 114.414 956.935 428.325
1040 0 64.0308 13.884 889 112.649 956.826 427.75
1041 0 67.0814 14.6091 980 111.137 957.196 426.584
1042 0 70.1383 13.3165 934 114.294 957.542 426.406
1043 0 74.0769 14.0665 1042 112.591 957.142 425.992
1044 0 75.0884 14.8092 1112 112.837 957.699 423.496
1045 0 77.0503 14.3932 1109 114.804 957.042 423.004
1046 0 79.0948 13.6671 1081 117.599 956.326 421.749
1047 0 83.0418 14.8239 1231 114.661 956.043 420.699
1048 0 86.0456 14.655 1261 116.6 956.671 422.041
1049 0 89.1045 15.2517 1359 115.091 956.367 422.533
1050 0 90.1298 14.7454 1329 112.769 956.979 415.399
1051 1 49.0457 12.3151 604 117.517 956.394 435.036
1052 0 49.055 12.5166 614 109.406 958.049 430.702
1053 0 51.0864 12.195 623 103.639 957.846 431.4
1054 0 53.0333 12.3319 654 102.399 958.096 430.049
1055 0 54.0822 10.6689 577 105.761 957.912 430.399
1056 0 55.0924 12.47 687 105.923 957.159 426.394
1057 0 56.0553 10.8821 610 113.551 957.148 426.934
1058 0 59.0692 12.6631 748 109.924 957.082 424.66
1059 0 62.094 11.6436 723 109.858 956.819 425.918
1060 0 65.0512 11.5755 753 109.182 956.649 427.421
1061 0 69.112 14.0062 968 113.485 957.415 425.496
1062 0 71.1295 13.2294 941 114.876 958.269 424.69
1063 0 72.151 13.0421 941 115.957 957.645 424.478
1064 0 75.1628 12.4796 938 116.755 957.013 422.118
1065 0 78.1885 12.8536 1005 116.197 957.564 422.319
1066 0 80.0354 13.4066 1073 116.123 956.704 418.84
1067 0 82.0656 13.0505 1071 117.102 956.5 419.466
1068 0 87.1463 13.3339 1162 115.38 957.239 417.117
1069 0 91.1489 13.8235 1260 116.905 958.023 414.625
1070 0 93.1421 14.2041 1323 116.047 957.819 412.884
1071 0 96.1392 12.846 1235 114.487 957.612 415.866
1072 1 52.0519 12.3146 641 113.902 957.671 436.75
1073 0 54.1381 13.7426 744 111.082 958.664 435.914
1074 0 54.0867 12.8497 695 111.994 959.355 437.63
1075 0 52.0856 11.8843 619 159.659 960.317 436.152
1076 0 56.0658 11.8254 663 118.068 958.861 434.555
1077 0 59.2834 11.1498 661 123.843 958.277 428.697
1078 0 63.226 12.6214 798 120.673 957.872 426.43
1079 0 66.2647 13.1292 870 119.017 958.692 427.743
1080 0 69.1208 13.31 920 118.255 958.205 425.724
1081 0 70.2883 12.6195 887 119.092 958.582 425.761
1082 0 74.1485 13.3111 987 117.438 958.786 422.841
1083 0 76.1276 13.9634 1063 117.028 958.369 419.893
1084 0 79.1675 14.1851 1123 116.589 958.736 417.973
1085 0 81.1153 13.0308 1057 121.799 959.799 416.213
1086 0 85.1919 13.3581 1138 119.89 959.878 416.013
1087 0 88.1474 13.4094 1182 119.295 959.741 414.944
1088 0 92.2158 12.8828 1188 120.976 958.504 413.088
1089 0 94.2125 13.045 1229 119.252 958.543 412.87
1090 1 50.0617 12.0451 603 110.682 957.728 433.968
1091 0 51.1506 11.8865 608 110.995 957.993 435.686
1092 0 52.1363 12.218 637 112.386 957.677 434.005
1093 0 52.1204 11.5694 603 111.564 957.65 432.589
1094 0 52.0661 11.9463 622 112.188 957.484 431.571
1095 0 57.0851 12.5252 715 112.092 957.197 429.726
1096 0 60.1056 12.7609 767 116.742 957.133 427.572
1097 0 61.0465 12.6461 772 115.811 957.236 426.738
1098 0 63.0616 13.2727 837 114.736 957.388 424.374
1099 0 66.0585 12.6554 836 115.556 957.231 424.636
1100 0 68.0546 13.6361 928 113.522 957.671 421.926
1101 0 71.0508 13.7085 974 112.625 958.063 421.293
1102 0 74.0577 15.0828 1117 109.327 957.206 420.98
1103 0 76.0929 13.7595 1047 112.904 957.276 419.035
1104 0 78.0753 13.0259 1017 114.327 957.397 416.899
1105 0 83.1477 13.2655 1103 113.24 957.47 415.879
1106 0 84.0786 12.6192 1061 115.919 957.696 414.351
1107 0 88.0887 12.6123 1111 114.795 957.744 411.497
1108 0 93.1277 13.7768 1283 110.421 957.735 412.073
1109 1 48.0883 10.0232 482 112.994 957.788 433.411
1110 0 50.0663 12.1239 607 110.577 957.697 430.285
1111 0 53.1432 12.5322 666 108.734 958.222 429.706
1112 0 53.083 12.4145 659 109.44 958.117 429.284
1113 0 54.0741 12.9822 702 109.813 958.359 426.256
1114 0 55.0432 11.6817 643 111.848 957.544 428.779
1115 0 58.0254 13.339 774 108.664 957.832 424.341
1116 0 61.0846 13.4895 824 107.115 957.113 429.119
1117 0 62.0644 13.8566 860 106.236 957.084 427.355
1118 0 63.078 12.4449 785 110.452 956.327 425.178
1119 0 65.114 12.0865 787 112.141 957.263 424.643
1120 0 67.144 13.553 910 109.432 957.258 423.271
1121 0 69.1221 13.657 944 110.054 957.61 423.261
1122 0 71.1398 14.9846 1066 107.079 957.469 419.629
1123 0 73.2126 13.5086 989 111.392 957.875 417.483
1124 0 76.2869 13.5672 1035 110.665 958.095 419.863
1125 0 78.1002 13.8924 1085 111.566 957.164 417.478
1126 0 81.2118 13.2986 1080 113.086 957.565 417.538
1127 0 84.1961 12.4471 1048 114.842 957.666 417.463
1128 0 88.101 13.2348 1166 112.855 957.979 413.771
1129 0 92.2831 13.4044 1237 112.278 957.858 415.048
1130 1 47.1196 10.7811 508 110.778 958.24 435.933
1131 0 49.171 11.0634 544 104.129 958.169 435.616
1132 0 52.1448 11.0078 574 100.359 958.794 428.298
1133 0 53.0548 12.7981 679 100.043 958.433 430.907
1134 0 56.0804 13.445 754 98.9244 958.459 430.056
1135 0 58.0721 11.8818 690 102.928 959.391 429.926
1136 0 58.0529 12.1785 707 105.165 959.276 427.996
1137 0 60.1471 12.2533 737 111.421 959.041 427.022
1138 0 63.1746 12.5209 791 109.743 959.018 427.528
1139 0 66.1612 12.1219 802 109.961 958.999 425.646
1140 0 68.1744 13.6268 929 107.225 958.416 423.748
1141 0 70.073 13.2861 931 108.428 958.869 423.6
1142 0 73.0768 13.999 1023 107.417 958.422 421.551
1143 0 75.1394 12.4169 933 109.667 959.016 421.07
1144 0 77.1699 13.0362 1006 107.78 959.224 422.752
1145 0 80.3786 12.5904 1012 111.245 958.721 416.21
1146 0 84.192 13.8731 1168 109.203 958.2 417.179
1147 0 85.1937 13.4634 1147 110.542 958.949 415.302
1148 0 88.2406 13.1232 1158 108.012 959.496 408.184
1149 0 92.1506 12.3059 1134 109.944 958.932 409.173
1150 1 49.1554 12.8572 632 97.4335 959.663 436.502
1151 0 50.0868 11.7995 591 100.354 958.633 435.685
1152 0 51.1055 12.7775 653 101.106 959.095 432.407
1153 0 54.1785 12.3111 667 97.051 959.916 430.877
1154 0 55.0569 11.697 644 101.352 958.834 432.037
1155 0 54.0778 10.226 553 105.354 959.749 433.002
1156 0 58.0925 12.2047 709 104.102 959.416 429.099
1157 0 61.1015 15.6297 955 97.6031 959.146 429.439
1158 0 65.0659 12.7256 828 107.386 958.364 427.981
1159 0 66.1517 13.2121 874 106.973 959.047 427.365
1160 0 67.126 12.2158 820 109.243 959.245 427.215
1161 0 68.1685 12.8065 873 109.375 958.801 426.154
1162 0 73.1446 12.5505 918 110.202 959.59 424.887
1163 0 73.1035 12.8722 941 109.479 958.996 426.688
1164 0 78.1253 11.84 925 111.008 959.265 426.631
1165 0 81.1025 12.589 1021 110.537 959.463 426.366
1166 0 86.2393 13.4625 1161 109.799 959.303 423.203
1167 0 84.1745 12.4741 1050 115.04 958.483 417.617
1168 1 47.1115 11.632 548 108.498 959.075 438.681
1169 0 49.0807 12.2655 602 105.729 958.666 435.179
1170 0 47.1316 11.6482 549 106.647 959.153 435.971
1171 0 51.0993 12.5833 643 103.53 959.512 436.103
1172 0 52.0664 12.1191 631 105.181 959.83 434.493
1173 0 52.1748 11.7873 615 106.59 959.008 434.55
1174 0 55.0479 12.8615 708 103.699 959.975 432.753
1175 0 57.0918 12.6638 723 107.068 958.798 431.694
1176 0 60.1772 12.9949 782 112.668 959.068 429.508
1177 0 61.0782 12.0338 735 114.895 959.095 430.951
1178 0 63.2189 12.8759 814 113.87 959.83 430.442
1179 0 65.0961 13.1344 855 113.482 959.454 427.085
1180 0 67.1081 13.2473 889 113.16 959.628 426.443
1181 0 68.0606 13.7818 938 112.604 959.02 425.846
1182 0 72.0684 14.1948 1023 109.969 959.076 425.432
1183 0 74.1325 12.7609 946 113.407 958.92 423.569
1184 0 76.1157 12.7438 970 113.071 959.198 422.704
1185 0 77.1144 13.1363 1013 113.023 958.819 421.043
1186 0 81.0842 12.5672 1019 112.399 958.608 421.577
1187 0 83.2571 12.5275 1043 112.213 959.173 421.101
1188 1 43.0119 10.1832 438 108.909 959.829 441.694
1189 0 45.0271 11.9928 540 107.037 959.463 437.217
1190 0 47.079 12.8295 604 103.826 957.932 438.06
1191 0 45.156 11.0727 500 107.098 958.29 439.828
1192 0 46.1061 10.8012 498 106.725 958.568 439.612
1193 0 47.043 11.0112 518 106.089 958.253 438.689
1194 0 49.1045 11.8319 581 104.699 958.868 434.923
1195 0 51.0614 12.7885 653 102.983 957.588 433.83
1196 0 53.1034 12.3156 654 103.751 957.22 434.55
1197 0 53.0605 11.6094 616 105.055 957.43 433.802
1198 0 56.0612 12.0226 674 106.368 958.154 431.702
1199 0 59.0333 12.2304 722 107.33 957.749 429.845
1200 0 60.0735 11.6025 697 109.392 958.29 429.911
1201 0 64.0292 12.6192 808 109.359 958.447 428.167
1202 0 66.1065 14.2195 940 105.144 957.331 427.298
1203 0 66.0275 10.95 723 113.227 957.797 426.414
1204 0 70.0229 13.567 950 106.872 957.76 425.089
1205 0 71.0236 14.4037 1023 104.652 957.702 424.086
1206 0 73.1882 12.7206 931 108.019 958.563 425.158
1207 0 77.0822 13.7905 1063 104.889 957.713 422.424
1208 0 79.0755 14.1637 1120 103.869 958.079 419.308
1209 0 82.0938 13.6307 1119 104.528 958.373 420.559
1210 0 84.1615 13.3315 1122 104.424 958.788 420.486
1211 0 86.1946 13.2607 1143 105.243 958.8 416.912
1212 1 42.1758 10.6696 450 107.842 959.451 434.467
1213 0 46.1191 11.3402 523 103.18 959.329 434.09
1214 0 46.107 11.9505 551 100.225 958.652 427.232
1215 0 48.0661 12.6076 606 101.226 960.048 429.116
1216 0 50.0515 12.9267 647 99.881 959.941 432.351
1217 0 51.0213 11.6814 596 103.537 959.274 434.171
1218 0 51.0908 12.8203 655 97.9969 958.525 434.502
1219 0 52.045 11.7591 612 99.6389 958.529 437.662
1220 0 53.0928 12.4311 660 99.5591 958.25 433.792
1221 0 54.0704 11.0412 597 101.93 959.065 434.234
1222 0 57.1185 11.4499 654 102.531 959.003 432.549
1223 0 60.1194 12.3421 742 101.443 958.709 430.418
1224 0 62.0726 13.7259 852 99.6373 959.055 429.259
1225 0 64.1421 12.7841 820 102.306 959.545 428.138
1226 0 66.1498 14.0439 929 100.813 960.085 427.21
1227 0 69.1224 12.3549 854 105.145 959.546 425.406
1228 0 71.1208 14.0184 997 101.979 958.868 424.182
1229 0 72.137 12.4901 901 105.694 959.107 425.085
1230 0 75.1871 13.4332 1010 104.352 958.59 421.756
1231 0 77.1524 13.8816 1071 104.268 958.614 421.472
1232 0 80.0577 13.6651 1094 105.705 957.309 419.101
1233 0 82.0912 13.485 1107 107.202 957.704 419.734
1234 0 85.0908 14.5022 1234 105.579 958.573 417.175
1235 0 88.1501 13.2501 1168 108.476 958.605 416.099
1236 0 91.19 13.4335 1225 108.045 958.907 414.757
1237 0 93.2313 14.0833 1313 107.446 958.658 411.209
1238 0 96.1643 14.3192 1377 107.407 958.96 410.542
1239 0 98.1617 13.3148 1307 109.958 959.227 413.072
1240 1 54.1212 13.8023 747 103.822 958.12 433.035
1241 0 56.1437 11.9871 673 107.052 959.073 431.804
1242 0 54.0685 10.7826 583 110.54 958.252 430.997
1243 0 56.1289 13.0949 735 98.5374 958.939 425.654
1244 0 58.0723 12.0195 698 100.572 958.496 424.948
1245 0 59.0798 11.6791 690 101.391 958.572 425.054
1246 0 62.1043 12.5756 781 99.2586 958.566 423.912
1247 0 66.1064 12.7824 845 97.1219 958.521 423.479
1248 0 67.1005 11.2518 755 101.138 958.142 421.518
1249 0 67.0866 10.4492 701 102.013 957.849 422.696
1250 0 71.0986 13.0804 930 97.1763 957.895 420.015
1251 0 72.0895 11.3193 816 100.934 958.006 418.453
1252 0 74.0999 11.7139 868 100.662 957.636 418.036
1253 0 78.1228 11.5075 899 101.864 958.217 418.234
1254 0 82.2028 11.9947 986 105.47 957.971 419.654
1255 0 85.1629 14.3372 1221 99.7879 957.964 416.944
1256 0 87.152 11.7725 1026 103.893 957.904 419.675
1257 0 92.2008 12.8307 1183 102.028 958.265 413.194
1258 1 44.1543 10.871 480 100.76 958.49 436.327
1259 0 45.1289 10.4146 470 99.9149 960.089 430.33
1260 0 48.0426 11.7396 564 95.7252 958.837 431.349
1261 0 49.169 11.3486 558 96.9731 959.299 438.09
1262 0 50.2364 11.9834 602 100.869 958.945 435.797
1263 0 53.1229 12.104 643 104.078 958.591 432.622
1264 0 52.1801 11.1345 581 107.219 959.052 432.549
1265 0 56.117 13.0976 735 101.226 958.952 432.988
1266 0 57.1734 12.2434 700 104.399 958.584 430.111
1267 0 58.1267 12.7824 743 103.68 958.938 429.832
1268 0 60.093 12.4806 750 104.517 958.867 430.225
1269 0 63.1092 13.0884 826 103.523 958.769 427.95
1270 0 66.0684 13.1833 871 102.636 958.86 427.97
1271 0 67.1469 12.5546 843 105.088 959.154 427.343
1272 0 69.1803 13.978 967 103.381 959.679 424.249
1273 0 71.1564 13.5195 962 104.872 958.823 424.903
1274 0 73.1327 13.5781 993 106.427 959.697 422.602
1275 0 74.0873 13.2546 982 107.443 959.468 421.551
1276 0 78.23 13.7288 1074 105.585 959.469 424.905
1277 0 81.1809 14.4615 1174 105.663 958.131 420.922
1278 0 82.1731 12.4128 1020 111.14 958.476 421.264
1279 0 85.1384 14.4353 1229 107.65 958.505 417.041
1280 0 89.1618 14.5915 1301 107.033 958.494 417.812
1281 1 45.1026 11.241 507 110.371 959.708 439.608
1282 0 45.1976 12.3679 559 111.469 959.469 436.699
1283 0 48.1518 12.2529 590 105.931 960.105 437.656
1284 0 49.1221 14.2095 698 107.669 960.832 435.689
1285 0 49.117 12.8265 630 113.29 959.746 434.998
1286 0 51.198 13.7701 705 110.679 960.043 434.167
1287 0 53.2214 13.3217 709 110.928 959.78 435.168
1288 0 55.1016 13.9016 766 109.621 958.799 432.633
1289 0 56.2007 13.9678 785 110.278 959.722 432.08
1290 0 57.1167 13.5687 775 112.979 959.876 430.676
1291 0 57.1813 12.7314 728 115.35 960.157 431.791
1292 0 62.1778 13.5097 840 111.892 960.773 431.279
1293 0 62.1858 13.8295 860 112.517 960.646 428.796
1294 0 65.139 14.7991 964 109.243 960.991 428.323
1295 0 68.1257 15.1338 1031 108.138 960.749 427.64
1296 0 69.1241 14.4667 1000 111.654 960.434 427.069
1297 0 71.1178 13.1613 936 115.149 959.926 425.029
1298 0 74.2133 14.9973 1113 110.51 960.515 424.539
1299 0 75.1111 13.4334 1009 114.806 960.086 422.549
1300 0 78.1419 13.3987 1047 114.681 960.22 419.753
1301 0 80.0887 14.0719 1127 114.195 960.355 417.028
1302 0 83.1672 14.2604 1186 113.851 960.483 418.04
1303 0 85.1171 13.1348 1118 117.742 960.839 418.052
1304 0 90.1402 14.0226 1264 113.785 961.578 416.818
1305 0 91.155 14.1846 1293 114.817 960.65 414.012
1306 0 94.0787 13.3186 1253 117.9 960.475 411.946
1307 1 47.0522 11.2641 530 115.5 961.894 434.894
1308 0 49.0287 11.891 583 114.47 961.852 433.144
1309 0 49.0325 10.8499 532 113.985 961.118 430.953
1310 0 50.1162 11.2539 564 108.475 959.482 428.89
1311 0 49.0606 10.0488 493 104.947 959.714 429.892
1312 0 52.1951 10.0201 523 104.899 958.952 427.472
1313 0 56.0332 10.3332 579 105.354 959.219 427.244
1314 0 58.1448 12.8988 750 100.405 960.033 426.107
1315 0 60.153 12.0526 725 102.44 958.968 425.623
1316 0 63.1125 11.7409 741 102.838 958.915 424.87
1317 0 61.1217 10.8799 665 108.38 958.514 424.892
1318 0 65.1244 12.7448 830 104.684 958.383 421.619
1319 0 67.1382 11.6625 783 106.492 958.19 422.061
1320 0 69.0752 12.2475 846 104.706 959.162 421.898
1321 0 70.0566 12.1045 848 106.867 957.889 422.028
1322 0 74.1129 11.2126 831 111.469 957.988 419.208
1323 0 78.1052 12.9697 1013 112.228 958.119 421.85
1324 0 81.0831 13.8993 1127 109.217 957.956 420.688
1325 0 82.175 13.9215 1144 109.4 958.1 419.788
1326 0 87.207 14.0012 1221 108.369 959.022 420.044
1327 1 45.041 11.8781 535 105.163 957.806 439.372
1328 0 45.0488 11.5874 522 105.755 957.605 439.36
1329 0 49.0709 12.4514 611 104.268 957.142 437.499
1330 0 47.1321 12.221 576 105.349 956.958 438.056
1331 0 48.0917 12.6009 606 104.724 957.648 436.899
1332 0 52.1001 12.2649 639 102.567 958.102 436.011
1333 0 51.1207 12.1086 619 103.995 957.525 436.378
1334 0 51.0715 11.6895 597 106.111 958.263 436.452
1335 0 53.1549 11.5511 614 104.164 957.14 437.015
1336 0 55.0792 11.9646 659 104.014 957.396 434.695
1337 0 56.1113 11.6198 652 103.893 957.497 437.673
1338 0 59.1133 11.774 696 105.109 956.516 433.47
1339 0 60.1182 12.5919 757 104.326 956.82 431.701
1340 0 63.1478 11.6235 734 105.243 956.166 432.305
1341 0 65.1515 11.4195 744 105.669 956.488 432.384
1342 0 68.0506 13.7104 933 101.126 956.573 429.836
1343 0 69.0954 12.461 861 104.322 956.633 428.437
1344 0 72.1169 13.8802 1001 105.256 956.651 425.197
1345 0 74.0673 13.1097 971 106.844 956.103 425.878
1346 0 74.1652 12.1081 898 109.867 955.651 426.12
1347 0 78.0818 13.5115 1055 107.387 955.944 424.518
1348 0 81.0705 12.6803 1028 109.508 955.854 423.795
1349 0 84.1617 13.6404 1148 106.713 956.614 421.614
1350 0 85.0738 12.8242 1091 108.953 956.695 421.485
1351 0 88.1658 12.6466 1115 108.814 956.962 420.742
1352 1 47.0794 10.8965 513 107.15 955.864 441.628
1353 0 49.1001 11.3645 558 100.231 956.181 440.534
1354 0 52.1459 12.4459 649 99.1279 956.185 437.555
1355 0 52.0929 10.942 570 95.9667 955.804 434.095
1356 0 54.1043 12.2726 664 98.0828 956.086 437.63
1357 0 56.0204 12.2812 688 98.2922 955.783 438.308
1358 0 57.147 12.3366 705 99.1716 956.14 436.78
1359 0 59.0406 10.9416 646 103.39 955.619 436.924
1360 0 62.0679 11.9224 740 101.85 956.108 434.515
1361 0 63.0314 12.1209 764 102.075 955.936 434.482
1362 0 64.1004 12.106 776 104.013 955.32 433.798
1363 0 65.0789 12.9996 846 103.356 955.046 431.456
1364 0 69.0687 12.9147 892 103.592 955.066 429.538
1365 0 73.0434 13.2387 967 101.965 955.267 430.569
1366 0 74.045 13.4783 998 102.427 955.075 429.049
1367 0 72.0804 13.0687 942 108.419 955.089 430.187
1368 0 78.0755 13.2308 1033 108.534 955.18 425.996
1369 0 79.1108 12.0843 956 110.563 955.191 427.292
1370 0 82.1828 12.3748 1017 109.47 954.556 426.964
1371 0 86.0559 15.1297 1302 103.359 955.012 424.949
1372 0 86.1504 13.3604 1151 112.99 955.612 422.706
1373 0 89.1962 14.8325 1323 108.484 955.729 421.63
1374 0 92.2197 13.2401 1221 113.426 955.362 418.283
1375 0 95.1444 11.7611 1119 116.366 955.296 417.736
1376 0 97.21 13.1468 1278 112.885 955.797 417.609
1377 1 49.125 12.5802 618 108.01 955.429 439.951
1378 0 49.0554 11.3953 559 110.445 955.574 441.165
1379 0 52.1085 13.5103 704 98.9276 955.861 438.837
1380 0 54.2012 11.9185 646 101.189 956 440.712
1381 0 55.1865 12.4124 685 100.683 956.126 438.793
1382 0 56.0946 13.0494 732 99.2527 956.019 439.408
1383 0 56.0823 12.1429 681 98.746 955.057 436.816
1384 0 59.0715 12.1209 716 99.176 956.064 435.554
1385 0 58.1249 11.6817 679 102.334 956.582 436.384
1386 0 62.2315 12.7106 791 101.081 956.741 433.796
1387 0 64.157 13.0305 836 100.604 957.214 433.309
1388 0 67.163 13.296 893 101.056 956.856 432.465
1389 0 66.1322 11.2653 745 106.22 955.976 433.481
1390 0 68.2124 10.9071 744 112.328 956.232 430.899
1391 0 71.2864 11.7834 840 109.438 956.334 430.204
1392 0 74.2595 12.6583 940 106.988 954.87 429.572
1393 0 77.2193 12.5746 971 107.147 955.227 429.519
1394 0 77.1544 12.313 950 108.82 954.373 428.346
1395 0 80.1982 12.494 1002 106.921 954.102 428.009
1396 0 82.1949 11.6309 956 109.128 954.516 426.395
1397 0 86.2226 12.201 1052 106.478 954.857 426.222
1398 0 88.2637 12.6666 1118 105.835 954.718 422.079
1399 0 90.1847 12.9845 1171 104.948 954.646 421.675
1400 0 94.2765 11.2223 1058 107.97 954.91 421.717
1401 0 98.1488 11.4112 1120 106.583 955.038 419.666
1402 0 102.204 12.8469 1313 103.509 956.091 413.404
1403 0 105.332 13.0634 1376 104.137 955.496 414.021
1404 1 53.228 10.8402 577 100.222 955.516 439.198
1405 0 54.157 12.1314 657 100.035 955.478 439.533
1406 0 56.1398 10.9904 617 102.78 955.12 436.206
1407 0 58.1999 12.354 719 100.04 955.026 437.834
1408 0 61.2022 11.3068 692 102.025 955.386 436.812
1409 0 64.1365 12.0836 775 100.667 955.464 435.615
1410 0 65.2696 12.0424 786 102.496 954.822 435.77
1411 0 65.2164 11.2702 735 106.403 955.943 432.867
1412 0 70.1808 12.6673 889 102.891 955.49 432.89
1413 0 73.3585 13.1273 963 103.216 955.458 430.611
1414 0 73.2451 11.4957 842 108.318 955.268 426.754
1415 0 76.2104 11.8094 900 107.497 955.562 429.244
1416 0 78.1781 12.5739 983 103.297 955.486 427.819
1417 0 79.1722 12.2139 967 105.663 954.33 426.784
1418 0 84.2369 12.1681 1025 103.683 955.289 429.226
1419 0 84.2069 11.7093 986 107.759 955.076 424.142
1420 0 89.1244 11.8374 1055 108.349 954.879 424.14
1421 0 93.2678 12.6946 1184 107.446 955.268 423.341
1422 0 96.3383 12.8609 1239 107.729 955.392 421.638
1423 0 99.1599 10.8713 1078 110.637 955.543 417.986
1424 1 53.1221 11.2006 595 98.9462 955.926 443.687
1425 0 53.1341 11.2922 600 100.757 955.787 438.783
1426 0 56.1822 11.3203 636 100.088 955.679 438.31
1427 0 57.1716 12.2963 703 98.6088 955.275 438.162
1428 0 59.1372 11.7185 693 100.156 955.698 437.482
1429 0 61.0783 10.1182 618 103.047 955.639 436.057
1430 0 62.162 11.2931 702 101.576 956.483 435.969
1431 0 63.1548 12.2556 774 100.301 956.129 435.477
1432 0 65.2772 10.9073 712 103.711 955.978 433.855
1433 0 69.0834 11.2762 779 103.204 956.014 431.866
1434 0 70.1845 10.9996 772 103.618 955.215 430.947
1435 0 73.2649 11.4243 837 101.366 954.292 432.98
1436 0 73.2941 10.2191 749 103.874 954.649 432.063
1437 0 75.4582 10.7212 809 102.732 954.442 432.96
1438 0 79.2355 10.0839 799 104.035 954.715 431.174
1439 0 81.228 11.24 913 101.831 954.177 431.964
1440 0 85.1954 11.7143 998 100.25 954.543 432.393
1441 0 87.3356 10.328 902 104.185 954.214 432.161
1442 0 90.3498 10.891 984 103.729 954.762 429.618
1443 0 93.2272 10.5334 982 104.21 955.168 425.705
1444 0 96.3724 12.3376 1189 100.623 954.502 425.456
1445 0 100.299 12.0838 1212 100.392 955.141 425.245
1446 0 99.2553 11.3042 1122 103.724 954.203 423.124
1447 0 108.323 11.8812 1287 102.669 954.644 420.415
1448 0 110.18 11.6537 1284 102.898 954.887 411.736
1449 1 54.1724 11.1496 604 97.7914 954.073 439.889
1450 0 56.2036 11.7074 658 100.312 954.55 439.564
1451 0 60.1486 12.9845 781 99.0525 954.429 434.382
1452 0 58.2155 11.2513 655 106.087 954.293 436.018
1453 0 63.3099 12.3361 781 102.557 953.973 436.659
1454 0 65.209 14.5532 949 97.7945 954.787 434.708
1455 0 65.22 12.7875 834 102.823 954.932 434.062
1456 0 69.209 13.6398 944 100.29 955.302 432.853
1457 0 68.2145 12.3581 843 104.765 954.75 432.288
1458 0 72.3162 14.0217 1014 99.7337 955.595 432.345
1459 0 75.3904 14.1663 1068 99.161 954.86 431.749
1460 0 77.2663 15.233 1177 97.3152 955.101 432.041
1461 0 79.0884 12.5935 996 101.029 953.764 427.66
1462 0 81.1068 13.9569 1132 97.9214 952.935 426.958
1463 0 82.2097 11.6775 960 102.842 952.971 424.458
1464 0 88.118 13.1301 1157 99.2861 953.38 420.79
1465 0 88.2263 12.0486 1063 101.918 953.927 419.71
1466 0 92.0979 12.9753 1195 99.2837 953.997 416.931
1467 0 96.1674 12.6654 1218 100.336 954.076 419.978
1468 1 50.1885 11.6162 583 92.0394 954.614 441.954
1469 0 51.1989 11.8167 605 92.114 954.613 445.084
1470 0 53.2288 11.6103 618 93.479 955.751 440.837
1471 0 55.1141 12.0296 663 91.7904 953.994 438.463
1472 0 55.1347 11.0638 610 93.6295 954.998 439.997
1473 0 56.1808 12.2996 691 93.8177 954.693 439.081
1474 0 60.0851 13.2645 797 93.2647 955.223 437.182
1475 0 61.0971 11.3099 691 98.0593 953.964 436.2
1476 0 63.1604 11.4312 722 101.112 953.022 434.151
1477 0 67.0926 13.1758 884 97.2772 954.232 433.484
1478 0 67.1159 11.8601 796 100.548 953.889 433.156
1479 0 71.0867 12.2386 870 99.3149 953.734 432.218
1480 0 71.0814 11.9018 846 102.61 953.937 430.226
1481 0 73.1941 11.1484 816 104.103 953.678 428.884
1482 0 78.1869 11.8178 924 101.784 954.341 430.179
1483 0 79.101 13.2362 1047 100.749 954.459 426.531
1484 0 83.0982 13.1772 1095 100.425 954.483 427.311
1485 0 85.2641 13.5344 1154 99.8735 955.421 426.553
1486 0 87.0948 12.7103 1107 101.997 955.21 428.55
1487 0 87.2523 12.7446 1112 103.594 955.058 426.995
1488 0 92.3542 12.3654 1142 103.352 955.306 428.07
1489 0 93.2598 12.3311 1150 104.86 954.637 422.491
