time division length width area intensity CMx CMy
0 0 44.0743 12.7285 561 141.806 1104.88 480.556
1 0 44.02 12.2217 538 143.546 1105.32 481.03
2 0 44.0297 13.3092 586 139.722 1105.5 479.072
3 0 46.0563 13.5921 626 137.941 1105.19 479.278
4 0 48.0908 13.9112 669 135.679 1106.17 478.481
5 0 48.0886 12.2274 588 142.289 1106.29 478.767
6 0 49.1622 14.1572 696 135.461 1105.99 478.191
7 0 50.069 12.8423 643 137.725 1105.63 478.114
8 0 50.1105 13.3505 669 136.541 1104.72 477.453
9 0 53.0936 13.2219 702 135.349 1104.61 477.359
10 0 54.1485 13.0013 704 136.308 1104.73 476.375
11 0 56.0598 13.218 741 133.933 1104.86 476.684
12 0 56.0193 13.5846 761 133.469 1104.7 474.436
13 0 59.0842 13.7093 810 127.667 1105.07 474.769
14 0 62.0895 12.7397 791 129.957 1105.06 474.934
15 0 63.1072 13.4058 846 131.217 1104.42 473.725
16 0 66.1305 13.6699 904 126.958 1104.88 472.973
17 0 70.0422 12.8208 898 137.596 1105.42 472.669
18 0 71.0873 13.5889 966 136.728 1104.71 471.04
19 0 72.1241 11.5495 833 142.279 1105.4 471.048
20 0 74.1475 12.5695 932 131.111 1104.31 470.388
21 1 37.0276 11.64 431 132.561 1105.26 487.768
22 0 38.0481 12.4054 472 130.394 1104.96 486.905
23 0 39.0091 11.1256 434 132.982 1104.29 488.3
24 0 41.0463 13.3021 546 124.612 1104.58 487.141
25 0 40.0439 12.4613 499 124.196 1103.77 488.792
26 0 40.0158 11.3705 455 128.108 1103.15 488.804
27 0 42.0105 11.878 499 127.285 1103.35 488.253
28 0 43.0546 12.2403 527 127.285 1103.09 488.237
29 0 45.0133 13.5738 611 123.218 1102.56 487.046
30 0 46.0178 13.1254 604 124.371 1102.48 487.012
31 0 45.0152 11.6627 525 128.853 1102.22 487.109
32 0 49.0687 14.3065 702 121.654 1102.53 485.026
33 0 51.0687 12.9434 661 123.52 1101.96 484.593
34 0 52.0579 13.6963 713 122.485 1102.07 485.007
35 0 54.1352 12.9675 702 123.426 1102.2 484.412
36 0 56.1013 13.4934 757 121.573 1102.39 484.054
37 0 58.1077 14.1117 820 120.888 1102.07 482.284
38 0 59.1586 13.0328 771 122.986 1101.87 481.757
39 0 62.0707 13.2269 821 122.894 1101.73 479.873
40 0 64.0914 13.0595 837 122.428 1102.07 479.867
41 0 66.0453 12.9759 857 122.939 1102.37 478.334
42 0 69.0843 13.4473 929 120.9 1102.21 476.978
43 0 70.1028 11.6543 817 126.012 1102.14 477.185
44 0 75.1356 15.1726 1140 116.896 1101.85 474.468
45 0 76.1411 14.4994 1104 119.401 1101.68 473.511
46 0 80.1699 14.1075 1131 120.006 1101.5 473
47 0 84.0872 14.485 1218 119.095 1100.99 471.378
48 1 41.0542 12.9828 533 124.388 1101.38 491.417
49 0 40.1019 12.0443 483 125.482 1101.92 490.083
50 0 44.0281 13.7185 604 117.515 1101.71 488.704
51 0 44.0303 13.2636 584 124.613 1101.86 487.265
52 0 47.0102 13.8268 650 128.402 1102.18 488.803
53 0 48.0137 13.1837 633 131.825 1102.32 488.186
54 0 51.0231 14.1112 720 128.222 1102.32 486.09
55 0 53.0509 14.1374 750 128.225 1101.94 487.061
56 0 53.115 13.9132 739 130.541 1102.11 486.363
57 0 55.0714 14.0363 773 131.891 1102.86 483.856
58 0 56.0202 14.2627 799 132.876 1102.01 484.587
59 0 58.0827 14.29 830 133.807 1102.11 483.5
60 0 63.0939 14.7716 932 131.415 1101.7 483.847
61 0 64.0996 13.479 864 138.128 1102 481.72
62 0 67.0819 14.5792 978 134.597 1102.25 480.828
63 0 70.1387 15.1985 1066 134.22 1102.64 479.814
64 0 72.1046 15.2001 1096 136.093 1102.23 478.121
65 0 74.097 14.508 1075 140.395 1102.1 478.38
66 0 76.2656 14.8035 1129 137.671 1101.75 477.636
67 0 80.2359 14.5945 1171 139.54 1101.98 474.5
68 0 81.2141 14.431 1172 140.809 1101.73 472.129
69 0 85.0991 14.7123 1252 139.121 1101.05 472.875
70 0 87.1143 14.7967 1289 139.749 1101.34 470.343
71 1 47.0531 13.2191 622 142.68 1100.88 489.641
72 0 49.0274 14.4001 706 137.558 1101.66 488.472
73 0 50.0849 13.8565 694 140.563 1101.74 486.996
74 0 53.0441 14.0072 743 141.113 1101.58 489.202
75 0 53.0998 14.8965 791 133.541 1101.16 487.163
76 0 55.0817 14.4694 797 134.256 1101.19 487.709
77 0 57.091 14.2404 813 135.523 1101.22 485.064
78 0 58.0414 14.6447 850 135.912 1101.14 482.736
79 0 61.181 14.3672 879 135.471 1100.97 483.949
80 0 63.0373 14.5628 918 133.698 1101.18 484.306
81 0 67.1086 14.8416 996 132.033 1101.51 481.447
82 0 69.0735 14.1878 980 133.251 1100.95 481.824
83 0 72.1135 14.9209 1076 131.253 1101.32 479.361
84 0 74.0479 14.5852 1080 133.293 1100.86 478.402
85 0 77.123 14.4834 1117 133.908 1101.18 476.522
86 0 77.0995 14.0338 1082 137.263 1100.27 475.519
87 0 81.1752 14.5857 1184 134.767 1100.56 473.361
88 0 84.2885 13.9402 1175 137.039 1099.78 471.171
89 0 87.4749 13.6496 1194 138.261 1099.35 468.841
90 0 90.3157 13.9179 1257 138.387 1099.27 467.453
91 1 46.2587 12.7111 588 133.192 1098.5 490.279
92 0 47.2698 12.4815 590 135.769 1099.13 490.549
93 0 49.1412 13.0847 643 132.941 1098.83 489.016
94 0 50.1276 12.6477 634 133.096 1099.45 488.101
95 0 49.0914 12.711 624 131.702 1099.46 490.559
96 0 54.1215 13.1186 710 128.982 1099.64 489.197
97 0 54.0664 12.5956 681 130.589 1099.62 488.097
98 0 57.0901 13.2422 756 129.415 1099.48 485.839
99 0 56.0508 13.5056 757 131.102 1099.55 485.369
100 0 60.0906 13.3299 801 130.417 1099.99 485.712
101 0 60.0598 13.5532 814 132.034 1099.45 482.671
102 0 64.0687 14.781 947 128.563 1099.53 482.704
103 0 64.2133 13.6732 878 133.665 1099.66 480.565
104 0 69.0909 13.8947 960 131.596 1099.1 482.028
105 0 70.1326 13.6456 957 133.558 1099.17 479.395
106 0 74.0482 15.0037 1111 128.879 1099.18 479.158
107 0 75.0585 13.8292 1038 133.68 1098.88 477.032
108 0 78.0897 14.9187 1165 130.638 1098.96 477.47
109 0 79.0389 13.5756 1073 136.531 1098.62 475.126
110 0 81.0713 13.7286 1113 138.756 1098.44 473.314
111 0 85.1562 14.0448 1196 135.854 1098.21 472.508
112 0 88.1021 14.5853 1285 136.426 1098.52 471.135
113 0 92.1199 15.0239 1384 137.407 1098.48 469.226
114 0 94.1334 13.5765 1278 139.982 1098.72 467.81
115 0 97.0781 14.5965 1417 130.076 1099.18 465.433
116 0 101.275 13.024 1319 133.345 1099.16 464.357
117 0 104.103 13.5635 1412 133.795 1099.36 459.577
118 1 56.1363 11.5611 649 127.391 1099.97 488.263
119 0 57.0766 13.0526 745 126.251 1100.87 485.364
120 0 61.1423 13.5258 827 122.665 1099.66 485.652
121 0 61.0821 12.5405 766 126.833 1099.47 484.112
122 0 65.1473 12.8785 839 122.436 1099.63 483.018
123 0 66.0947 13.8892 918 121.423 1099.17 480.9
124 0 69.1064 13.3273 921 121.925 1099.78 479.954
125 0 71.1975 13.7926 982 122.19 1099.14 478.461
126 0 72.2184 12.5314 905 127.297 1098.74 477.105
127 0 74.138 12.0991 897 125.062 1099.14 478.673
128 0 77.1104 12.2811 947 124.031 1098.78 478.201
129 0 80.1183 11.5953 929 127.926 1099.18 475.321
130 0 82.1637 12.755 1048 125.564 1099.39 473.375
131 0 84.1747 13.3888 1127 125.437 1099.21 471.012
132 0 87.2416 11.9438 1042 130.442 1099.39 470.685
133 0 90.1454 12.5797 1134 131.563 1099.33 467.295
134 0 92.1239 13.1345 1210 131.614 1099.48 466.556
135 0 97.1854 13.6029 1322 130.136 1098.7 464.998
136 0 99.2205 14.1604 1405 130.322 1099.17 462.295
137 0 103.267 13.9444 1440 129.956 1099.24 463.729
138 0 107.304 13.8764 1489 130.343 1098.6 460.338
139 1 58.1278 11.7844 685 125.038 1098.8 485.188
140 0 61.1133 11.6832 714 124.923 1099.31 484.563
141 0 64.0942 12.544 804 120.566 1098.97 483.608
142 0 64.1267 12.756 818 120.363 1099.27 482.756
143 0 66.0521 12.8838 851 122.112 1099.09 480.644
144 0 69.1386 12.0772 835 125.025 1099.45 476.715
145 0 72.0828 12.4856 900 124.49 1100.26 477.006
146 0 75.0711 13.3207 1000 122.91 1099.74 475.311
147 0 76.1412 12.3718 942 126.144 1098.74 474.486
148 0 80.0778 13.2996 1065 123.291 1099.47 472.964
149 0 82.406 13.3607 1101 123.588 1099.11 470.321
150 0 85.1795 13.5596 1155 124.01 1099.57 467.529
151 0 89.3351 13.9139 1243 123.147 1099.31 465.595
152 0 91.3425 12.1083 1106 129.536 1099.36 464.035
153 0 94.4221 13.069 1234 126.889 1099.25 463.792
154 0 97.2576 13.8704 1349 125.938 1099.28 458.792
155 0 100.264 13.5443 1358 128.007 1099.54 458.365
156 0 103.495 13.6529 1413 128.187 1099.28 456.226
157 0 107.309 13.764 1477 128.071 1100.64 455.265
158 0 110.395 15.0007 1656 126.636 1099.62 451.972
159 0 114.23 14.9348 1706 126.688 1100.02 453.107
160 0 117.309 13.9717 1639 131.109 1100.48 451.377
161 0 120.517 13.3342 1607 132.028 1100.01 450.683
162 0 125.51 15.194 1907 126.264 1099.37 447.094
163 0 129.589 14.2296 1844 129.433 1099.57 445.721
164 0 132.536 14.7959 1961 128.993 1099.94 443.222
165 1 67.2947 11.2044 754 128.267 1099.51 475.046
166 0 72.2805 12.5345 906 124.852 1099.61 474.042
167 0 76.2642 13.427 1024 126.733 1099.49 472.28
168 0 78.3045 13.4475 1053 127.818 1099.71 469.896
169 0 79.3789 11.3002 897 133.557 1100.06 469.671
170 0 81.3185 11.2029 911 134.451 1100.3 468.708
171 0 84.4312 13.4666 1137 129.175 1101 465.577
172 0 88.3334 13.0528 1153 130.634 1100.27 464.321
173 0 90.2758 13.0378 1177 131.483 1100.29 462.62
174 0 94.3551 13.2902 1254 130.947 1100.5 462.958
175 0 98.4294 12.5674 1237 132.214 1101.1 461.359
176 0 100.266 13.5041 1354 129.431 1101 459.504
177 0 103.268 13.1116 1354 131.245 1100.8 457.93
178 0 107.49 12.1035 1301 133.927 1101.38 454.217
179 0 110.297 12.9378 1427 131.503 1100.98 453.559
180 0 114.277 12.3297 1409 132.473 1100.99 451.575
181 1 60.3128 12.4683 752 120.152 1101.01 478.753
182 0 60.2466 12.2497 738 122.602 1100.92 476.902
183 0 63.0759 12.9209 815 122.005 1099.54 477.945
184 0 67.1581 12.8056 860 120.541 1099.33 479.008
185 0 68.1435 11.7252 799 124.508 1099.19 475.994
186 0 72.2518 13.3422 964 119.664 1098.79 474.52
187 0 72.3609 12.1751 881 125.022 1098.34 471.654
188 0 76.2694 12.1018 923 124.561 1098.76 469.438
189 0 79.4014 12.7076 1009 122.042 1098.76 468.21
190 0 80.3011 12.7894 1027 122.444 1098.55 467.895
191 0 84.3412 12.7458 1075 122.335 1098.57 466.118
192 0 87.4544 14.0759 1231 119.382 1098.71 464.963
193 0 90.4143 13.1395 1188 122.776 1098.82 461.836
194 0 94.2526 13.8882 1309 121.151 1098.5 460.524
195 0 99.3576 13.6477 1356 120.631 1099.12 459.38
196 0 101.382 13.8684 1406 121.181 1099.27 457.601
197 0 105.462 13.1896 1391 122.483 1099.32 454.685
198 1 58.2657 12.0826 704 117.152 1099.23 479.916
199 0 59.0559 10.8541 641 120.786 1100.2 482.094
200 0 61.1223 13.0558 798 116.361 1099.98 481.206
201 0 60.1318 13.67 822 113.888 1100.07 480.179
202 0 66.1218 11.993 793 116.098 1100.3 479.019
203 0 66.0516 13.3683 883 114.027 1099.72 478.47
204 0 69.1299 12.1076 837 117.712 1097.71 475.256
205 0 71.1127 12.3466 878 116.893 1097.84 473
206 0 74.0758 13.4592 997 114.582 1098.14 472.505
207 0 75.1002 12.6364 949 117.452 1098.47 471.751
208 0 78.1937 12.8527 1005 114.936 1098.09 472.238
209 0 81.1501 11.719 951 118.016 1098.11 468.552
210 0 85.0928 14.3373 1220 111.761 1098.78 467.981
211 0 86.1049 13.0306 1122 114.794 1098.7 466.805
212 0 87.0833 12.7579 1111 117.209 1098.85 464.45
213 0 93.1201 12.8114 1193 115.394 1098.51 463.49
214 0 98.122 14.1457 1388 111.004 1098.36 463.354
215 1 49.0465 10.1944 500 109.54 1098.27 487.836
216 0 49.0735 12.0228 590 105.461 1098.62 485.714
217 0 50.1122 11.594 581 94.9208 1099.78 484.749
218 0 50.018 10.8361 542 96.3376 1100.86 482.485
219 0 55.1026 10.2899 567 96.2804 1100.68 483.153
220 0 53.046 10.3495 549 97.8069 1100.66 482.523
221 0 53.0394 9.69091 514 100.809 1100.39 479.897
222 0 57.1331 10.9569 626 97.4728 1099.58 479.709
223 0 58.0897 10.501 610 98.6361 1099.27 479.077
224 0 60.12 10.8117 650 98.4338 1099.87 477.097
225 0 64.1791 11.4212 733 97.708 1099.47 476.236
226 0 63.2307 11.2129 709 98.8181 1099.96 477.353
227 0 66.0827 11.758 777 98.7812 1099.05 475.622
228 0 66.1134 11.5257 762 100.261 1098.95 476.188
229 0 71.1749 11.0994 790 101.125 1099.49 474.805
230 0 71.0679 11.0739 787 101.971 1099.47 473.699
231 0 74.1053 11.929 884 100.682 1099.74 470.223
232 0 75.0733 12.0149 902 100.971 1099.97 470.084
233 0 78.0932 12.4082 969 100.964 1100.04 468.401
234 0 81.1243 12.8568 1043 99.7248 1100.12 469.79
235 0 82.2105 11.653 958 107.181 1099.93 465.695
236 0 86.3651 13.1187 1133 110.012 1100.16 469.877
237 0 88.3677 13.093 1157 110.975 1099.76 467.952
238 0 90.1448 12.8238 1156 111.918 1099.6 465.62
239 0 92.3121 13.4977 1246 109.976 1100.47 461.895
240 0 96.1953 12.142 1168 112.224 1099.98 464.671
241 0 98.269 12.0689 1186 113.431 1099.75 458.951
242 0 103.338 12.851 1328 106.599 1099.27 458.785
243 1 51.1287 9.77924 500 107.164 1100.05 484.614
244 0 51.1361 10.0712 515 97.4621 1098.75 482.247
245 0 53.0766 10.9276 580 95.5655 1099.67 480.353
246 0 54.2595 9.89688 537 98.0466 1099.82 479.453
247 0 56.1121 10.5147 590 97.5932 1099.64 478.754
248 0 57.0368 10.5546 602 98.2143 1100.21 475.998
249 0 62.1807 9.52065 592 98.3446 1099.73 477.735
250 0 63.2655 10.9538 693 96.7056 1100.21 475.893
251 0 64.1493 12.2215 784 105.459 1100.46 478.936
252 0 67.2654 11.8337 796 105.411 1100.31 475.443
253 0 71.2477 12.646 901 103.007 1100.41 476.376
254 0 72.1057 12.2875 886 104.596 1100.72 475.933
255 0 75.0949 12.1979 916 105.238 1100.61 474.099
256 0 79.132 12.536 992 104.571 1100.51 469.678
257 0 80.3096 11.8292 950 107.035 1100.17 468.938
258 0 82.2984 12.2846 1011 106.749 1100.15 467.127
259 0 86.218 11.5521 996 107.008 1099.49 464.322
260 1 45.2248 8.62358 390 107.072 1099.02 482.474
261 0 46.2042 11.3842 526 102.078 1099.46 481.903
262 0 50.0675 10.6257 532 105.017 1098.04 485.344
263 0 52.0669 10.7362 559 107.279 1099.19 485.957
264 0 53.0478 10.368 550 110.22 1098.81 483.322
265 0 54.0572 11.0994 600 108.445 1098.82 485.068
266 0 56.0281 11.0302 618 109.006 1098.57 483.414
267 0 60.1805 10.8673 654 108.575 1098.85 483.884
268 0 61.1704 12.13 742 107.431 1098.45 482.354
269 0 63.1117 12.2798 775 107.279 1098.39 481.921
270 0 66.1687 12.6797 839 107.181 1098.35 480.448
271 0 68.1637 12.7634 870 107.829 1098.69 480.334
272 0 71.2039 11.6988 833 109.703 1097.95 480.113
273 0 72.1334 11.4649 827 111.646 1097.88 476.52
274 0 75.0987 12.1041 909 110.443 1098.2 475.472
275 0 78.1113 11.8933 929 110.62 1097.63 475.985
276 0 79.1184 12.2222 967 112.049 1097.46 473.589
277 0 85.1625 13.3509 1137 108.575 1098.23 470.688
278 0 86.1713 12.1502 1047 111.189 1098.21 470.919
279 0 90.2571 12.6971 1146 109.436 1098.92 469.746
280 0 91.1355 10.3801 946 113.842 1098.64 467.874
281 1 47.1001 11.7622 554 99.87 1100.66 491.049
282 0 47.1397 9.5461 450 105.647 1099.72 489.687
283 0 50.3577 12.4311 626 101.374 1099.07 484.401
284 0 54.1507 13.407 726 95.7727 1100.84 488.116
285 0 54.0414 12.768 690 100.343 1100.84 486.604
286 0 55.0765 11.7655 648 101.13 1101.28 486.282
287 0 56.0701 12.0207 674 100.157 1100.69 485.427
288 0 59.0835 11.9661 707 99.6973 1100.41 483.914
289 0 60.0759 12.5341 753 99.3838 1100.91 483.531
290 0 61.1193 11.044 675 102.846 1101.29 483.056
291 0 66.1974 12.8253 849 96.8975 1101.16 482.305
292 0 65.0495 10.2537 667 103.408 1101.08 483.337
293 0 67.0359 11.6356 780 100.803 1100.86 478.255
294 0 71.0818 12.0143 854 99.623 1100.2 478.149
295 0 74.1079 13.3184 987 97.3141 1099.2 477.004
296 0 76.129 12.2818 935 100.698 1099.11 476.103
297 0 79.1299 12.1193 959 101.576 1098.76 475.167
298 0 82.1298 12.4559 1023 100.546 1098.96 475.474
299 0 84.084 13.213 1111 99.7579 1098.4 474.647
300 0 86.0762 10.6882 920 107.089 1098.37 470.926
301 1 45.0353 10.8137 487 108.211 1097.46 491.24
302 0 48.0362 12.0118 577 105.281 1098.1 489.953
303 0 47.0676 11.6641 549 107.801 1098.29 489.437
304 0 47.1489 11.1561 526 106.331 1098.54 488.895
305 0 51.1035 12.2496 626 103.837 1098.7 489.911
306 0 53.1004 12.6364 671 102.866 1098.59 487.225
307 0 54.0965 12.034 651 104.645 1099.4 486.106
308 0 54.1753 11.5182 624 106.054 1098.58 484.949
309 0 56.1655 13.3356 749 101.052 1099.42 485.113
310 0 59.0933 12.3872 732 102.422 1099.23 482.296
311 0 58.0969 11.4808 667 105.895 1098.75 484.004
312 0 59.0978 11.1849 661 106.436 1099.66 482.371
313 0 65.0979 13.1955 859 100.094 1099.67 483.576
314 0 65.1238 14.2805 930 98.872 1099.41 480.113
315 0 68.068 12.5022 851 103.019 1098.72 478.843
316 0 71.14 13.2696 944 101.462 1099.39 478.948
317 0 72.1241 12.326 889 103.58 1098.75 476.642
318 0 74.1046 13.373 991 101.828 1099.05 476.032
319 0 75.102 12.0503 905 105.327 1098.94 474.464
320 0 79.1057 12.7804 1011 102.629 1099.31 474.071
321 0 83.1003 13.7545 1143 100.507 1099.54 474.053
322 0 86.0707 12.42 1069 103.307 1099.68 470.587
323 0 89.1182 12.7247 1134 103.185 1100.77 470.765
324 0 91.1805 12.9633 1182 106.146 1099.86 465.975
325 0 95.2982 13.9352 1328 105.09 1099.79 466.136
326 1 48.07 11.8577 570 104.498 1100.11 489.972
327 0 51.277 13.0468 669 102.481 1099.03 485.862
328 0 52.1534 11.773 614 97.9886 1100.59 486.764
329 0 51.2118 10.1539 520 101.821 1100.87 487.371
330 0 54.0661 11.227 607 101.107 1100.9 484.789
331 0 54.2318 11.0452 599 101.678 1100.66 485.95
332 0 57.1644 11.3882 651 103.011 1099.8 483.512
333 0 59.1257 12.8032 757 100.028 1099.54 482.469
334 0 62.0633 12.3906 769 100.356 1100.04 481.17
335 0 62.0975 11.176 694 103.738 1099.73 478.624
336 0 64.0871 11.4688 735 104.837 1099.48 478.316
337 0 66.0817 12.1214 801 103.18 1099.24 479.326
338 0 69.0848 12.1445 839 103.583 1098.74 476.638
339 0 72.1308 11.9366 861 103.333 1099.38 477.852
340 0 74.0821 11.6222 861 105.765 1099.47 474.343
341 0 77.124 11.8381 913 105.838 1099.24 475.658
342 0 81.1316 12.3996 1006 103.04 1099.99 474.13
343 0 83.17 12.4684 1037 104.863 1098.83 470.551
344 0 83.1589 11.7005 973 107.295 1099.52 470.713
345 0 88.1891 12.0763 1065 105.476 1099.15 471.458
346 1 43.0951 9.53704 411 111.735 1098.88 495.453
347 0 46.0687 13.2194 609 103.767 1098.88 491.442
348 0 46.0798 12.3481 569 106.26 1098.84 491.547
349 0 49.0258 12.1977 598 105.64 1099.75 491.605
350 0 51.1131 13.0104 665 104.415 1100.57 487.791
351 0 50.1453 11.0678 555 110.629 1100.06 488.605
352 0 53.0707 12.4174 659 105.607 1099.98 489.074
353 0 55.0985 12.9586 714 104.601 1100.16 487.388
354 0 57.1408 12.828 733 104.847 1099.97 485.731
355 0 58.1635 13.4964 785 102.977 1099.65 486.028
356 0 59.1419 11.6669 690 107.151 1099.49 486.039
357 0 62.2328 12.3408 768 106.02 1099.9 483.297
358 0 65.1251 12.8522 837 106.201 1099.95 483.693
359 0 68.1517 12.3988 845 104.735 1100.34 484.264
360 0 68.1251 12.2862 837 107.526 1099.98 480.085
361 0 72.1938 12.3833 894 106.068 1100.28 478.917
362 0 75.1549 12.6139 948 103.958 1100.57 478.697
363 0 79.1162 12.4627 986 103.807 1100.51 476.439
364 0 82.1327 13.2225 1086 102.496 1100.37 474.82
365 0 86.1328 12.5968 1085 103.247 1101.06 475.007
366 0 88.1622 12.6585 1116 103.551 1100.84 472.637
367 1 45.0625 11.8058 532 105.288 1101.49 492.008
368 0 48.14 13.2946 640 102.006 1101.43 491.455
369 0 48.0453 11.51 553 109.105 1100.83 489.356
370 0 53.0764 13.019 691 102.135 1100.75 490.081
371 0 49.1055 11.2207 551 107.042 1101.22 491.377
372 0 53.0647 12.3434 655 103.473 1100.33 489.702
373 0 53.0792 10.8517 576 106.92 1100.86 490.066
374 0 56.0695 13.2514 743 102.042 1100.75 489.258
375 0 56.0669 12.164 682 106.216 1100.64 488.053
376 0 58.0819 11.501 668 108.469 1100.6 486.358
377 0 63.0327 14.5797 919 100.653 1100.47 484.652
378 0 64.0279 11.5575 740 107.07 1100.55 483.751
379 0 66.0385 12.6744 837 105.939 1099.82 482.581
380 0 67.1594 12.1055 813 107.601 1100.11 481.856
381 0 72.0934 12.4561 898 104.835 1100.35 479.866
382 0 72.135 12.3103 888 107.336 1099.5 479.14
383 0 76.0698 12.3834 942 106.801 1100.3 477.851
384 0 79.1025 12.6039 997 106.815 1100.47 476.328
385 0 81.1299 12.8436 1042 107.779 1100.7 475.747
386 1 42.0251 11.4931 483 113.104 1101.1 493.176
387 0 45.1452 13.4012 605 102.225 1100.84 493.75
388 0 45.0932 11.5317 520 108.337 1100.73 493.102
389 0 46.1238 13.0518 602 106.59 1098.61 490.91
390 0 48.1203 12.9051 621 106.707 1097.78 489.615
391 0 49.0904 12.3446 606 107.929 1097.94 490.246
392 0 51.1242 12.2056 624 108.833 1100.19 492.173
393 0 52.0483 11.8736 618 110.917 1100.18 490.851
394 0 51.0615 11.5547 590 112.525 1100.02 491.397
395 0 53.0523 11.385 604 114.129 1100.27 488.472
396 0 58.1916 12.7682 743 108.413 1100.26 488.802
397 0 58.0176 11.6344 675 111.354 1100.55 489.273
398 0 59.1272 11.7712 696 112.51 1101.23 486.497
399 0 61.1048 11.5048 703 113.679 1100.09 485.199
400 0 65.1752 12.2593 799 110.814 1100.09 485.354
401 0 66.1552 12.7428 843 111.123 1100.06 483.197
402 0 71.208 12.625 899 110.169 1101.08 482.288
403 0 74.1942 13.0334 967 109.352 1100.75 481.468
404 0 75.168 12.1328 912 112.133 1100.98 480.66
405 0 79.1915 11.9331 945 112.6 1100.97 478.199
406 0 82.1629 12.39 1018 111.377 1100.51 477.209
407 0 84.1532 13.0001 1094 110.431 1100.06 476.474
408 0 87.2154 12.108 1056 112.053 1100.66 474.895
409 1 46.0911 11.3905 525 113.324 1100.71 493.267
410 0 47.0629 12.0264 566 111.77 1100.5 492.588
411 0 47.134 12.8145 604 105.495 1099.23 491.503
412 0 50.0241 11.2146 561 108.155 1100.3 490.706
413 0 52.0539 12.4102 646 105.724 1097.68 489.68
414 0 52.1154 12.3188 642 106.422 1097.57 488.051
415 0 53.0233 12.5417 665 105.746 1098.32 488.55
416 0 55.0417 12.6268 695 108.688 1100.54 487.229
417 0 54.0808 10.7247 580 113.371 1101.25 488.852
418 0 57.0548 11.8658 677 112.137 1100.62 486.332
419 0 59.0486 11.5159 680 112.356 1101.1 484.357
420 0 60.067 12.5526 754 110.956 1101.06 483.386
421 0 62.0298 10.8496 673 113.44 1100.38 484.991
422 0 66.1105 13.2808 878 107.166 1100.67 481.474
423 0 67.0622 11.4521 768 111.288 1101.36 479.341
424 0 70.0573 12.8181 898 107.605 1100.46 479.939
425 0 72.1488 10.8803 785 112.834 1100.41 478.752
426 0 75.1834 13.1545 989 106.924 1101.08 479.12
427 0 77.0639 12.1587 937 109.048 1100.21 476.88
428 0 83.1211 11.5735 962 109.903 1099.75 475.859
429 0 83.1013 11.7327 975 110.908 1100.76 471.211
430 0 86.2161 11.2856 973 110.914 1100.7 473.128
431 0 89.1967 10.5049 937 113.162 1100.26 472.381
432 1 46.1954 10.8452 501 111.24 1099.91 489.02
433 0 48.0532 10.8005 519 110.545 1100.81 490.803
434 0 53.1618 12.9228 687 104.253 1100.56 490.528
435 0 53.074 13.1703 699 105.269 1101.02 489.249
436 0 53.093 11.9225 633 110.526 1101.43 487.687
437 0 56.1045 12.4946 701 109.756 1101.45 485.039
438 0 56.0652 11.5758 649 112.906 1101.11 486.921
439 0 58.0203 12.3578 717 112.438 1100.89 483.933
440 0 62.0617 14.3244 889 104.612 1101.28 485.142
441 0 64.0749 13.812 885 107.472 1101.44 483.374
442 0 65.0957 13.3188 867 110.232 1101.83 481.581
443 0 67.1138 12.7843 858 112.803 1101.21 480.801
444 0 69.0356 13.3699 923 112.582 1101.55 479.791
445 0 71.1061 11.6586 829 117.057 1101.5 481.492
446 0 76.061 12.9764 987 114.561 1101.08 478.568
447 0 78.1367 11.851 926 118.795 1101.46 478.456
448 0 80.1359 13.0903 1049 116.574 1101.59 476.985
449 0 81.0309 12.4397 1008 120.553 1101.22 470.885
450 0 87.1149 12.2138 1064 120.514 1100.94 472.599
451 1 46.0866 11.9991 553 115.553 1100.92 493.879
452 0 48.0538 11.5079 553 119.011 1100.6 493.284
453 0 47.0904 12.253 577 117.853 1100.89 492.146
454 0 49.2302 12.0048 591 113.115 1100.64 492.164
455 0 52.1379 12.8697 671 111.981 1100.98 490.277
456 0 51.2304 12.6683 649 113.998 1100.96 490.214
457 0 53.1245 12.0095 638 115.022 1100.78 490.05
458 0 55.2348 12.6732 700 113.424 1100.42 488.521
459 0 57.0996 13.4677 769 112.127 1100.26 488.566
460 0 58.1564 12.4492 724 114.213 1100.7 485.459
461 0 60.1258 13.4884 811 111.853 1099.95 485.855
462 0 62.1764 13.0757 813 113.054 1100.08 484.625
463 0 63.1976 12.5321 792 115.244 1100.1 484.254
464 0 66.2933 13.0028 862 112.937 1099.47 482.648
465 0 68.2025 13.2107 901 112.779 1099.23 482.41
466 0 71.1577 13.196 939 111.793 1100.21 480.897
467 0 74.139 12.9352 959 112.282 1099.99 480.67
468 0 74.1402 13.9061 1031 112.032 1099.13 476.674
469 0 78.1247 13.1713 1029 112.2 1099.97 477.391
470 0 79.0702 12.3055 973 115.811 1099.66 475.757
471 0 82.2667 12.8363 1056 114.277 1100.01 473.07
472 0 85.1568 11.9309 1016 115.641 1099.12 472.716
473 1 45.0259 10.9048 491 111.921 1100.06 491.269
474 0 48.0431 11.7186 563 111.73 1100.14 492.202
475 0 48.0888 11.9986 577 109.123 1100.14 493.26
476 0 49.0365 11.5628 567 107.33 1100.56 489.64
477 0 51.1491 11.1634 571 107.741 1100.35 487.466
478 0 53.3031 11.7817 628 106.541 1100.04 487.018
479 0 52.1004 12.1304 632 111.981 1100.85 489.014
480 0 56.0758 11.8946 667 110.343 1099.12 488.423
481 0 57.0903 13.3998 765 106.688 1098.78 488.2
482 0 59.163 12.5585 743 108.319 1099.08 488.147
483 0 58.088 10.7079 622 113.884 1098.7 486.093
484 0 63.1863 12.4078 784 108.827 1099.16 484.703
485 0 63.0684 12.2883 775 108.555 1098.31 485.735
486 0 66.1696 13.677 905 104.354 1099.35 484.939
487 0 67.1844 12.9792 872 107.462 1099.09 481.204
488 0 70.1998 11.8376 831 108.892 1098.28 479.273
489 0 74.072 12.7579 945 106.342 1098.46 478.962
490 0 76.0922 12.4323 946 106.903 1098.53 476.674
491 0 78.1403 12.196 953 107.421 1098.74 475.429
492 0 81.0606 11.4852 931 108.367 1099.91 473.777
493 0 85.2718 13.6739 1166 103.842 1099.9 471.864
494 0 89.1532 13.9086 1240 102.836 1099.78 472.681
495 0 90.0771 12.134 1093 107.812 1100.04 470.925
496 0 92.1324 12.113 1116 108.807 1100.02 468.927
497 0 98.2804 12.678 1246 106.51 1099.9 468.122
498 0 100.266 12.7361 1277 108.079 1099.53 466.007
499 1 52.122 10.8208 564 104.326 1100 489.8
500 0 55.1113 12.9375 713 102.909 1101.03 487.515
501 0 58.0857 12.8947 749 106.356 1100.08 487.142
502 0 59.0528 13.0392 770 106.305 1100.29 484.61
503 0 60.1243 13.2891 799 105.65 1100.39 484.426
504 0 63.0834 12.7926 807 105.507 1100.22 482.26
505 0 64.1375 12.6915 814 106.439 1099.66 484.045
506 0 68.0994 13.0251 887 103.816 1100.22 483.002
507 0 68.0814 12.6026 858 106.104 1100.21 479.871
508 0 73.0846 12.6976 928 105.397 1099.97 480.892
509 0 74.1506 12.3397 915 106.973 1100.01 477.239
510 0 77.1019 11.9582 922 108.452 1099.64 476.925
511 0 79.1401 13.1539 1041 106.383 1099.8 476.356
512 0 82.2261 13.5967 1118 105.895 1099.73 473.581
513 0 87.3056 12.7369 1112 108.822 1099.32 472.149
514 0 90.1927 12.7727 1152 108.817 1099.45 472.709
515 0 92.108 13.343 1229 109.285 1099.77 468.562
516 1 46.0569 11.0515 509 111.232 1097.99 491.556
517 0 49.2309 11.3953 561 111.128 1099.66 486.663
518 0 51.2321 12.9216 662 107.367 1100.25 485.849
519 0 54.0393 13.5457 732 104.436 1100.82 490.251
520 0 55.105 12.449 686 108.274 1100.24 489.843
521 0 56.0894 12.7653 716 108.627 1100.43 488.237
522 0 57.0597 11.672 666 111.551 1101.29 487.512
523 0 59.1492 12.6122 746 109.977 1100.16 485.256
524 0 62.1078 14.2977 888 105.235 1099.87 483.465
525 0 63.0431 13.4511 848 107.873 1100.04 485.289
526 0 67.1123 13.768 924 105.646 1100.02 484.567
527 0 65.0142 12.0743 785 113.603 1099.96 482.503
528 0 71.076 13.9006 988 106.374 1099.13 482.347
529 0 72.2221 13.0016 939 108.506 1099.75 482.854
530 0 75.0867 14.7563 1108 104.583 1100.28 479.509
531 0 77.0752 12.5202 965 109.368 1100.26 478.513
532 0 80.1575 14.3592 1151 106.831 1099.5 477.887
533 0 80.2199 13.5503 1087 109.909 1100.03 475.782
534 0 85.2432 14.1712 1208 106.77 1099.66 475.026
535 0 87.2947 13.9069 1214 109.229 1099.5 471.769
536 0 90.2912 14.3868 1299 107.971 1099.5 468.697
537 0 94.4723 12.628 1193 111.267 1099.8 467.173
538 1 49.2129 12.131 597 110.749 1099.81 489.538
539 0 51.0709 12.2183 624 105.104 1098.88 491.854
540 0 52.1855 12.513 653 105.145 1098.63 486.248
541 0 53.0832 11.7363 623 107.104 1099.18 487.52
542 0 54.1481 12.0041 650 106.905 1098.61 487.762
543 0 56.136 12.2381 687 106.499 1099.24 486.482
544 0 59.0943 13.5377 800 104.603 1098.75 485.442
545 0 63.0791 13.1105 827 104.502 1098.76 484.369
546 0 64.1691 12.5762 807 106.594 1098.5 482.393
547 0 65.077 12.6312 822 108.805 1098.41 481.451
548 0 67.1402 12.1835 818 109.163 1098.86 480.692
549 0 71.1363 13.2984 946 107.489 1099.19 479.558
550 0 73.0643 13.3992 979 108.165 1098.94 478.611
551 0 75.101 13.5018 1014 108.473 1098.67 480.286
552 0 78.1355 13.7582 1075 108.021 1098.88 476.687
553 0 81.1753 12.0726 980 112.417 1098.49 473.349
554 0 83.1008 12.9 1072 111.868 1098.87 475.276
555 0 86.1316 13.1195 1130 111.803 1099.09 471.975
556 0 88.16 13.2373 1167 112.829 1098.85 472.821
557 0 92.1377 12.8503 1184 113.843 1099.37 470.204
558 1 47.0621 12.4304 585 112.528 1098.86 492.477
559 0 47.0334 11.7576 553 116.005 1098.25 491.976
560 0 50.0306 13.092 655 117.594 1099.07 491.105
561 0 51.1766 13.0528 668 111.507 1099.31 489.707
562 0 51.0935 13.4851 689 112.628 1099.32 489.199
563 0 53.0558 13.4952 716 112.789 1099.82 487.686
564 0 55.1453 12.7119 701 114.595 1099.37 488.668
565 0 57.1906 13.114 750 113.352 1099.38 487.235
566 0 59.0928 13.3519 789 113.895 1100.04 486.489
567 0 62.0567 13.7616 854 113.614 1099.25 485.142
568 0 63.0758 13.3014 839 116.291 1098.92 482.775
569 0 66.1187 13.5816 898 115.361 1098.57 482.831
570 0 69.0413 13.3833 924 116.088 1099.07 483.052
571 0 71.133 13.5802 966 116.577 1099.14 480.593
572 0 74.0837 13.4712 998 116.415 1098.76 480.429
573 0 76.1303 13.7002 1043 117.673 1098.67 476.137
574 0 79.1638 14.0721 1114 116.338 1098.61 477.593
575 0 81.1406 13.606 1104 118.508 1099.09 474.688
576 0 84.0418 13.8621 1165 117.678 1098.41 473.839
577 0 89.0894 14.0758 1254 116.774 1098.97 471.8
578 0 91.0923 13.4479 1225 118.769 1099.14 467.04
579 0 95.1604 12.8205 1220 119.758 1099.25 466.616
580 1 48.0486 10.0939 485 126.687 1098.02 491.221
581 0 51.0609 12.6712 647 120.522 1098.4 490.045
582 0 53.0571 12.7787 678 119.274 1098.43 487.882
583 0 55.0611 13.2035 727 120.847 1098.18 487.589
584 0 56.0918 12.6043 707 123.287 1099.03 487.926
585 0 58.1261 12.4213 722 125.38 1099.15 486.58
586 0 59.1066 12.2152 722 127.108 1098.9 484.816
587 0 61.2844 13.0049 797 124.92 1100.13 483.02
588 0 63.2218 11.8788 751 126.523 1099.91 484.282
589 0 66.3299 12.5434 832 125.198 1100.49 481.135
590 0 68.2094 11.4354 780 127.637 1100.16 481.355
591 0 68.2573 12.9363 883 125.627 1099.82 480.334
592 0 72.1109 12.3005 887 126.943 1099.15 480.487
593 0 74.1194 12.8576 953 126.604 1099.25 476.426
594 0 78.1381 13.1818 1030 124.905 1097.9 474.357
595 0 81.2011 13.1648 1069 123.896 1098.19 475.495
596 0 84.1629 13.2362 1114 125.081 1098.38 471.888
597 0 86.2168 12.225 1054 128.589 1099.71 471.979
598 0 89.3221 12.2478 1094 128.139 1099.3 470.691
599 0 92.2743 13.5249 1248 124.744 1099.88 468.962
600 1 47.0345 11.9062 560 120.47 1101.3 490.404
601 0 48.021 11.8282 568 118.424 1101.38 492.88
602 0 51.0528 12.634 645 116.236 1101.42 489.367
603 0 50.1204 12.3702 620 119.113 1101.37 489.345
604 0 51.1133 12.4821 638 113.082 1101.58 491.42
605 0 51.0557 11.8302 604 115.205 1101.45 490.808
606 0 54.0894 12.4609 674 114.439 1101.13 487.542
607 0 55.1343 12.7688 704 112.71 1100.9 488.912
608 0 58.0345 13.3886 777 111.47 1100.93 487.511
609 0 60.0649 12.6696 761 113.194 1100.72 487.388
610 0 62.1671 12.5951 783 113.972 1100.74 484.471
611 0 67.1456 12.1527 816 113.475 1100.55 483.348
612 0 66.0654 12.2757 811 114.237 1100.46 483.519
613 0 68.2324 11.8272 807 115.746 1100.09 481.514
614 0 71.2536 12.7713 910 113.902 1100.66 481.205
615 0 75.253 13.8732 1044 111.78 1100.42 477.762
616 0 79.1942 11.7054 927 113.989 1100.67 479.646
617 0 83.1731 11.8909 989 109.627 1100.48 476.618
618 0 83.3316 11.2202 935 111.613 1100.45 472.63
619 0 86.2359 11.3642 980 111.149 1100.14 474.422
620 0 91.0722 12.4077 1130 113.558 1100.9 469.981
621 0 95.2841 13.465 1283 112.717 1100.46 466.117
622 1 45.0198 12.2391 551 105.744 1101.98 491.292
623 0 47.048 12.4554 586 105.811 1100.48 493.563
624 0 49.0898 11.6725 573 105.414 1101.28 491.653
625 0 49.0363 12.1951 598 105.881 1101.28 492.395
626 0 51.03 12.4241 634 105.795 1100.57 489.784
627 0 51.0459 11.4799 586 108.114 1100.63 488.976
628 0 55.0542 12.7692 703 104.145 1100.51 488.721
629 0 56.0772 14.4622 811 101.457 1100.23 488.605
630 0 57.0366 13.7631 785 103.874 1097.99 487.581
631 0 60.1364 13.037 784 103.991 1097.97 486.89
632 0 60.1777 12.9949 782 106.207 1098.09 485.235
633 0 63.053 12.5926 794 107.096 1099.26 484.749
634 0 65.1139 13.868 903 105.213 1099.1 484.275
635 0 67.0751 12.4785 837 108.094 1098.96 484.2
636 0 69.1552 12.8985 892 107.7 1098.59 481.823
637 0 72.079 12.2504 883 109.574 1099.21 481.488
638 0 77.0659 13.8583 1068 105.125 1101.66 480.214
639 0 77.0635 12.6 971 112.972 1101.55 479.443
640 0 80.1006 13.2334 1060 108.869 1101.3 479.002
641 1 43.015 11.1589 480 114.892 1101.93 496.115
642 0 43.0254 12.4578 536 110.666 1101.33 496.03
643 0 44.0531 13.5291 596 108.971 1101.72 495.869
644 0 47.0342 14.33 674 104.844 1101.89 494.021
645 0 48.031 13.4913 648 107.19 1101.41 493.427
646 0 48.1116 13.635 656 108.053 1100.77 494.085
647 0 50.0261 13.3331 667 108.706 1101.26 492.999
648 0 52.0248 13.4551 700 107.769 1100.88 492.606
649 0 52.0543 11.757 612 112.922 1100.79 489.894
650 0 54.0323 13.9916 756 106.726 1100.76 490.32
651 0 54.0214 13.6057 735 108.986 1100.31 488.229
652 0 56.0398 13.0086 729 110.576 1100.27 488.588
653 0 59.0551 14.4611 854 106.41 1100.07 487.733
654 0 59.0406 13.1774 778 110.988 1100.37 483.988
655 0 62.0492 12.6351 784 111.159 1100.3 484.503
656 0 65.0723 13.6771 890 108.571 1100.69 484.482
657 0 68.1024 13.9055 947 108.143 1100.32 482.872
658 0 70.0828 14.383 1008 107.299 1099.95 482.025
659 0 73.1261 14.0579 1028 108.546 1099.74 479.464
660 0 75.1769 14.1666 1065 107.937 1099.94 479.331
661 0 77.07 13.637 1051 109.755 1099.41 479.266
662 1 43.0409 12.4533 536 113.103 1099.4 495.532
663 0 44.1583 12.0929 534 113.388 1099.85 494.71
664 0 47.1672 13.1871 622 112.326 1097.09 492.915
665 0 49.0519 13.4347 659 108.115 1097.43 492.801
666 0 50.0182 14.2548 713 105.912 1097.3 492.165
667 0 51.0229 13.2882 678 108.614 1097.42 491.27
668 0 54.0159 14.107 762 106.927 1097.86 491.062
669 0 55.0293 14.0289 772 107.917 1097.56 491.78
670 0 57.0479 14.4265 823 106.858 1097.24 489.784
671 0 57.1174 13.1133 749 111.625 1097.81 489.119
672 0 61.0328 14.4349 881 106.921 1098.1 489.977
673 0 61.0599 15.9843 976 105.381 1098.05 488.13
674 0 64.0644 14.3449 919 109.853 1098.03 487.152
675 0 65.0368 14.8839 968 108.466 1097.73 485.901
676 0 67.0299 15.0828 1011 108.69 1098.49 484.693
677 0 68.093 13.9809 952 112.088 1098.47 483.921
678 0 69.1599 13.7507 951 112.41 1098.21 483.117
679 0 71.1757 12.6729 902 108.335 1099.43 479.855
680 0 75.0937 13.4765 1012 105.959 1099.12 479.577
681 0 79.1274 13.5225 1070 105.308 1099.61 479.107
682 0 79.1315 13.3196 1054 107.091 1099.77 477.046
683 0 82.1415 13.2576 1089 107.62 1099.49 475.642
684 0 84.0965 14.091 1185 106.788 1099.31 472.455
685 0 89.1429 14.1795 1264 106.461 1098.86 470.475
686 0 91.1247 14.6722 1337 106.052 1098.68 469.195
687 0 95.0832 14.2402 1354 107.967 1098.91 469.018
688 0 98.2283 12.2368 1202 112.424 1098.57 468.488
689 1 48.0512 11.6334 559 109.848 1099.09 493.263
690 0 51.0398 13.3229 680 110.594 1098.6 491.457
691 0 53.1912 13.3669 711 111.565 1099.52 488.284
692 0 54.094 14.6042 790 107.753 1099.8 490.29
693 0 57.0862 13.4358 767 110.884 1099.97 489.159
694 0 59.0696 13.6957 809 109.956 1099.01 486.913
695 0 59.0502 12.193 720 115.764 1098.9 487.45
696 0 63.0479 13.8625 874 109.463 1099.39 487.203
697 0 64.157 14.9165 957 107.691 1099.27 485.087
698 0 67.0389 14.0665 943 108.903 1099.45 483.765
699 0 68.0642 12.7674 869 112.656 1098.87 480.517
700 0 71.0911 13.3913 952 111.581 1100.06 481.738
701 0 74.0779 13.5398 1003 112.292 1099.52 479.356
702 0 76.0409 12.3881 942 115.323 1099.63 477.928
703 0 79.1293 12.2963 973 114.963 1100.06 478.209
704 0 81.1164 12.6855 1029 115.382 1099.4 475.973
705 0 84.0769 13.6423 1147 113.198 1099.06 474.734
706 0 87.0519 12.4409 1083 117.652 1099.03 473.14
707 0 89.0451 13.7908 1228 113.787 1099.93 473.282
708 0 94.211 14.6055 1376 112.732 1099.66 471.11
709 0 98.1266 14.5322 1426 113.195 1099.3 467.653
710 0 100.095 13.6969 1371 115.765 1097.73 467.026
711 0 103.124 14.1771 1462 114.787 1098.26 463.689
712 0 107.178 13.5662 1454 115.726 1097.87 461.27
713 1 59.0979 12.0816 714 112.291 1097.77 486.085
714 0 62.0888 12.772 793 109.658 1099.11 486.386
715 0 64.0956 12.809 821 105.435 1100 484.253
716 0 65.1544 12.1864 794 107.752 1100.01 484.361
717 0 68.054 12.4607 848 105.719 1100.08 485.158
718 0 68.054 12.4754 849 125.766 1100.09 485.144
719 0 73.1057 12.7213 930 106.123 1099.92 481.966
720 0 77.1769 12.6981 980 105.961 1100.81 480.802
721 0 77.1118 12.6051 972 108.274 1100.28 479.71
722 0 79.1496 12.2932 973 108.936 1100.49 480.058
723 0 81.2546 13.71 1114 107.34 1100.39 475.222
724 0 88.1381 13.4788 1188 105.926 1100.19 476.045
725 0 88.0841 12.9195 1138 108.975 1099.83 473.434
726 0 93.1651 14.5655 1357 105.274 1099.76 469.569
727 0 96.1554 13.6342 1311 106.852 1099.61 470.882
728 0 98.148 13.5408 1329 108.176 1098.78 467.842
729 0 103.22 13.5729 1401 106.314 1099.23 470.852
730 0 107.199 14.5616 1561 104.778 1099.04 466.138
731 0 109.292 14.3377 1567 105.929 1099.03 464.121
732 1 55.1689 11.7276 647 108.198 1099.56 491.439
733 0 58.1234 13.11 762 105.929 1098.98 488.262
734 0 60.2219 12.8027 771 102.305 1098.12 484.425
735 0 60.2483 12.7638 769 110.189 1098.66 483.618
736 0 64.186 13.975 897 106.381 1099.65 485.227
737 0 65.2245 13.7678 898 106.385 1098.93 486.759
738 0 68.1654 14.0981 961 106.014 1098.95 482.527
739 0 69.2447 14.0516 973 107.183 1099.17 482.146
740 0 75.2858 14.3321 1079 105.136 1099.73 481.096
741 0 74.1923 13.6537 1013 108.95 1099.35 479.667
742 0 78.1398 16.5473 1293 102.443 1099.39 477.811
743 0 78.1322 13.7843 1077 109.383 1099.33 478.507
744 0 81.1794 13.5256 1098 109.556 1099.02 478.079
745 0 84.1986 14.7865 1245 108.658 1098.94 476.244
746 0 88.1948 14.1959 1252 110.462 1098.78 473.292
747 0 92.2774 14.7382 1360 109.47 1098.72 473.095
748 0 93.117 14.4334 1344 111.018 1098.51 470.854
749 0 96.2331 13.8206 1330 111.367 1097.9 470.292
750 0 100.294 14.5771 1462 110.725 1097.86 466.039
751 1 52.1624 10.774 562 112.454 1098.18 490.263
752 0 55.1135 11.4854 633 107.148 1098.22 488.918
753 0 56.1509 13.4815 757 105.219 1098.14 486.968
754 0 61.286 13.4615 825 103.245 1097.98 488.31
755 0 60.1456 12.1538 731 107.135 1099.26 488.795
756 0 62.0602 12.6329 784 104.769 1099.34 485.216
757 0 65.0742 12.1093 788 105.589 1099.53 484.863
758 0 69.1207 14.1636 979 100.26 1099.29 481.865
759 0 70.1603 13.8397 971 103.007 1098.99 477.18
760 0 73.161 13.3131 974 104.314 1099.83 476.505
761 0 74.1663 11.7843 874 107.43 1099.94 476.886
762 0 78.1537 13.8957 1086 104.367 1099.47 474.789
763 0 80.1736 13.4708 1080 106.292 1099.54 475.323
764 0 85.1691 14.2657 1215 106.091 1099.32 473.746
765 0 88.1672 14.0302 1237 108.754 1099.24 472.281
766 0 89.3191 13.9836 1249 107.761 1098.95 471.118
767 0 91.2078 12.6195 1151 108.815 1098.98 469.849
768 0 97.2278 14.1626 1377 105.67 1099.05 468.522
769 0 100.246 13.7063 1374 107.211 1098.64 467.996
770 0 103.141 14.039 1448 111.073 1098.84 466.25
771 0 106.181 14.0044 1487 108.038 1098.71 463.364
772 1 54.2202 13.0394 707 106.958 1098.79 490.079
773 0 54.2266 12.835 696 110.461 1098.24 487.736
774 0 58.2123 12.1796 709 115.353 1099.21 487.056
775 0 60.0712 12.9846 780 114.423 1099.39 486.588
776 0 61.1355 13.1675 805 114.43 1099.09 485.086
777 0 66.2781 14.0167 929 111.199 1099.81 484.012
778 0 67.1075 13.5901 912 114.654 1099.73 482.485
779 0 69.2088 13.611 942 115.127 1099.52 482.893
780 0 71.1704 13.0391 928 117.089 1100.05 482.651
781 0 74.3125 14.8831 1106 113.796 1099.63 480.442
782 0 73.1351 12.9486 947 120.793 1100.05 479.473
783 0 78.3572 14.3573 1125 117.537 1099.52 478.082
784 0 81.2859 14.6151 1188 118.177 1099.96 476.453
785 0 85.2648 14.9886 1278 117.103 1099.78 474.563
786 0 86.2419 13.8448 1194 122.265 1100.11 474.236
787 0 89.1492 14.515 1294 121.713 1099.71 472.229
788 0 92.2742 14.587 1346 122.272 1100.12 471.984
789 0 97.2526 16.2052 1576 118.435 1099.47 469.041
790 0 100.206 14.8894 1492 122.981 1099.35 466.328
791 0 102.278 13.9619 1428 125.967 1099.77 466.43
792 0 107.467 14.3765 1545 125.159 1098.96 461.97
793 0 112.481 15.4248 1735 121.353 1099.24 461.16
794 0 115.323 15.2701 1761 122.019 1099.05 460.592
795 1 61.2059 12.9563 793 126.641 1100.28 486.588
796 0 65.1184 14.1281 920 121.511 1100.56 484.561
797 0 69.26 14.2073 984 120.952 1100.15 484.173
798 0 70.173 14.5212 1019 121.46 1100.06 480.612
799 0 73.2021 14.2209 1041 122.397 1100.74 481.162
800 0 75.1829 14.4581 1087 122.998 1100.66 478.81
801 0 78.2306 14.6746 1148 121.563 1100.91 478.213
802 0 81.2859 14.898 1211 122.274 1101.06 474.667
803 0 84.267 14.8101 1248 121.732 1101.29 474.717
804 0 86.1206 14.3752 1238 123.665 1100.85 472.662
805 0 90.2461 15.7902 1425 119.553 1101.17 472.791
806 0 92.1687 14.5711 1343 123.651 1100.11 470.433
807 0 98.3018 15.2795 1502 120.029 1100.34 468.82
808 0 102.34 15.6634 1603 119.158 1100.45 466.8
809 0 106.157 15.6937 1666 118.674 1099.97 465.711
810 0 108.263 15.8872 1720 117.944 1099.56 466.21
811 0 112.345 15.7996 1775 118.283 1100.11 462.309
812 0 116.172 15.2618 1773 119.259 1099.85 457.365
813 1 63.0849 14.0604 887 125 1100.12 484.319
814 0 65.1339 14.4011 938 126.015 1100.22 482.111
815 0 66.1633 13.6178 901 128.396 1099.33 482.496
816 0 71.2098 14.352 1022 125.094 1099.43 480.906
817 0 72.2252 14.261 1030 126.066 1099.65 481.49
818 0 76.1423 14.7224 1121 125.604 1099.31 478.591
819 0 76.1147 14.4387 1099 130.468 1100.11 476.553
820 0 80.2103 14.8983 1195 128.951 1099.67 477.472
821 0 83.1922 14.196 1181 132.737 1100.3 473.815
822 0 85.2111 14.1766 1208 133.564 1100.28 472.677
823 0 87.0874 14.3534 1250 133.499 1099.95 471.626
824 0 93.1801 14.8208 1381 131.808 1100.35 470.476
825 0 95.2575 15.5998 1486 131.412 1100.07 468.231
826 0 98.1491 14.7531 1448 135.292 1099.42 466.905
827 0 101.198 15.2967 1548 133.926 1099.21 464.599
828 0 103.176 14.674 1514 136.751 1099.8 463.002
829 0 109.217 15.5837 1702 133.169 1099.48 462.229
830 0 111.187 16.153 1796 134.208 1099.73 458.966
831 0 114.133 15.8149 1805 134.802 1099.34 459.135
832 0 118.163 15.6309 1847 135.252 1099.05 456.684
833 0 125.109 15.4585 1934 134.52 1099.12 453.75
834 0 127.309 14.6808 1869 139.012 1098.8 448.717
835 0 132.138 15.5595 2056 135.082 1099.13 445.022
836 0 135.229 15.0781 2039 133.683 1099.38 446.999
837 0 139.224 14.3295 1995 136.07 1099.69 442.91
838 1 78.1096 12.5849 983 133.411 1099.89 472.436
839 0 81.1076 12.4649 1011 135.778 1099.61 469.722
840 0 83.1367 12.714 1057 133.757 1099.82 469.4
841 0 87.0684 13.6215 1186 133.694 1099.13 467.428
842 0 89.1912 12.9609 1156 135.473 1098.99 464.707
843 0 94.1646 13.8799 1307 130.968 1098.44 466.953
844 0 97.2345 13.2772 1291 135.553 1098.89 461.526
845 0 101.292 13.0711 1324 135.232 1098.37 460.314
846 0 104.245 13.4204 1399 135.883 1098.31 456.66
847 0 107.176 13.1279 1407 137.338 1098.8 457.148
848 0 108.177 13.025 1409 138.538 1098.09 453.659
849 0 113.281 13.1708 1492 136.847 1097.52 453.474
850 0 116.279 12.685 1475 139.462 1097.88 448.04
851 0 119.242 11.8247 1410 143.35 1097.32 444.387
852 0 127.365 13.269 1690 139.951 1097.99 445.121
853 1 70.2475 9.39535 660 127.695 1098.17 477.359
854 0 76.1346 10.731 817 122.545 1098.1 476.919
855 0 76.1543 10.2686 782 118.601 1098.6 476.723
856 0 80.1218 9.90991 794 118.025 1098.68 477.725
857 0 82.2128 10.2904 846 117.535 1098.56 475.773
858 0 84.3306 9.80664 827 120.06 1098.23 474.235
859 0 84.1512 10.5524 888 121.032 1098.12 471.949
860 0 89.1125 10.8851 970 119.992 1098.25 471.079
861 0 91.2241 10.8085 986 121.334 1098.1 467.939
862 0 93.1265 11.1139 1035 123.113 1098.29 465.415
863 0 96.1499 10.8893 1047 122.18 1097.95 465.982
864 0 101.18 11.1879 1132 121.181 1097.83 465.784
865 0 104.155 12.2125 1272 119.489 1098.07 460.477
866 0 108.265 11.5273 1248 120.869 1097.94 459.614
867 1 59.1972 9.08827 538 122.061 1099.15 484.375
868 0 62.0601 10.5221 653 119.433 1098.85 482.87
869 0 62.1476 10.9739 682 111.655 1099.41 483.787
870 0 62.1379 10.6537 662 113.761 1098.36 482.77
871 0 63.0812 10.2091 644 114.399 1098.11 481.804
872 0 66.1084 9.80209 648 114.517 1098.03 482.168
873 0 68.0853 10.1637 692 113.919 1098.09 481.396
874 0 72.0627 10.2688 740 112.222 1098.35 479.161
875 0 73.0135 11.3678 830 110.208 1098.48 478.481
876 0 75.0634 10.7642 808 111.387 1097.73 476.325
877 0 78.0853 10.6422 831 110.12 1098.4 474.621
878 0 78.0471 9.17395 716 113.356 1097.97 476.676
879 0 83.1336 10.5733 879 110.559 1097.29 471.766
880 0 83.1295 9.38295 780 113.822 1097.94 473.697
881 0 89.1305 9.79462 873 112.977 1098.4 470.548
882 0 91.3684 10.5616 965 111.392 1098.49 472.476
883 0 92.2263 9.41163 868 114.745 1098.73 468.211
884 0 95.1461 10.2054 971 113.315 1098.57 464.988
885 0 98.0934 10.3473 1015 112.341 1097.88 468.219
886 0 101.186 10.3967 1052 113.518 1097.6 464.542
887 0 104.114 10.7863 1123 113.694 1097.92 463.066
888 0 108.159 9.80962 1061 115.022 1098.59 458.906
889 1 58.1324 10.3729 603 112.605 1098 483.629
890 0 61.1856 10.46 640 108.798 1096.31 482.902
891 0 66.1964 11.2997 748 106.722 1096.9 483.417
892 0 69.1962 12.544 868 102.993 1097.03 479.365
893 0 71.072 12.1708 865 104.787 1097.05 481.296
894 0 72.1398 12.6005 909 103.796 1097.77 479.263
895 0 74.1132 12.3055 912 105.568 1097.36 476.956
896 0 77.1657 13.2054 1019 105.357 1097.16 475.398
897 0 79.1243 11.7031 926 109.324 1097.85 473.82
898 0 82.155 14.2536 1171 103.431 1097.63 474.544
899 0 84.1523 13.8796 1168 105.85 1097.7 472.997
900 0 86.1476 12.9777 1118 108.263 1097.49 472.742
901 0 88.2716 12.6088 1113 110.031 1097.23 473.063
902 0 92.1573 13.2274 1219 109.751 1098.08 469.59
903 0 94.0572 14.4168 1356 107.799 1097.89 470.01
904 0 98.0759 13.306 1305 111.788 1098.04 468.893
905 1 51.0645 11.6911 597 112.121 1097.26 492.146
906 0 49.0524 10.499 515 118.602 1097.27 491.035
907 0 53.0515 11.2532 597 118.345 1097.08 489.898
908 0 56.1589 13.1591 739 108.704 1097.33 486.985
909 0 58.153 13.2753 772 107.736 1097.09 485.487
910 0 57.1356 12.5316 716 111.633 1097.37 485.447
911 0 60.1006 12.7453 766 110.234 1096.71 482.842
912 0 61.1241 13.0227 796 109.984 1098.06 484.616
913 0 63.0687 12.3199 777 110.23 1099.34 483.746
914 0 64.0618 12.9094 827 109.771 1099.56 481.726
915 0 67.093 13.0118 873 108.801 1100.15 481.54
916 0 67.2033 13.0202 875 109.591 1100.09 480.565
917 0 72.1613 13.3728 965 107.287 1099.44 479.721
918 0 75.2079 13.6422 1026 107.62 1099.88 476.166
919 0 76.2152 13.2388 1009 108.904 1099.89 477.294
920 0 78.1693 12.2682 959 112.133 1099.36 475.151
921 0 79.0855 12.2146 966 113.21 1099.35 473.71
922 0 84.1547 12.4414 1047 120.968 1098.75 474.931
923 0 86.4685 12.2357 1058 122.94 1099.92 473.251
924 0 89.4645 12.7648 1142 122.349 1099.77 470.13
925 1 47.1937 10.8277 511 117.151 1100.53 491.677
926 0 47.0217 11.3139 532 115.515 1100.39 491.321
927 0 49.1149 11.5851 569 113.19 1099.63 489.898
928 0 52.1306 12.4303 648 108.707 1100.01 490.795
929 0 51.0495 12.2626 626 109.949 1100.11 490.187
930 0 52.1844 11.2103 585 113.056 1099.91 486.723
931 0 55.0832 12.4357 685 110.396 1099.89 485.315
932 0 55.0592 11.9508 658 112.35 1099.56 487.485
933 0 58.1164 13.6966 796 107.967 1099.68 486.423
934 0 60.034 13.1259 788 108.796 1099.76 486.027
935 0 61.0961 12.6522 773 110.758 1099.58 483.942
936 0 63.1441 12.5586 793 112.289 1099.58 484.465
937 0 64.0818 13.4516 862 110.704 1099.38 481.075
938 0 65.1004 13.5176 880 112.151 1099.81 482.201
939 0 68.0866 12.9541 882 113.005 1099.6 481.061
940 0 69.1507 12.0028 830 115.53 1099.86 478.993
941 0 74.1016 12.7258 943 112.724 1099.53 477.791
942 0 74.1475 12.4482 923 114.431 1099.57 475.345
943 0 79.0968 14.5771 1153 110.122 1099.61 476.568
944 0 79.2264 12.8366 1017 115.078 1099.67 477.124
945 0 84.2657 14.3356 1208 112.741 1099.36 474.127
946 0 86.4401 15.0162 1298 112.003 1099.66 472.831
947 0 89.1919 14.2278 1269 114.899 1099.4 469.644
948 0 88.267 12.3262 1088 121.96 1099.07 469.314
949 0 94.1073 14.1115 1328 116.566 1099.08 468.641
950 1 50.0973 12.5156 627 116.11 1099.39 489.351
951 0 54.254 11.7964 640 118.728 1099.07 487.684
952 0 52.2345 11.1038 580 119.074 1098.94 487.931
953 0 58.2001 13.4192 781 112.047 1098.64 489.35
954 0 57.2298 11.0432 632 109.226 1099.07 489.793
955 0 59.0776 12.6105 745 105.686 1099.01 487.583
956 0 60.1602 13.2646 798 105.649 1099.57 485.133
957 0 59.2046 11.8403 701 111.481 1099.79 483.973
958 0 63.2592 11.6189 735 111.242 1098.96 482.921
959 0 65.1935 11.8724 774 110.824 1099.28 482.401
960 0 65.1502 11.7114 763 111.482 1099.41 483.111
961 0 69.3729 12.4833 866 111.376 1098.82 481.07
962 0 74.0757 12.3792 917 107.96 1099.41 478.951
963 0 75.1909 11.637 875 108.634 1099.73 479.346
964 0 77.0904 11.5579 891 110.512 1099.96 475.471
965 0 79.2437 13.1998 1046 108.26 1099.54 475.78
966 0 81.1335 11.5242 935 112.106 1099.7 475.027
967 0 83.166 11.8558 986 111.524 1100.04 472.289
968 0 87.1238 12.1551 1059 110.255 1099.57 472.968
969 0 89.2496 11.6079 1036 111.403 1099.31 474.174
970 0 92.1537 12.8807 1187 110.324 1099.29 467.753
971 0 96.1374 12.8358 1234 109.999 1099.09 468.594
972 0 98.2138 12.819 1259 110.396 1098.62 462.629
973 0 103.14 12.7884 1319 110.321 1098.55 464.229
974 0 105.166 12.2283 1286 111.41 1098.84 461.138
975 0 107.247 12.2148 1310 111.16 1099.19 462.744
976 0 112.241 13.4888 1514 109.668 1098.9 458.236
977 0 117.181 12.2716 1438 113.249 1099.22 456.703
978 1 65.2138 11.3933 743 109.141 1099.46 480.878
979 0 66.1269 11.5384 763 107.984 1100.07 480.519
980 0 67.2154 12.4674 838 107.036 1100.03 481.124
981 0 70.2779 12.7921 899 108.304 1099.57 479.544
982 0 71.1672 11.8453 843 111.2 1099.61 477.633
983 0 75.205 13.8555 1042 106.616 1099.22 476.191
984 0 79.1867 13.4997 1069 107.859 1098.91 473.704
985 0 81.3027 14.0094 1139 113.336 1099.15 474.061
986 0 84.3889 12.8097 1081 115.9 1098.91 471.689
987 0 87.2865 11.9721 1045 117.776 1099.36 470.916
988 0 90.136 13.0026 1172 107.869 1100.17 468.055
989 0 92.1343 12.5795 1159 109.55 1099.81 465.155
990 0 96.2267 12.9382 1245 109.075 1099.78 466.271
991 0 100.187 12.2172 1224 110.181 1099.86 465.76
992 0 104.25 12.3454 1287 109.915 1099.61 465.223
993 1 58.1391 11.4381 665 109.224 1100.07 489.179
994 0 61.1115 13.4672 823 108.095 1099.7 485.03
995 0 63.167 13.8363 874 108.173 1099.45 484.137
996 0 61.0854 11.2793 689 110.216 1100.08 484.642
997 0 66.1713 13.1477 870 104.718 1100.06 481.023
998 0 68.067 13.9568 950 104.015 1099.79 480.821
999 0 70.0463 12.8629 901 106.549 1099.87 478.941
1000 0 72.0904 13.4137 967 104.573 1099.67 480.608
1001 0 75.187 13.4465 1011 104.09 1100 477.784
1002 0 75.1317 12.0056 902 107.163 1099.72 477.774
1003 0 79.0763 12.861 1017 106.145 1099.75 475.299
1004 0 81.1379 13.1751 1069 106.319 1099.87 475.007
1005 0 84.1225 12.7314 1071 107.086 1100.08 473.542
1006 0 87.3109 13.0912 1143 106.956 1100.46 470.687
1007 0 89.1194 12.5225 1116 108.935 1099.53 471.237
1008 0 92.1733 13.7567 1268 106.514 1099.8 468.948
1009 0 95.1929 13.4359 1279 107.091 1099.71 468.575
1010 0 98.3268 13.0483 1283 108.263 1099.58 467.913
1011 1 51.0435 11.2453 574 117.599 1098.87 488.855
1012 0 55.1467 12.2038 673 112.663 1100.08 489.259
1013 0 57.1119 12.4142 709 108.148 1099.94 487.226
1014 0 57.1186 12.0626 689 110.251 1099.48 486.586
1015 0 60.1106 12.3606 743 108.635 1099.88 485.016
1016 0 61.2016 14.1663 867 105.458 1099.46 483.472
1017 0 62.058 13.6002 844 107.744 1099.96 481.21
1018 0 63.075 12.5089 789 110.288 1099.53 480.911
1019 0 66.1201 13.3091 880 107.786 1099.75 482.312
1020 0 68.1348 13.2238 901 108.378 1099.94 480.287
1021 0 73.1002 13.5431 990 107 1099.62 478.571
1022 0 75.1114 13.2337 994 108.298 1099.9 475.911
1023 0 75.1218 14.5231 1091 106.951 1099.85 474.561
1024 0 79.0989 14.2353 1126 107.345 1099.73 475.815
1025 0 79.1377 13.4828 1067 109.578 1099.87 473.308
1026 0 82.2371 14.142 1163 108.562 1100.11 472.721
1027 0 84.2176 13.8807 1169 109.612 1099.89 472.199
1028 0 88.2523 13.9826 1234 109.954 1099.89 470.68
1029 0 90.0961 14.6066 1316 109.33 1099.77 468.022
1030 0 93.2537 14.0799 1313 110.078 1099.56 468.57
1031 0 98.2006 14.3991 1414 108.912 1099.6 467.699
1032 0 99.1056 14.2272 1410 112.164 1098.84 466.009
1033 0 102.216 13.6182 1392 113.664 1099.5 462.149
1034 0 105.265 14.7058 1548 111.079 1099.23 460.132
1035 0 107.268 14.7854 1586 112.696 1098.7 461.482
1036 0 111.175 14.8055 1646 112.742 1098.4 457.536
1037 0 116.264 14.9745 1741 111.959 1098.77 456.757
1038 0 118.311 13.7096 1622 115.232 1098.95 451.543
1039 1 62.1296 9.81818 610 110.141 1098.98 472.464
1040 0 68.1049 10.2929 701 102.591 1099.83 477.772
1041 0 70.2563 11.1591 784 100.685 1099 478.848
1042 0 70.1598 11.6591 818 101.518 1099.5 475.205
1043 0 75.1593 12.2141 918 98.9303 1099.16 475.359
1044 0 78.2482 12.1536 951 99.7108 1099.04 474.948
1045 0 79.1272 12.7769 1011 99.8546 1099.5 473.834
1046 0 82.1141 13.262 1089 100.005 1099.57 470.217
1047 0 86.2339 13.1271 1132 99.4779 1100.28 472.027
1048 0 89.3566 12.7914 1143 100.15 1099.06 470.759
1049 0 88.3414 12.1913 1077 103.376 1099.32 466.344
1050 0 94.1627 14.1988 1337 98.4188 1098.93 468.548
1051 0 95.1755 13.2492 1261 102.201 1099.57 465.104
1052 0 97.2202 12.4563 1211 104.467 1099.63 465.33
1053 0 104.212 12.2442 1276 102.516 1100.05 464.147
1054 0 108.09 12.1103 1309 104.028 1099.52 460.999
1055 0 106.201 12.2786 1304 106.774 1098.88 458.135
1056 0 113.203 12.323 1395 105.325 1098.73 453.67
1057 0 116.143 12.5276 1455 105.919 1098.54 452.841
1058 0 120.167 13.1068 1575 104.329 1098.82 453.379
1059 1 64.2769 9.38128 603 100.342 1099.11 483.436
1060 0 67.1559 11.5999 779 98.7356 1099.41 478.311
1061 0 68.2456 11.0337 753 98.4529 1098.67 480.672
1062 0 69.2234 11.5134 797 98.1819 1098.74 475.418
1063 0 72.2179 12.8638 929 96.4177 1098.89 476.95
1064 0 74.3015 12.2339 909 97.6359 1099.48 475.398
1065 0 76.1746 11.6837 890 99.2539 1098.83 474.757
1066 0 78.2556 11.3347 887 100.567 1098.74 470.572
1067 0 82.2405 13.1809 1084 96.6338 1099.7 472.932
1068 0 81.3233 11.6941 951 100.544 1099.59 471.613
1069 0 86.3092 12.6754 1094 99.1572 1099.57 468.123
1070 0 91.2087 13.3759 1220 98.0303 1100.32 468.411
1071 0 93.2539 13.3721 1247 98.3007 1099.18 468.497
1072 0 96.3427 13.3897 1290 98.9992 1098.77 460.443
1073 0 101.352 13.0535 1323 99.5215 1099.09 463.102
1074 0 101.171 12.0588 1220 103.911 1098.16 456.341
1075 0 105.13 13.2787 1396 101.895 1098.92 456.543
1076 0 109.314 13.8318 1512 101.188 1099.01 457.142
1077 0 112.152 13.339 1496 103.275 1098.54 452.703
1078 0 114.106 13.3297 1521 103.266 1098.06 457.106
1079 0 118.26 13.6394 1613 105.959 1098.55 454.099
1080 0 123.17 13.6641 1683 106.998 1099.25 450.57
1081 1 62.091 9.35723 581 103.664 1099.43 482.713
1082 0 64.1371 11.1324 714 104.947 1098.86 483.637
1083 0 69.3026 11.457 794 106.377 1098.73 480.441
1084 0 72.1831 10.8474 783 101.974 1099.33 480.691
1085 0 71.1325 12.9477 921 100.813 1098.74 477.183
1086 0 73.1215 12.8553 940 102.54 1098.96 476.214
1087 0 77.2939 11.3075 874 105.802 1099.34 475.843
1088 0 79.1693 12.4922 989 104.621 1099.22 475.327
1089 0 84.3972 12.6781 1070 103.53 1099.52 474.996
1090 0 85.3987 13.115 1120 105.828 1099.23 471.007
1091 0 85.5502 12.0397 1030 109.768 1099.59 471.043
1092 0 88.524 13.1829 1167 108.608 1099.18 467.75
1093 0 90.5165 13.3235 1206 109.812 1098.99 466.513
1094 0 93.7599 14.3878 1349 109.922 1099.02 464.289
1095 0 95.6778 14.1203 1351 110.841 1098.38 464.323
1096 0 99.1958 14.547 1443 123.373 1097.96 466.056
1097 0 101.236 15.0144 1520 122.091 1098.76 467.37
1098 0 101.281 13.6354 1381 128.535 1098.93 462.821
1099 0 105.205 14.0583 1479 128.245 1098.57 460.861
1100 0 108.286 14.8958 1613 124.807 1099.19 461.079
1101 0 110.193 15.6181 1721 125.749 1098.9 455.239
1102 0 114.285 15.9339 1821 117.783 1099.43 456.635
1103 0 116.201 14.604 1697 122.001 1099.1 455.413
1104 0 119.179 14.7929 1763 123.263 1099.5 452.795
1105 0 124.2 14.5974 1813 124.467 1099.08 449.052
1106 0 128.213 15.5912 1999 121.935 1099 447.398
1107 0 132.184 15.9475 2108 122.611 1098.75 443.231
1108 0 136.213 15.1674 2066 125.076 1099.93 440.583
1109 0 141.179 15.2359 2151 124.939 1099.29 438.573
1110 1 74.1849 12.024 892 131.138 1099.31 475.342
1111 0 77.2909 14.2061 1098 125.726 1099.19 472.302
1112 0 79.1673 13.7304 1087 128.19 1098.89 471.644
1113 0 78.3434 13.0579 1023 133.152 1099.19 469.654
1114 0 84.2777 15.5083 1307 124.245 1099.18 469.263
1115 0 85.2291 14.7368 1256 127.084 1099.62 468.482
1116 0 88.1948 14.8535 1310 127.169 1099.27 465.745
1117 0 89.3034 14.4563 1291 129.67 1098.93 465.195
1118 0 90.2851 13.1805 1190 135.073 1099.14 463.648
1119 0 90.1459 13.0677 1178 138.086 1099.16 465.443
1120 0 95.2517 13.2071 1258 137.803 1099.29 462.917
1121 0 98.2408 13.5076 1327 137.547 1099.57 461.273
1122 0 99.4232 12.8743 1280 138.948 1098.93 463.105
1123 0 104.206 13.7708 1435 138.609 1099.25 458.246
1124 0 109.258 15.1568 1656 133.923 1098.64 456.325
1125 0 110.285 13.4289 1481 141.287 1099.01 454.358
1126 0 114.194 13.4508 1536 140.775 1098.98 454.447
1127 0 117.317 13.6468 1601 141.804 1098.87 450.775
1128 0 121.327 13.7314 1666 141.758 1099.66 450.004
1129 0 126.428 13.6204 1722 143.138 1099.04 447.647
1130 0 130.449 14.1051 1840 142.298 1099.44 447.359
1131 0 133.252 13.5382 1804 146.976 1099.47 442.63
1132 0 138.312 13.3611 1848 147.268 1098.85 442.808
1133 0 144.454 13.4022 1936 148.45 1098.95 439.034
1134 1 63.39 11.3109 717 142.19 1099.61 481.381
1135 0 62.4522 12.5056 781 144.393 1098.98 477.722
1136 0 65.447 12.2542 802 137.243 1099.15 478.855
1137 0 68.5797 12.9484 888 133.643 1099.24 476.788
1138 0 68.285 12.6968 867 138.193 1099.01 476.675
1139 0 70.4055 13.0245 917 139.195 1098.96 474.372
1140 0 73.6339 12.3177 907 142.275 1099.02 473.458
1141 0 76.4603 13.5364 1035 139.187 1098.9 473.747
1142 0 77.5752 13.9349 1081 141.238 1098.49 471.119
1143 0 77.2629 13.0852 1011 152.114 1098.48 473.829
1144 0 82.4568 13.9467 1150 142.538 1098.51 469.116
1145 0 86.2397 13.4857 1163 146.714 1098.25 470.202
1146 0 88.3205 13.6095 1202 147.041 1097.84 467.832
1147 0 88.5413 13.8466 1226 147.123 1098.28 463.669
1148 0 93.5503 14.078 1317 144.686 1098.25 462.557
1149 0 98.4771 13.5666 1336 145.648 1097.47 459.825
1150 0 101.532 13.4441 1365 145.502 1097.37 458.524
1151 1 60.318 10.5939 639 146.862 1097.94 480.549
1152 0 61.2821 11.2757 691 138.844 1098.04 480.208
1153 0 67.0707 12.0172 806 136.171 1098.61 476.032
1154 0 68.1295 12.3295 840 135.548 1098.53 472.787
1155 0 70.1005 12.4535 873 135.415 1098.46 471.337
1156 0 70.1593 11.9157 836 138.623 1098.41 469.925
1157 0 73.1605 11.632 851 128.756 1097.68 475.904
1158 0 75.0914 12.1319 911 127.622 1098.08 474.517
1159 0 75.2862 11.9809 902 129.559 1097.37 472.606
1160 0 80.2766 13.005 1044 128.257 1097.86 471.134
1161 0 81.2177 13.0021 1056 129.241 1097.87 470.735
1162 0 84.2198 13.2867 1119 130.299 1097.96 469.898
1163 0 87.1431 13.0705 1139 130.716 1097.68 467.711
1164 0 88.0823 13.2944 1171 133.285 1097.79 470.096
1165 0 90.1693 13.2861 1198 143.796 1098.22 467.361
1166 0 95.1511 12.9583 1233 142.428 1098.12 466.624
1167 0 94.1577 12.9039 1215 145.774 1098.19 461.213
1168 0 99.2274 13.0105 1291 140.93 1098.89 462.261
1169 0 103.236 14.1617 1462 136.694 1098.69 459.507
1170 0 105.113 13.0907 1376 139.353 1099.22 460.194
1171 0 110.195 14.2656 1572 135.338 1099.42 455.354
1172 1 57.0963 9.24754 528 132.14 1099.07 482.911
1173 0 60.0765 10.7696 647 127.794 1098.49 481.597
1174 0 62.0735 10.6648 662 125.952 1098.9 481.024
1175 0 64.2444 10.4756 673 122.26 1099.23 480.27
1176 0 65.1058 11.3508 739 123.528 1098.24 477.149
1177 0 68.1142 10.776 734 124.132 1098.72 476.661
1178 0 71.0276 9.22177 655 127.281 1098.45 474.835
1179 0 73.1121 10.9558 801 122.831 1098.84 476.752
1180 0 74.1234 9.44371 700 126.753 1099.44 477.249
1181 0 78.2288 11.5303 902 121.892 1098.94 475.145
1182 0 80.1663 11.7755 944 123.335 1098.87 473.052
1183 0 81.3135 10.81 879 126.063 1098.75 471.678
1184 0 84.2372 10.6604 898 126.219 1098.69 471.41
1185 0 85.2283 11.3577 968 126.917 1098.71 467.782
1186 0 87.1228 12.4881 1088 126.329 1098.41 467.986
1187 0 88.0926 12.0896 1065 129.039 1099.2 466.251
1188 0 91.1126 13.1486 1198 126.346 1098.67 466.705
1189 0 91.196 11.2066 1022 131.158 1098.32 466.185
1190 0 94.1219 11.7401 1105 131.612 1098.36 466.638
1191 0 99.2018 12.1671 1207 130.513 1098.62 463.066
1192 0 100.243 12.749 1278 129.87 1098.28 460.653
1193 0 103.156 13.6008 1403 127.801 1098.06 461.54
1194 0 106.27 12.3741 1315 130.679 1098.25 460.323
1195 0 109.271 12.2906 1343 133.635 1098.35 455.587
1196 0 112.164 12.3035 1380 133.987 1098.44 459.653
1197 0 116.253 12.2061 1419 134.159 1098.12 453.416
1198 0 120.159 12.6748 1523 131.353 1097.66 451.219
1199 0 124.405 12.7648 1588 130.178 1098.44 447.487
1200 0 128.373 12.3001 1579 131.472 1098.3 447.189
1201 0 135.209 12.2551 1657 128.716 1098.65 446.41
1202 1 74.3044 10.4032 773 124.853 1098.13 475.574
1203 0 80.1298 11.3067 906 120.967 1098.26 470.347
1204 0 82.1698 9.73594 800 125.335 1097.94 467.328
1205 0 86.1959 11.9843 1033 119.576 1097.85 467.973
1206 0 86.0451 10.2504 882 126.152 1096.46 463.765
1207 0 89.1121 11.2779 1005 123.402 1097.21 466.796
1208 0 92.0906 12.4008 1142 120.947 1097.46 464.15
1209 0 95.338 11.6847 1114 123.788 1099.4 463.692
1210 0 97.2651 12.5842 1224 122.306 1099.66 463.796
1211 0 101.28 13.1022 1327 121.165 1099.93 461.33
1212 0 104.198 13.1384 1369 121.625 1099.98 461.056
1213 0 104.15 13.0773 1362 123.702 1099.9 459.347
1214 0 108.42 13.1986 1431 122.909 1099.57 459.364
1215 0 111.157 13.0806 1454 125.422 1099.11 454.546
1216 0 114.058 13.0635 1490 124.542 1099.3 456.04
1217 0 114.263 12.1649 1390 128.932 1098.59 454.736
1218 0 119.105 12.3588 1472 130.143 1099.11 452.8
1219 0 125.339 13.8744 1739 125.254 1098.92 452.42
1220 0 128.335 12.9661 1664 128.227 1098.81 444.489
1221 0 132.251 14.1776 1875 125.059 1098.95 442.915
1222 0 134.252 14.1898 1905 126.398 1098.42 438.315
1223 0 143.344 13.485 1933 125.891 1098.14 441.14
1224 0 145.272 13.609 1977 130.36 1098.52 436.644
1225 1 80.2519 11.5761 929 121.92 1098.11 470.004
1226 0 82.1927 10.0739 828 123.275 1097.79 469.469
1227 0 83.0575 11.1007 922 119.899 1099.17 472.434
1228 0 87.0741 11.9094 1037 117.782 1099.48 471.838
1229 0 88.1387 12.3215 1086 118.158 1099.48 468.518
1230 0 91.1325 11.3571 1035 119.977 1099.52 467.603
1231 0 94.0694 11.8848 1118 119.221 1098.87 467.631
1232 0 97.0933 12.4313 1207 119.225 1099.22 465.044
1233 0 102.091 13.0178 1329 118.599 1099.42 464.008
1234 0 102.156 13.2542 1354 119.709 1097.81 461.645
1235 0 105.158 13.3609 1405 120.038 1097.8 460.063
1236 0 107.12 12.4346 1332 123.378 1098 458.654
1237 0 111.247 11.6498 1296 124.383 1097.44 457.338
1238 0 115.208 12.803 1475 122.738 1097.84 456.269
1239 0 121.156 13.3464 1617 121.307 1097.83 454.629
1240 0 125.156 12.0889 1513 124.453 1098.22 453.489
1241 0 129.24 12.2795 1587 126.322 1097.91 446.17
1242 1 67.0292 10.8162 725 117.381 1098.85 479.759
1243 0 73.0864 12.5878 920 119.908 1099.3 476.33
1244 0 74.1866 13.1021 972 116.935 1096.85 475.075
1245 0 78.0415 12.2115 953 110.537 1098.47 477.781
1246 0 78.0491 11.8003 921 112.039 1099.25 478.113
1247 0 82.0918 12.3764 1016 111.494 1098.93 473.125
1248 0 85.0808 11.8593 1009 112.801 1098.23 473.445
1249 0 86.0802 11.5125 991 114.215 1098.63 469.053
1250 0 88.0656 11.9116 1049 115.128 1098.45 467.738
1251 0 90.2535 12.6754 1144 113.531 1098.8 467.12
1252 0 92.2365 12.3595 1140 115.51 1098.53 466.008
1253 0 96.1067 12.663 1217 114.742 1098.6 466.611
1254 0 97.1017 12.2964 1194 116.755 1098.94 465.693
1255 0 99.1623 13.2107 1310 115.622 1099.2 462.331
1256 0 102.231 13.5673 1387 115.37 1098.4 459.769
1257 0 105.151 13.7517 1446 115.91 1098.29 459.405
1258 0 108.206 14.0288 1518 119.824 1098.26 460.65
1259 0 110.067 11.0388 1215 127.384 1098.27 459.403
1260 0 116.101 11.5503 1341 124.902 1097.79 459.056
1261 1 60.0834 11.0513 664 119.328 1097.58 482.511
1262 0 64.0236 13.3701 856 115.761 1098.44 482.329
1263 0 65.023 12.0727 785 123.884 1098.01 480.268
1264 0 68.0844 13.028 887 111.94 1097.71 483.51
1265 0 69.1066 12.5748 869 114.009 1098.65 478.399
1266 0 70.061 13.0172 912 114.4 1098.58 476.471
1267 0 75.1033 13.1818 990 113.402 1097.96 475.147
1268 0 77.0239 13.3725 1030 113.801 1098.54 474.02
1269 0 79.0762 13.5945 1075 113.678 1098.93 472.268
1270 0 83.0683 14.6024 1213 111.048 1098.62 472.704
1271 0 84.1474 13.5714 1142 114.983 1097.69 468.763
1272 0 87.0907 13.7673 1199 116.089 1098.43 470.888
1273 0 90.0741 13.8886 1251 116.817 1098.53 468.888
1274 0 93.0906 16.1133 1500 113.161 1098.48 464.424
1275 0 97.1413 14.1341 1373 123.567 1098.55 464.383
1276 0 98.179 14.5856 1432 124.925 1097.99 462.215
1277 0 103.262 14.3905 1486 125.437 1098.26 459.735
1278 0 106.171 15.3338 1628 124.991 1097.9 457.197
1279 0 111.223 14.7092 1636 126.213 1097.79 456.661
1280 1 55.0687 13.0019 716 129.034 1098.47 483.296
1281 0 57.0402 12.7805 729 129.561 1099.1 483.224
1282 0 59.1871 13.9389 825 128.463 1098.4 480.856
1283 0 62.2048 14.0986 877 127.405 1098.77 480.758
1284 0 64.1809 13.945 895 127.322 1099 480.568
1285 0 64.1576 14.5423 933 127.949 1099.07 478.23
1286 0 66.1425 14.4536 956 127.902 1099.28 479.54
1287 0 69.3972 14.7989 1027 127.269 1098.99 479.185
1288 0 71.1344 14.3391 1020 129.071 1099.07 478.376
1289 0 74.201 15.1615 1125 126.708 1098.78 478.367
1290 0 76.4003 13.835 1057 131.041 1099.11 476.905
1291 0 78.1211 14.9639 1169 128.425 1099.34 476.326
1292 0 80.2382 15.292 1227 128.76 1099.5 475.645
1293 0 84.4192 15.3638 1297 127.73 1099.33 474.549
1294 0 88.2372 17.6229 1555 121.333 1100.06 473.571
1295 0 90.2311 14.7621 1332 130.351 1099.36 471.265
1296 0 93.1652 14.7587 1375 130.614 1099.9 469.457
1297 0 95.2944 13.6839 1304 134.235 1098.98 465.308
1298 0 99.3375 14.9994 1490 130.175 1099.49 466.138
1299 0 103.447 15.5539 1609 127.559 1099.23 466.723
1300 1 54.3926 14.0093 762 133.319 1098.97 486.617
1301 0 58.2078 14.3795 837 130.766 1099.27 486.24
1302 0 59.1596 14.4862 857 130.306 1099.04 487.744
1303 0 60.1513 14.2308 856 132.706 1099.13 485.64
1304 0 63.3454 16.0075 1014 127.669 1099.28 483.199
1305 0 64.2998 13.0327 838 136.689 1098.85 483.267
1306 0 66.3597 13.1857 875 136.897 1098.83 483.232
1307 0 70.1855 14.6754 1030 132.709 1098.91 480.103
1308 0 73.2357 15.1839 1112 130.576 1098.94 480.131
1309 0 76.2883 16.241 1239 127.093 1098.76 479.48
1310 0 78.2019 14.8078 1158 131.722 1098.81 478.754
1311 0 82.3152 15.6836 1291 129.033 1098.68 476.151
1312 0 81.223 13.506 1097 137.886 1099.39 472.87
1313 0 84.2214 14.3669 1210 134.596 1098.75 472.988
1314 0 89.2104 14.2696 1273 132.774 1098.55 471.826
1315 0 93.2483 15.2818 1425 129.438 1098.44 472.093
1316 0 98.2276 15.006 1474 129.497 1098.83 468.072
1317 0 99.1577 14.3105 1419 132.785 1098.67 466.642
1318 1 55.2353 13.2524 732 133.474 1098.59 487.904
1319 0 54.1042 12.7716 691 136.874 1099.05 487.279
1320 0 57.1587 15.9031 909 127.635 1098.95 487.212
1321 0 59.1056 13.4843 797 135.575 1098.67 483.922
1322 0 61.1335 14.3293 876 131.385 1099.01 485.418
1323 0 64.1432 14.7171 944 130.715 1098.55 482.951
1324 0 63.1713 14.152 894 134.457 1098.54 481.192
1325 0 67.0931 15.6797 1052 129.658 1098.65 478.583
1326 0 71.1623 15.1906 1081 130.243 1098.94 478.099
1327 0 75.2275 16.3238 1228 125.066 1099.08 477.941
1328 0 75.1545 14.5301 1092 131.528 1099.25 476.169
1329 0 78.2893 14.9829 1173 131.148 1099.47 474.517
1330 0 81.3693 15.19 1236 130.059 1098.6 472.794
1331 0 83.1606 13.8888 1155 133.016 1098.68 473.326
1332 0 88.2411 16.2509 1434 126.24 1099.08 471.99
1333 0 91.4227 16.7683 1533 124.706 1099.63 471.42
1334 0 90.2156 14.9087 1345 131.194 1098.82 468.166
1335 0 95.2318 16.0556 1529 127.856 1098.43 466.103
1336 0 98.1463 15.5788 1529 129.283 1098.2 465.577
1337 0 103.149 15.8024 1630 127.939 1098.57 463.81
1338 0 104.201 15.662 1632 129.624 1098.48 461.867
1339 0 108.312 15.5108 1680 129.357 1098.34 459.364
1340 0 113.197 15.3185 1734 129.475 1097.85 457.506
1341 0 117.365 14.0246 1646 131.016 1098.3 457.756
1342 0 121.286 14.272 1731 131.282 1097.63 453.236
1343 0 126.287 15.4172 1947 127.359 1097.93 452.117
1344 0 129.316 13.726 1775 132.73 1097.58 447.789
1345 0 137.378 15.4974 2129 127.223 1098.01 445.219
1346 0 142.435 15.6774 2233 126.527 1097.99 440.039
1347 0 148.348 14.8502 2203 128.612 1097.78 437.434
1348 0 152.443 14.4775 2207 125.752 1097.76 437.097
1349 0 159.42 14.7597 2353 124.59 1098.16 433.611
1350 0 165.344 14.4245 2385 126.768 1098.5 428.702
1351 1 90.2644 12.9841 1172 129.927 1098.62 463.623
1352 0 92.2958 13.0884 1208 130.32 1098.36 461.605
1353 0 98.3652 13.5414 1332 128.435 1098.73 459.414
1354 0 98.2688 12.3437 1213 134.688 1098.68 454.305
1355 0 103.253 12.8906 1331 132.558 1098.52 451.434
1356 0 107.233 12.9811 1392 131.913 1098.42 451.623
1357 0 110.213 11.8045 1301 135.743 1097.97 447.643
1358 0 112.2 12.3529 1386 135.102 1098.2 443.548
1359 0 119.314 14.1476 1688 127.222 1098.56 446.778
1360 0 122.386 12.5422 1535 133.014 1098.04 440.255
1361 0 129.299 12.8694 1664 130.696 1098.12 440.856
1362 0 134.335 13.7418 1846 127.051 1097.5 439.996
1363 0 137.261 14.3085 1964 125.283 1097.83 438.119
1364 0 139.251 12.7109 1770 131.851 1097.75 432.203
1365 0 147.287 13.1715 1940 128.951 1098.08 430.043
1366 0 134.089 12.5886 1688 136.98 1097.46 416.918
1367 0 155.147 12.8523 1994 132.471 1098.06 418.309
1368 0 150.239 14.1441 2125 131.351 1098.06 416.108
1369 0 150.255 14.2491 2141 133.155 1098.01 409.848
1370 0 158.222 15.8701 2511 128.718 1098 410.265
1371 0 166.322 14.6283 2433 131.995 1097.61 408.603
1372 0 170.219 14.8456 2527 132.594 1097.65 403.542
1373 0 175.21 13.6579 2393 137.576 1097.72 395.838
1374 0 182.39 14.0304 2559 136.228 1097.98 394.241
1375 1 197.533 12.3169 2433 140.442 1097.85 393.565
1376 0 196.264 10.9954 2158 144.926 1098.08 392.192
1377 0 196.248 5.82936 1144 153.541 1098.24 399.719
1378 1 178.252 6.54692 1167 159.296 1097.68 384.05
1379 1 154.291 6.81829 1052 142.843 1098.03 412.334
1380 0 162.224 11.6321 1887 127.298 1098.38 417.904
1381 0 151.223 8.88751 1344 139.824 1098 403.17
1382 0 163.343 11.0871 1811 132.675 1097.83 402.22
1383 0 169.418 10.8076 1831 134.925 1097.29 396.889
1384 1 61.0462 8.82938 539 99.6067 1097.67 478.102
1385 0 60.1 8.48586 510 93.9824 1095.95 479.963
1386 0 58.0838 7.45475 433 97.94 1095.85 483.226
1387 0 56.0632 5.85054 328 100.259 1095.7 484.893
1388 0 57.172 9.14783 523 97.0057 1096.23 479.606
1389 0 62.1475 8.15801 507 98.5444 1096.25 475.6
1390 0 62.1396 4.05539 252 104.099 1095.78 474.48
1391 0 58.0701 5.5278 321 102.477 1096.19 473.85
1392 0 64.1197 3.78979 243 104.753 1095.65 475.362
1393 0 66.178 6.30119 417 102.472 1096 472.458
1394 0 60.1888 4.2699 257 106.089 1095.23 469.521
1395 0 69.1636 6.2316 431 103.056 1095.87 468.937
1396 0 67.0944 6.93054 465 103.011 1096.18 463.843
1397 0 78.154 7.03739 550 102.047 1096.61 462.242
1398 0 70.1007 3.53777 248 109.435 1095.73 463.577
1399 0 68.0686 3.93721 268 105.246 1095.53 472.466
1400 0 75.1263 6.44248 484 104.039 1095.98 462.502
1401 0 73.1167 3.10463 227 109.987 1095.9 461.912
1402 1 59.2544 8.52257 505 99.8812 1095.47 478.61
1403 0 51.1592 5.90314 302 107.46 1094.77 471.321
1404 0 61.0892 6.61328 404 104.658 1095.12 468.431
1405 0 57.0702 7.35936 420 102.49 1095.08 477.59
1406 0 55.0154 6.47091 356 106.899 1094.39 468.079
1407 0 62.0529 7.34856 456 103.956 1094.27 465.318
1408 0 61.0738 8.53067 521 102.292 1094.69 466.547
1409 1 12.0048 6.99723 84 78.4405 1093.88 503.476
1410 0 11.0024 4.27179 47 78.617 1093.49 503.787
1411 0 11.013 3.99527 44 76.3409 1092.98 504.795
1412 0 11.0047 7.36051 81 78.6049 1094.06 503.642
1413 0 9.00146 6.66558 60 81.9 1094.7 503.333
1414 1 84.0731 10.6812 898 99.2673 1095.35 462.918
1415 0 87.373 11.9602 1045 99.2306 1096.23 463.472
1416 0 86.1716 9.7596 841 96.4542 1094.89 472.284
1417 0 85.1764 9.70926 827 101.319 1095.66 463.403
1418 1 13.0154 5.45509 71 78.1549 1095.79 503.085
1419 0 12.0098 2.41469 29 80.0345 1095.17 503.931
1420 1 92.1672 9.61296 886 101.843 1095.06 461.34
1421 0 91.1772 9.58573 874 104.449 1095.27 458.429
1422 0 93.1424 10.382 967 102.889 1094.91 460.061
1423 0 96.1988 10.1145 973 104.403 1095.25 458.232
1424 0 99.0831 9.58791 950 104.546 1094.96 457.433
1425 0 100.161 11.1321 1115 102.339 1095.87 454.229
1426 0 104.227 10.9856 1145 103.868 1096.94 450.243
1427 0 105.265 11.1433 1173 104.436 1097.42 448.692
1428 0 105.301 11.9087 1254 103.43 1097.1 448.91
1429 1 62.0773 8.84381 549 102.494 1096.23 471.311
1430 0 68.3975 9.19624 629 100.491 1099.12 467.506
1431 0 65.3507 10.5278 688 96.7805 1098.75 464.516
1432 0 63.3823 10.7759 683 96.1127 1096.83 462.725
1433 0 66.2181 9.86136 653 96.3354 1096.47 463.741
1434 0 65.2001 10.3681 676 97.4083 1096.26 460.624
1435 0 67.4082 10.1471 684 94.4196 1098.33 460.784
1436 0 69.3994 9.66868 671 95.4724 1097.74 458.92
1437 0 75.5772 10.0956 763 95.1992 1097.33 458.478
1438 0 76.3052 11.1919 854 97.0351 1096.84 456.297
1439 0 82.2325 10.8108 889 94.7064 1098.32 465.33
1440 0 85.5985 9.67307 828 98.0024 1097.55 454.571
1441 0 86.4718 9.1128 788 99.7513 1097.68 448.435
1442 0 90.7588 9.91639 900 97.8422 1097.24 454.807
1443 0 92.5392 10.0174 927 97.863 1097.48 451.833
1444 0 97.4877 9.74482 950 97.2326 1097.11 452.419
1445 0 99.541 9.54381 950 97.6895 1097.45 450.889
1446 0 102.449 10.5711 1083 97.1764 1097.28 447.236
1447 0 97.337 9.57498 932 100.973 1097.63 445.093
1448 0 101.392 10.5827 1073 98.6356 1097.32 446.91
1449 0 107.365 11.9871 1287 96.7685 1097.61 447.447
1450 0 110.413 11.7287 1295 97.922 1097.32 445.319
1451 0 113.45 11.1503 1265 98.5202 1097.32 443.173
1452 0 115.457 10.558 1219 99.5775 1097.54 441.824
1453 0 118.459 9.65737 1144 102.022 1097.49 442.143
1454 1 70.2137 9.8129 689 94.1843 1097.19 468.424
1455 0 70.3663 10.5164 740 96.9608 1097.46 471.751
1456 0 73.2229 11.2943 827 94.9746 1097.38 471.021
1457 0 74.2535 11.1779 830 92.3892 1097 470.649
1458 0 77.1329 11.3959 879 92.2799 1097.32 469.435
1459 0 78.1507 12.1944 953 92.1679 1097.09 469.592
1460 0 80.2193 12.6154 1012 92.1719 1097.59 466.2
1461 0 82.1029 11.2054 920 95.3207 1097.73 466.203
1462 0 84.1766 10.5255 886 97.0135 1097.74 464.821
1463 0 87.0679 11.7265 1021 95.1871 1097.53 467.054
1464 0 91.2275 12.0249 1097 95.4202 1097.1 461.709
1465 0 93.2208 11.9823 1117 96.4754 1097.37 461.628
1466 0 95.2023 12.4262 1183 96.9831 1096.42 457.991
1467 0 99.1156 13.1362 1302 96.0046 1096.41 459.791
1468 0 102.16 14.5751 1489 93.6864 1096.44 456.917
1469 0 103.171 12.4163 1281 98.9251 1096.26 456.87
1470 0 105.193 11.0178 1159 102.016 1097.13 454.591
1471 0 108.233 11.9649 1295 101.958 1096.71 450.022
1472 0 112.225 13.9006 1560 98.4474 1096.53 450.787
1473 1 61.0544 10.204 623 102.629 1095.4 476.536
1474 0 61.0636 10.1533 620 100.956 1095.87 473.987
1475 0 60.0778 10.9525 658 95.4134 1097.86 471.199
1476 0 65.0921 8.63391 562 95.411 1098.12 474.084
1477 0 67.092 10.97 736 91.4918 1097.71 476.988
1478 0 70.1659 10.974 770 91.8727 1097.84 473.386
1479 0 74.3919 11.3319 843 91.1329 1098.61 473.202
1480 0 76.1906 12.285 936 90.6036 1098.28 471.415
1481 0 79.2187 9.215 730 98.6014 1098.1 469.678
1482 0 81.2211 9.8989 804 98.8818 1097.22 466.669
1483 0 82.19 11.1206 914 97.837 1097.59 464.933
1484 0 87.2945 11.2493 982 95.8513 1097.66 469.38
1485 0 89.1204 13.162 1173 94.4041 1097.51 465.391
1486 0 92.3668 12.5261 1157 95.1063 1097.35 467.475
1487 0 93.2613 11.441 1067 98.5895 1097.34 464.31
1488 0 94.3833 10.6269 1003 101.165 1097.35 463.498
1489 0 97.2705 10.2086 993 103.298 1097.2 459.198
1490 0 101.143 9.91666 1003 103.279 1097.54 459.036
1491 0 104.24 12.1546 1267 100.186 1097.6 455.273
1492 1 58.2064 9.07117 528 92.9905 1098.72 480.917
1493 0 62.1309 10.7193 666 95.7237 1098.39 478.236
1494 0 61.1997 10.1144 619 95.9176 1097 480.486
1495 0 66.2641 10.6543 706 94.1558 1097.26 480.356
1496 0 66.3243 8.75999 581 98.537 1096.67 479.673
1497 0 68.3602 9.87416 675 98.6726 1097.18 476.901
1498 0 69.2683 10.5387 730 98.8082 1097.17 476.29
1499 0 70.3224 10.6367 748 101.337 1096.7 471.57
1500 0 74.3342 10.5201 782 100.839 1097.09 474.325
1501 0 76.188 9.71282 740 103.934 1096.53 471.261
1502 0 76.2322 11.6617 889 100.514 1096.68 473.508
1503 0 81.1871 12.0462 978 98.9438 1097.26 471.518
1504 0 83.1066 11.2506 935 97.4717 1097.47 467.03
1505 0 83.1593 10.8707 904 100.698 1096.69 466.343
1506 0 85.091 12.0224 1023 101.951 1097.09 465.991
1507 0 84.0673 10.6819 898 105.626 1097.48 466.788
1508 0 84.0971 11.3559 955 106.676 1096.68 463.547
1509 0 84.1667 10.503 884 111.15 1096.22 462.192
1510 1 46.1046 7.87341 363 107.369 1095.55 484.573
1511 0 50.1925 11.3164 568 105.002 1095.12 486.287
1512 0 53.2047 11.8223 629 104.994 1095.42 482.733
1513 0 54.1179 11.4749 621 104.643 1095.14 483.91
1514 0 55.0912 12.0346 663 102.926 1094.9 484.002
1515 0 57.1428 12.145 694 99.9726 1095.41 480.238
1516 0 58.1003 11.4629 666 103.643 1095.3 481.7
1517 0 57.0666 11.618 663 103.534 1095.23 479.003
1518 0 60.0429 9.9762 599 107.287 1094.94 479.217
1519 0 61.0531 11.1051 678 104.367 1094.85 475.429
1520 0 62.1241 11.0907 689 105.991 1095.19 473.271
1521 0 62.0636 9.47415 588 110.694 1095.71 474.338
1522 0 66.0946 10.7724 712 108.747 1095.01 474.256
1523 0 65.0525 10.8528 706 109.878 1095.19 473.578
1524 0 67.0699 10.3623 695 112.679 1095.51 471.682
1525 0 70.0585 12.6037 883 108.666 1095.32 473.419
1526 0 69.1243 11.6023 802 113.622 1095.69 469.685
1527 0 72.1398 11.048 797 115.117 1095.66 472.226
1528 0 73.0669 11.8795 868 114.944 1095.39 469.168
1529 0 72.077 10.9328 788 119.772 1095.65 467.194
1530 0 73.0615 10.5664 772 121.552 1095.2 468.066
1531 0 80.1397 11.7919 945 118.249 1095.63 467.999
1532 0 81.1665 11.6674 947 119.438 1095.66 469.299
1533 0 83.185 12.1416 1010 119.822 1096.09 466.305
1534 0 82.0867 10.1843 836 126.982 1096.47 462.019
1535 0 82.1071 10.7908 886 120.825 1096.65 461.245
1536 0 85.1205 12.3589 1052 118.27 1096.8 461.36
1537 0 87.0632 12.5082 1089 118.854 1096.68 458.918
1538 0 88.1019 12.3266 1086 120.064 1097.05 459.748
1539 0 92.1205 11.9843 1104 120.707 1096.81 457.898
1540 0 94.1356 13.2469 1247 118.468 1096.71 457.911
1541 0 96.1372 10.8283 1041 123.59 1096.61 457.982
1542 0 99.1451 11.347 1125 122.417 1096.8 455.212
1543 0 105.248 12.5609 1322 118.877 1097.04 453.353
1544 0 109.119 12.3626 1349 123.051 1096.54 451.338
1545 0 113.112 12.7926 1447 124.003 1096.19 449.949
1546 1 64.1277 10.5415 676 123.354 1094.98 478.743
1547 0 65.1191 12.0088 782 120.15 1095.1 478.306
1548 0 72.0669 12.2664 884 119.105 1094.21 471.481
1549 0 75.2512 14.1925 1068 110.744 1094.95 471.02
1550 0 74.1952 13.0736 970 109.899 1096.46 472.926
1551 0 77.1217 11.9551 922 111.203 1096.29 473.829
1552 0 79.1949 12.6776 1004 110.954 1095.86 471.514
1553 0 81.1006 12.1577 986 112.147 1096.18 470.752
1554 0 85.149 13.1299 1118 110.025 1095.71 469.235
1555 0 88.1961 11.3724 1003 111.212 1095.21 468.303
1556 0 88.2442 11.5362 1018 112.549 1094.95 466.545
1557 0 90.2513 12.166 1098 112.082 1095.41 466.157
1558 0 94.1794 13.3256 1255 110.114 1094.7 463.142
1559 0 98.2144 13.2465 1301 109.992 1095.48 462.126
1560 0 99.2604 14.0338 1393 109.281 1095.24 460.498
1561 0 103.186 13.0444 1346 110.886 1095.16 461.007
1562 0 105.298 12.6593 1333 113.154 1095.6 456.812
1563 0 109.321 12.0745 1320 114.854 1094.98 454.391
1564 1 59.1766 10.3926 615 110.875 1095.92 479.941
1565 0 62.0923 11.5473 717 108.455 1095.97 480.3
1566 0 64.3212 11.6602 750 108.564 1095.86 477.659
1567 0 65.2646 11.4151 745 108.944 1095.55 476.698
1568 0 69.155 11.9731 828 107.302 1095.65 476.336
1569 0 71.1637 11.874 845 108.337 1095.69 474.901
1570 0 72.3186 11.4217 826 110.247 1095.67 474.837
1571 0 75.1811 13.1017 985 107.074 1095.36 474.512
1572 0 77.193 11.5166 889 111.108 1094.78 471.058
1573 0 76.1682 10.0698 767 115.06 1095.13 470.851
1574 0 82.2129 11.7378 965 111.634 1094.86 468.109
1575 0 82.2736 11.9236 981 112.028 1095.15 466.849
1576 0 89.1327 12.4309 1108 109.421 1095.45 466.223
1577 0 90.296 11.6284 1050 112.509 1094.75 463.629
1578 0 93.2962 12.3049 1148 111.351 1094.85 463.888
1579 0 93.3809 11.9082 1112 113.007 1095.02 462.919
1580 0 98.2235 11.6876 1148 116.725 1094.84 458.63
1581 1 53.3813 9.12305 487 109.534 1094.49 484.836
1582 0 56.2448 10.7566 605 109.218 1096.32 482.235
1583 0 58.463 11.4773 671 111.17 1095.55 481.906
1584 0 60.1765 10.7517 647 106.646 1096.59 480.819
1585 0 62.1367 12.1667 756 103.963 1096.53 479.362
1586 0 65.1798 12.0129 783 103.771 1096.42 480.729
1587 0 68.1952 12.6695 864 102.414 1096.77 479.92
1588 0 68.1886 10.5883 722 106.909 1096 480.237
1589 0 72.1709 12.1379 876 105.425 1096.27 477.328
1590 0 71.1778 12.0824 860 106.999 1095.55 475.957
1591 0 75.2204 11.4863 864 107.723 1095.42 474.63
1592 0 78.2444 12.9849 1016 106.218 1094.95 472.056
1593 0 81.2697 13.7567 1118 104.347 1095.31 473.639
1594 0 82.2197 12.3693 1017 109.226 1095.6 470.25
1595 0 83.2888 12.6668 1055 110.27 1095.68 467.73
1596 0 87.2429 12.7919 1116 110.724 1095.18 467.07
1597 0 90.3086 13.1106 1184 110.562 1095.16 467.139
1598 0 91.2397 12.2206 1115 113.379 1096.46 466.035
1599 0 94.2273 12.2894 1158 113.259 1096.65 465.967
1600 0 100.427 13.0642 1312 111.97 1096.22 463.811
1601 0 102.279 13.121 1342 113.622 1096.18 460.107
1602 0 104.416 12.2107 1275 116.489 1096.27 457.263
1603 0 108.273 13.3182 1442 114.186 1096.07 456.23
1604 0 112.278 12.665 1422 115.538 1096.48 455.774
1605 1 59.1974 9.57813 567 110.702 1096.5 482.462
1606 0 66.3207 10.992 729 101.938 1096.24 478.968
1607 0 68.1498 11.5187 785 102.885 1094.94 477.285
1608 0 67.2585 10.809 727 102.897 1096.15 474.758
1609 0 70.1882 11.9251 837 101.565 1095.07 472.676
1610 0 70.2993 10.0143 704 106.8 1095.82 475.49
1611 0 73.0954 9.79541 716 109.191 1094.91 472.17
1612 0 76.2257 10.6395 811 107.462 1095.38 472.758
1613 0 79.1899 10.8979 863 109.054 1094.85 470.629
1614 0 81.1927 10.0255 814 110.961 1094.94 468.99
1615 0 84.1926 11.2955 951 109.304 1095.53 468.501
1616 0 83.2458 10.463 871 112.527 1094.99 469.056
1617 0 86.2072 10.3008 888 114.329 1095.28 465.87
1618 0 90.223 10.463 944 114.248 1095.12 465.212
1619 0 94.2563 11.6703 1100 112.947 1095.35 465.158
1620 0 97.3073 11.8902 1157 113.867 1096.3 462.429
1621 0 98.2226 13.0011 1277 115.541 1093.93 459.567
1622 0 100.235 12.74 1277 114.087 1095.07 462.232
1623 0 101.362 11.3653 1152 120.821 1095.07 457.237
1624 0 108.323 12.3797 1341 117.838 1095.34 457.957
1625 0 111.297 11.402 1269 121.16 1095.59 452.961
1626 0 114.249 11.7725 1345 119.763 1095.11 448.454
1627 1 64.2869 8.61762 554 111.834 1095.79 476.031
1628 0 69.214 10.6481 737 107.942 1094.81 473.697
1629 0 68.1118 11.6867 796 103.764 1095.85 477.828
1630 0 71.1527 11.2996 804 104.617 1095.93 477.17
1631 0 70.2205 9.5129 668 108.774 1095.53 476.823
1632 0 74.1859 11.4173 847 104.385 1095.21 476.305
1633 0 77.1969 10.2724 793 107.784 1094.66 472.834
1634 0 77.0766 10.8334 835 108.537 1095.22 470.638
1635 0 81.1636 11.4337 928 107.096 1095.12 470.994
1636 0 80.2385 11.1916 898 108.873 1094.76 466.057
1637 0 85.1275 11.6296 990 107.791 1095.3 467.775
1638 0 88.1821 10.5917 934 110.621 1095.16 465.713
1639 0 90.2101 11.2293 1013 109.617 1095.5 465.854
1640 0 91.1659 11.5942 1057 110.791 1095.34 462.619
1641 0 94.1744 12.5299 1180 109.569 1095.29 463.703
1642 0 96.227 12.7615 1228 110.058 1095.41 464.156
1643 0 99.1869 12.9654 1286 110.169 1095.46 461.075
1644 0 102.315 12.7254 1302 110.984 1095.34 459.399
1645 0 106.277 12.9379 1375 112.02 1094.73 457.045
1646 0 109.236 13.0451 1425 113.751 1094.85 454.565
1647 0 115.215 14.0085 1614 112.1 1094.45 453.701
1648 0 118.216 13.5345 1600 114.819 1094.79 451.913
1649 1 65.1592 11.2033 730 108.504 1095.16 478.856
1650 0 67.2204 11.3358 762 109.543 1095.27 477.79
1651 0 68.1777 10.8247 738 110.178 1095.18 476.409
1652 0 64.3022 10.264 660 111.652 1094.71 471.282
1653 0 68.1445 9.56791 652 112.207 1094.57 472.681
1654 0 70.1943 11.6249 816 109.863 1094.54 467.969
1655 0 73.2617 11.2473 824 109.591 1094.5 470.294
1656 0 77.3844 12.7933 990 106.526 1095.11 468.049
1657 0 78.1529 11.0681 865 111.896 1094.43 466.957
1658 0 83.2288 12.0391 1002 108.718 1094.54 464.837
1659 0 83.1693 12.1319 1009 110.739 1093.79 466.933
1660 0 89.2406 11.2505 1004 111.9 1094.35 461.022
1661 0 94.2438 10.8654 1024 112.229 1094.01 459.902
1662 0 93.2906 10.8157 1009 114.975 1094.23 456.387
1663 0 97.3425 12.4714 1214 111.639 1094.53 457.851
1664 0 102.444 11.987 1228 111.322 1094.76 458.819
1665 0 106.386 12.4171 1321 113.422 1094.62 453.069
1666 0 111.404 12.6746 1412 111.256 1094.65 453.594
1667 1 60.2438 8.698 524 109.174 1094.83 476.38
1668 0 62.3598 10.696 667 111.135 1094.58 477.813
1669 0 63.3046 10.7417 680 111.546 1094.78 475.547
1670 0 66.2786 10.7576 713 106.168 1094.7 475.77
1671 0 69.2511 11.5666 801 110.17 1093.93 476.119
1672 0 71.2207 10.5026 748 112.844 1093.4 471.949
1673 0 73.2281 10.9111 799 112.61 1093.79 472.962
1674 0 71.2674 10.0326 715 116.604 1094.2 470.862
1675 0 77.1952 11.3478 876 112.628 1093.99 471.873
1676 0 76.2699 12.2329 933 108.359 1094.46 468.408
1677 0 80.1473 11.7534 942 109.467 1094.45 470.796
1678 0 82.2693 11.3651 935 111.583 1094.58 468.056
1679 0 86.1103 11.9614 1030 110.404 1095.11 468.357
1680 0 89.1488 12.0136 1071 112.605 1094.76 466.951
1681 0 91.1146 11.1179 1013 114.636 1095.22 464.15
1682 0 95.1102 12.8588 1223 111.401 1095.16 464.268
1683 0 97.1478 13.114 1274 112.494 1095.84 460.978
1684 0 100.116 12.5155 1253 114.56 1095.08 460.832
1685 0 97.1636 12.4121 1206 116.527 1094.65 455.184
1686 0 102.308 12.2962 1258 116.951 1094.61 454.812
1687 0 107.244 12.7466 1367 115.823 1094.04 453.869
1688 0 107.193 11.8944 1275 119.7 1094.18 453.164
1689 0 112.127 11.8794 1332 120.693 1094.48 453.507
1690 0 115.242 11.7231 1351 122.577 1094.2 450.42
1691 1 62.2401 9.67222 602 120.188 1094.18 476.449
1692 0 65.1144 11.0421 719 118.629 1095.16 472.996
1693 0 69.1331 12.1071 837 111.117 1095.09 476.062
1694 0 71.1557 10.9338 778 114.392 1094.93 477.071
1695 0 73.1116 10.5182 769 117.385 1095.02 472.404
1696 0 74.1177 9.8357 729 119.892 1095.28 470.864
1697 0 76.1711 9.20297 701 120.168 1095.39 471.582
1698 0 79.1475 10.4236 825 119.645 1094.7 468.286
1699 0 82.1427 11.3218 930 117.242 1095.57 466.713
1700 0 84.1889 10.4527 880 119.824 1094.7 464.017
1701 0 87.2108 11.6041 1012 117.373 1094.65 464.481
1702 0 89.2591 11.1809 998 119.943 1095.12 461.011
1703 0 92.1971 11.6273 1072 120.07 1095.07 458.985
1704 0 93.2497 10.5201 981 123.739 1095.13 459.803
1705 0 96.3946 10.9653 1057 119.819 1095.33 457.122
1706 0 100.376 11.4968 1154 117.064 1095.33 457.143
1707 0 106.247 11.7086 1244 114.923 1095.39 452.643
1708 1 63.0764 10.6537 672 110.135 1095.66 479.335
1709 0 58.1833 9.64195 561 111.556 1095.74 472.446
1710 0 66.1192 11.8271 782 104.496 1094.8 474.862
1711 0 64.0377 10.322 661 109.54 1094.92 472.772
1712 0 67.1591 12.0311 808 105.301 1094.7 473.489
1713 0 73.0902 11.9031 870 104.914 1095.49 473.214
1714 0 74.0585 11.2479 833 106.821 1095.67 469.465
1715 0 75.1413 11.5516 868 106.827 1095.13 472.275
1716 0 79.257 11.5195 913 107.574 1094.72 471.754
1717 0 79.2104 10.6804 846 110.65 1094.43 469.735
1718 0 82.2426 12.8036 1053 107.263 1094.14 468.889
1719 0 83.1867 10.6147 883 116.345 1093.9 466.079
1720 0 86.2598 11.7204 1011 113.963 1094.13 464.681
1721 0 90.1822 10.6451 960 117.369 1094.25 462.746
1722 0 95.2575 12.146 1157 114.123 1094.66 463.264
1723 0 94.3326 11.0672 1044 119.462 1095.34 459.637
1724 0 99.3282 11.9402 1186 118.028 1095.65 458.346
1725 0 103.175 12.3092 1270 116.879 1094.9 458.509
1726 0 107.246 11.2638 1208 120.484 1094.97 456.612
1727 0 107.344 11.8777 1275 120.961 1094.71 454.801
1728 1 54.1924 6.2924 341 113.774 1096.05 482.44
1729 0 60.1348 10.2104 614 106.666 1096.06 482.042
1730 0 60.216 9.81466 591 107.766 1095.86 481.159
1731 0 61.1675 10.0707 616 108.622 1095.64 479.094
1732 0 61.1474 9.45257 578 110.635 1094.8 474.26
1733 0 66.2316 11.1276 737 106.345 1095.27 477.155
1734 0 67.2148 9.64073 648 110.116 1095.27 475.647
1735 0 71.1594 10.1603 723 109.217 1094.85 475.357
1736 0 73.2496 9.88401 724 109.235 1094.92 475.445
1737 0 70.1733 9.61904 675 112.07 1095.06 470.865
1738 0 77.1282 10.1908 786 110.276 1095.36 470.38
1739 0 78.2914 10.2055 799 111.424 1095.11 469.612
1740 0 79.1852 10.406 824 112.483 1094.85 466.818
1741 0 81.1587 11.1263 903 110.349 1095.37 467.27
1742 0 86.1683 10.259 884 111.786 1094.79 465.337
1743 0 90.2435 12.0674 1089 109.903 1094.85 465.575
1744 0 92.1918 12.0835 1114 108.695 1095.14 465.496
1745 0 93.2651 10.572 986 112.041 1095.37 459.627
1746 0 98.1318 11.1788 1097 107.57 1095.62 460.977
1747 0 98.1625 11.4402 1123 108.484 1095.33 457.14
1748 0 102.125 11.1726 1141 108.966 1094.94 454.5
1749 0 109.214 12.5442 1370 104.923 1094.71 457.001
1750 1 57.1251 8.6652 495 107.77 1095.63 478.905
1751 0 58.2305 11.1454 649 110.347 1094.16 476.632
1752 0 62.2048 10.594 659 109.982 1094.59 476.725
1753 0 61.3169 11.5955 711 103.129 1094.79 476.027
1754 0 66.2064 10.135 671 104.365 1094.17 477.174
1755 0 68.2312 11.1239 759 103.527 1094.9 475.186
1756 0 69.0993 9.95669 688 106.749 1094.53 472.702
1757 0 73.2482 12.3689 906 101.227 1094.99 472.137
1758 0 74.2606 10.544 783 105.871 1094.33 468.055
1759 0 78.1058 10.601 828 106.25 1094.01 463.071
1760 0 79.0803 10.2428 810 107.93 1094.39 466.258
1761 0 82.2923 11.5078 947 105.801 1093.92 466.385
1762 0 84.249 10.9081 919 107.848 1094.15 464.403
1763 0 88.1881 12.428 1096 104.916 1094.37 463.028
1764 0 90.2308 12.7783 1153 105.419 1094.47 461.262
1765 0 90.1877 11.7976 1064 109.225 1094.57 459.62
1766 0 95.5606 11.8668 1134 109.042 1094.07 459.665
1767 0 99.302 12.5375 1245 107.851 1094.11 456.795
1768 0 102.365 12.7388 1304 107.792 1093.98 456.322
1769 0 106.146 12.7277 1351 107.472 1093.89 453.944
1770 0 108.335 11.1783 1211 111.627 1093.78 452.683
1771 1 64.1797 9.98759 641 104.594 1093.37 477.232
1772 0 65.0791 10.6639 694 103.134 1094.04 475.284
1773 0 67.1323 11.2167 753 102.159 1094.41 474.531
1774 0 67.1842 11.074 744 103.902 1094.21 469.985
1775 0 71.1505 10.6394 757 103.951 1094.18 470.299
1776 0 75.1566 10.8041 812 102.004 1094.51 471.596
1777 0 77.1295 11.8632 915 100.772 1093.65 470.938
1778 0 75.1558 9.8063 737 106.674 1093.79 465.947
1779 0 80.0717 12.5013 1001 100.506 1094.3 466.587
1780 0 81.141 11.745 953 103.093 1094.53 464.816
1781 0 87.1215 11.3634 990 102.778 1094.1 465.484
1782 0 90.2261 11.8259 1067 102.18 1094.57 461.512
1783 0 94.083 12.0638 1135 101.251 1094.62 463.688
1784 0 97.0837 11.2068 1088 103.892 1094.63 459.952
1785 0 99.1514 12.486 1238 101.812 1094.62 460.853
1786 0 101.098 12.3148 1245 103.677 1094.79 456.987
1787 0 105.139 11.5847 1218 104.152 1094.08 456.127
1788 0 108.143 10.8006 1168 107.049 1094.32 451.712
1789 0 112.095 12.3377 1383 102.52 1094.61 452.819
1790 1 61.1338 8.58772 525 101.989 1094.68 478.867
1791 0 59.1391 8.48847 502 106.988 1094.69 472.92
1792 0 64.0592 10.0376 643 101.53 1093.62 475.012
1793 0 68.0675 12.1056 824 96.8968 1093.92 474.312
1794 0 67.1029 11.2514 755 100.629 1093.54 471.444
1795 0 71.0812 10.692 760 101.067 1093.73 473.847
1796 0 73.147 12.0169 879 99.1433 1093.91 472.057
1797 0 76.0793 12.671 964 98.7676 1094.14 468.376
1798 0 78.0772 12.2187 954 99.8836 1094.5 467.173
1799 0 81.1049 11.22 910 102.646 1094.32 467.295
1800 0 85.0501 12.1575 1034 100.689 1094.59 465.371
1801 0 86.1467 12.6412 1089 100.399 1094.31 465.302
1802 0 86.1739 12.614 1087 120.851 1093.3 465.252
1803 0 92.275 12.4519 1149 102.264 1094.23 459.787
1804 0 92.0718 12.512 1152 103.518 1094.62 456.632
1805 0 97.1624 12.1137 1177 105.197 1094.32 459.216
1806 0 98.1511 11.2378 1103 109.371 1094.46 451.045
1807 0 101.114 11.492 1162 108.897 1094.59 452.158
1808 0 101.115 11.5611 1169 110.677 1094.94 448.501
1809 0 112.257 13.5492 1521 103.123 1094.84 450.851
1810 0 113.169 10.9836 1243 110.002 1094.66 446.257
1811 1 61.0964 8.77303 536 104.104 1094.76 472.804
1812 0 67.2396 9.72641 654 102.167 1095.06 473.101
1813 0 72.0525 12.6158 909 107.436 1095.98 470.218
1814 0 72.1734 12.5254 904 107.019 1095.6 473.023
1815 0 73.1543 13.3827 979 105.581 1095.55 471.795
1816 0 75.2411 11.4831 864 110.495 1095.23 472.47
1817 0 77.1749 11.8044 911 110.437 1095.29 470
1818 0 80.1784 12.2726 984 109.178 1095.86 465.504
1819 0 82.1762 13.3494 1097 106.964 1095.38 468.435
1820 0 84.3491 13.1359 1108 108.507 1095.23 463.685
1821 0 87.2449 12.5623 1096 109.716 1095.2 462.048
1822 0 87.1346 12.3831 1079 111.518 1095.42 462.135
1823 0 95.1905 13.9405 1327 106.555 1095.22 460.587
1824 0 96.1847 12.4968 1202 110.216 1095.37 458.931
1825 0 96.1847 12.528 1205 134.814 1096.38 458.889
1826 0 96.1828 12.5906 1211 134.042 1097.4 459.064
1827 0 105.157 13.0282 1370 109.57 1096.15 455.929
1828 0 108.252 12.6372 1368 110.655 1095.79 456.234
1829 0 111.171 12.4133 1380 111.214 1096.13 449.383
1830 1 58.1155 10.4103 605 108.904 1095.27 471.577
1831 0 65.2534 11.1565 728 106.598 1095.23 473.988
1832 0 66.2415 10.5825 701 109.158 1094.47 471.274
1833 0 68.1547 10.1974 695 109.54 1094.8 472.396
1834 0 70.1723 10.5455 740 111.33 1094.66 469.046
1835 0 72.237 11.0608 799 110.136 1094.41 467.751
1836 0 75.2029 11.8479 891 107.835 1094.17 470.864
1837 0 76.2388 10.2704 783 113.806 1093.87 468.493
1838 0 76.2784 11.7071 893 112.394 1094.06 467.008
1839 0 81.2659 10.4718 851 114.571 1094.36 464.675
1840 0 84.1374 12.0042 1010 110.813 1093.95 465.145
1841 0 87.192 11.9965 1046 111.872 1094.49 460.382
1842 0 87.1979 11.9384 1041 138.502 1095.5 460.256
1843 0 92.1825 10.2514 945 117.276 1094.31 455.22
1844 0 94.1702 11.8934 1120 113.829 1093.62 453.392
1845 0 96.0892 11.3124 1087 106.466 1093.58 452.973
1846 0 97.1353 10.4596 1016 108.486 1093.85 453.816
1847 0 102.135 10.9757 1121 107.066 1093.86 449.115
1848 0 108.075 11.1126 1201 105.979 1093.45 450.455
1849 0 110.246 11.1841 1233 106.15 1094.52 449.649
1850 1 60.099 8.96854 539 101.252 1095.13 475.293
1851 0 61.2029 10.261 628 101.33 1094.82 474.003
1852 0 62.1089 11.5281 716 96.4232 1094.42 471.823
1853 0 67.0761 11.405 765 95.7072 1094.92 471.875
1854 0 66.2414 10.507 696 98.3635 1094.32 471.227
1855 0 70.0967 11.0134 772 97.1813 1094.82 466.996
1856 0 73.0537 11.1425 814 96.3526 1094.18 465.814
1857 0 67.1777 10.048 675 100.849 1093.24 463.213
1858 1 79.1282 11.1086 879 96.7543 1093.27 465.352
1859 0 78.3738 11.0624 867 98.1119 1093.27 463.36
1860 0 80.1263 12.8297 1028 94.3599 1093.91 461.079
1861 0 86.2468 11.4555 988 97.0445 1094.8 462.913
1862 0 90.1832 10.3234 931 99.3673 1094.38 458.469
1863 0 94.3303 11.9686 1129 95.132 1094.6 458.139
1864 0 93.2507 11.4101 1064 98.1748 1094.34 456.437
1865 0 99.4309 11.2641 1120 98.5839 1094.32 456.325
1866 0 103.189 11.3772 1174 98.6831 1094.26 451.605
1867 0 104.29 11.3913 1188 99.5774 1094.34 452.399
1868 0 107.443 11.2245 1206 101.728 1094.78 452.415
1869 0 113.415 12.5468 1423 105.314 1094.54 447.508
1870 0 117.48 10.6827 1255 108.088 1094.13 447.358
1871 1 66.0671 9.58116 633 98.3191 1095.62 479.199
1872 0 67.0241 10.3246 692 97.0462 1094.91 475.198
1873 0 68.2133 10.7457 733 94.146 1095.38 472.671
1874 0 69.2487 9.47311 656 96.3445 1095.37 472.925
1875 0 74.1075 10.3633 768 94.9727 1094.93 471.393
1876 0 75.1337 11.6193 873 92.8293 1094.67 469.83
1877 0 78.2895 12.6454 990 90.997 1094.22 470.579
1878 0 82.1415 11.9428 981 92.4781 1094.06 469.285
1879 0 84.247 13.2349 1115 91.2735 1094.59 466.239
1880 0 86.3915 12.5707 1086 93.523 1093.81 467.545
1881 0 88.3134 12.0367 1063 96.3217 1094.06 462.817
1882 0 92.3775 13.6722 1263 92.7268 1094.14 462.845
1883 0 95.3081 12.4229 1184 96.2441 1093.97 461.441
1884 0 99.3508 12.5515 1247 95.8292 1093.49 457.038
1885 0 104.496 12.2972 1285 101.332 1093.66 456.459
1886 0 105.538 13.3032 1404 102.764 1093.57 455.98
1887 0 108.458 13.1296 1424 100.631 1093.39 451.681
1888 0 109.501 13.1962 1445 100.424 1093.7 448.696
1889 0 113.416 12.291 1394 103.986 1093.97 450.236
1890 0 112.38 11.559 1299 107.744 1094.12 451.844
1891 0 117.508 12.4673 1465 107.321 1094.03 446.771
1892 0 117.359 10.3188 1211 113.612 1094.26 442.594
1893 0 124.713 12.5809 1569 107.451 1093.78 443.032
1894 1 66.2855 8.1164 538 110.857 1094.92 468.63
1895 0 70.5283 10.9885 775 99.7368 1093.7 471.915
1896 0 74.7054 12.0607 901 99.475 1094.03 470.195
1897 0 75.4067 12.426 937 98.8154 1093.69 469.102
1898 0 76.4581 11.6011 887 100.789 1093.76 467.362
1899 0 81.3371 11.0528 899 100.868 1093.88 467.76
1900 0 83.4171 11.3886 950 102.887 1093.86 463.819
1901 0 83.3972 10.2521 855 106.299 1093.65 458.841
1902 0 86.4301 11.1188 961 104.027 1093.78 461.481
1903 0 89.657 10.016 898 105.807 1093.83 461.16
1904 0 94.3661 11.7521 1109 101.161 1093.89 462.172
1905 0 97.406 12.412 1209 100.635 1093.71 460.686
1906 0 100.404 10.1889 1023 103.875 1094.38 464.009
1907 0 103.241 11.4295 1180 103.483 1093.74 460.361
1908 0 106.224 10.026 1065 105.919 1094.04 458.065
1909 0 108.299 10.6003 1148 105.521 1094.4 457.918
1910 0 113.395 12.1964 1383 102.926 1093.86 453.176
1911 0 117.456 10.8807 1278 104.833 1093.76 453.251
1912 0 118.526 9.53375 1130 108.183 1093.7 444.406
1913 0 125.484 10.6707 1339 104.456 1093.97 446.126
1914 0 130.314 11.526 1502 102.744 1093.39 445.704
1915 0 133.363 11.5249 1537 102.271 1093.44 440.506
1916 0 138.363 10.8627 1503 102.635 1093.77 441.019
1917 0 145.462 11.5425 1679 101.96 1093.34 436.045
1918 1 82.2469 8.93651 735 97.8952 1093.5 469.067
1919 0 88.384 10.8051 955 95.6576 1093.29 467.489
1920 0 91.5236 13.1441 1203 90.7606 1093.26 461.217
1921 0 91.3862 11.2818 1031 95.3414 1093.69 460.054
1922 0 98.3041 12.4308 1222 92.045 1093.15 461.97
1923 0 100.572 11.5241 1159 96.245 1093.33 461.276
1924 0 99.3731 10.9587 1089 99.9265 1093.72 454.896
1925 0 105.264 10.4214 1097 99.9426 1094.63 460.251
1926 0 109.631 11.6482 1277 98.4417 1093.13 455.807
1927 0 113.574 12.2651 1393 97.4846 1093.16 453.131
1928 0 115.49 10.7801 1245 99.6024 1093.12 453.758
1929 0 119.509 9.63109 1151 103.222 1094.01 446.603
1930 0 124.381 10.3794 1291 101.279 1094.47 448.315
1931 1 71.1131 11.2216 798 93.4612 1095.22 476.254
1932 0 74.0314 12.0895 895 93.3553 1095.73 477.509
1933 0 75.1291 11.0077 827 96.6965 1095.45 474.834
1934 0 78.1389 11.0828 866 96.2044 1095.38 477.349
1935 0 79.0852 10.5077 831 98.3682 1095.44 476.071
1936 0 81.1406 11.2028 909 96.8141 1095.65 471.396
1937 0 84.0623 11.7532 988 96.086 1095.3 469.564
1938 0 87.3894 9.33751 816 101.304 1094.42 462.373
1939 0 94.3673 9.81272 926 102.988 1093.81 461.231
1940 0 91.1311 8.38353 764 106.963 1093.05 459.3
1941 0 93.3386 8.35667 780 108.349 1093.16 458.588
1942 0 95.2399 10.3738 988 104.553 1093.39 459.717
1943 0 96.3174 9.70749 935 108.59 1092.76 457.879
1944 0 103.17 11.1273 1148 106.476 1094.6 460.499
1945 0 106.155 12.4629 1323 104.246 1094.87 459.306
1946 0 108.314 11.2543 1219 109.461 1094.38 456.477
1947 0 111.332 11.7666 1310 110.583 1094.71 452.665
1948 0 115.244 12.0614 1390 112.305 1094.92 449.29
1949 0 117.143 11.8573 1389 114.188 1095.28 445.935
1950 0 121.158 12.6694 1535 113.664 1095.18 444.737
1951 0 125.242 12.2004 1528 115.232 1094.69 443.838
1952 0 131.182 12.639 1658 114.265 1095.1 443.695
1953 1 70.1964 10.4279 732 107.288 1096.15 475.134
1954 0 75.1583 11.7618 884 107.239 1095.82 475.041
1955 0 77.1413 12.341 952 104.873 1095.6 474.162
1956 0 79.0853 11.7595 930 108.412 1095.56 473.805
1957 0 81.0731 11.6685 946 108.542 1096.06 472.31
1958 0 84.0847 12.4755 1049 107.766 1095.79 471.908
1959 0 87.1483 11.8534 1033 109.934 1095.58 471.481
1960 0 88.0835 11.9659 1054 106.75 1094.77 465.767
1961 0 93.0482 11.7359 1092 107.078 1095.23 463.67
1962 0 95.1089 11.776 1120 107.432 1095.69 463.562
1963 0 96.0671 11.9604 1149 110.356 1095.21 459.597
1964 0 101.111 11.611 1174 108.809 1095.09 458.065
1965 0 103.072 11.5356 1189 109.981 1095.33 456.643
1966 0 108.078 11.797 1275 108.528 1095.35 457.556
1967 0 111.098 11.7374 1304 109.755 1095.38 452.584
1968 0 115.174 11.5043 1325 109.89 1095.52 453.931
1969 0 115.136 10.2748 1183 116.79 1095.54 451.068
1970 0 122.118 10.195 1245 117.422 1095.05 449.639
1971 0 128.197 11.5448 1480 113.397 1095.38 451.264
1972 0 130.142 10.8496 1412 115.739 1095.24 446.304
1973 1 73.065 10.1143 739 110.56 1095.91 478.553
1974 0 76.3334 11.3581 867 109.55 1095.9 474.131
1975 0 76.0861 12.3807 942 106.485 1095.89 475.052
1976 0 81.0863 12.5299 1016 107.974 1096.03 471.724
1977 0 82.0919 12.1571 998 109.209 1095.77 469.596
1978 0 86.126 12.563 1082 107.947 1095.29 469.669
1979 0 87.1762 11.9528 1042 110.282 1095.02 470.853
1980 0 90.1847 12.0198 1084 110.775 1094.85 466.772
1981 0 93.1879 12.5231 1167 110.119 1094.82 465.592
1982 0 96.1937 11.8927 1144 106.669 1093.95 462.039
1983 0 100.195 12.1563 1218 106.106 1094.42 463.511
1984 0 102.194 11.3804 1163 108.361 1095.13 459.715
1985 0 106.129 11.7498 1247 109.24 1094.58 457.516
1986 0 110.288 11.8508 1307 109.178 1094.62 455.318
1987 0 114.239 11.3709 1299 110.559 1094.37 454.988
1988 0 117.198 11.2971 1324 111.685 1094.72 450.857
1989 1 66.0775 9.92774 656 116.178 1095.31 479.521
1990 0 65.1543 10.8205 705 107.895 1092.65 477.285
1991 0 69.1187 10.6773 738 107.772 1095.88 474.644
1992 0 70.0769 10.5313 738 109.004 1096.39 474.354
1993 0 74.0927 10.3384 766 108.349 1096.22 471.753
1994 0 76.078 10.3841 790 109.113 1095.97 469.554
1995 0 77.2763 10.3007 796 107.847 1095.29 471.452
1996 0 80.2578 12.5471 1007 103.982 1095.21 469.055
1997 0 82.2107 10.8137 889 108.503 1095.19 467.037
1998 0 86.2635 12.1372 1047 105.916 1094.71 468.16
1999 0 87.2539 10.5669 922 110.066 1094.93 465.375
2000 0 87.2662 10.3362 902 112.302 1095.04 461.656
2001 0 90.1569 10.1379 914 112.646 1094.58 460.121
2002 0 95.3072 11.017 1050 111.396 1094.42 459.041
2003 0 99.5291 11.6448 1159 110.436 1094.44 460.99
2004 0 102.125 11.0844 1132 111.91 1094.88 457.624
2005 0 101.23 10.4811 1061 114.916 1093.64 448.556
2006 0 105.263 10.6685 1123 114.272 1094.19 450.565
2007 0 108.396 12.2698 1330 111.885 1093.16 448.402
2008 0 113.23 11.3662 1287 118.432 1093.32 448.786
2009 0 115.253 10.837 1249 116.659 1093.44 446.205
2010 0 119.24 9.59407 1144 119.911 1093.22 444.526
2011 0 123.362 10.9839 1355 116.312 1093.24 446.506
2012 1 67.1588 8.17466 549 110.743 1093.24 472.863
2013 0 67.3392 8.52401 574 107.922 1093.82 471.469
2014 0 72.261 9.74247 704 105.175 1094.12 473.07
2015 0 74.2994 12.1939 906 106.297 1094.02 473.708
2016 0 75.0926 12.3314 926 106.873 1095.06 474.094
2017 0 78.0437 12.0189 938 108.403 1095.34 472.529
2018 0 81.059 13.4593 1091 105.404 1095.56 472.216
2019 0 83.1598 12.6503 1052 107.983 1095.56 470.952
2020 0 85.103 12.0795 1028 109.978 1094.77 468.984
2021 0 89.2975 12.7327 1137 109.282 1094.86 469.668
2022 0 90.0682 13.2788 1196 110.391 1094.47 465.926
2023 0 91.1361 11.4993 1048 115.662 1094.6 466.424
2024 0 99.1395 12.5076 1240 120.384 1095 462.969
2025 0 98.1438 12.5428 1231 121.701 1094.88 462.959
2026 0 100.059 11.943 1195 122.896 1095.13 461.748
2027 0 103.134 12.1589 1254 122.904 1095.32 458.798
2028 0 106.096 12.6018 1337 120.992 1095.35 458.167
2029 0 110.113 11.9514 1316 122.237 1095.54 456.481
2030 0 110.116 11.3062 1245 123.456 1095.29 455.48
2031 0 116.169 12.7228 1478 117.973 1092.92 452.794
2032 0 121.456 12.7618 1550 118.412 1093.1 452.634
2033 0 123.326 11.9277 1471 120.493 1092.93 451.221
2034 1 71.2783 11.8129 842 110.951 1092.5 477.64
2035 0 72.0821 12.8603 927 107.12 1092.04 477.554
2036 0 74.1211 12.4796 925 108.65 1092.3 474.05
2037 0 76.1375 11.7551 895 111.105 1091.71 472.793
2038 0 79.0815 12.2911 972 110.077 1092.07 471.646
2039 0 82.1485 13.3539 1097 107.96 1091.89 472.711
2040 0 83.0908 11.6018 964 114.284 1092.23 470.952
2041 0 86.1055 12.7402 1097 111.301 1092.46 471.366
2042 0 89.0908 12.7061 1132 112.446 1092.2 469.059
2043 0 90.0829 12.2776 1106 115.805 1092.2 467.78
2044 0 95.2581 12.8808 1227 113.687 1091.92 466.463
2045 0 96.102 13.2463 1273 114.831 1091.85 463.622
2046 0 100.102 14.1456 1416 112.891 1091.87 464.077
2047 0 102.179 13.4274 1372 115.878 1091.94 461.325
2048 0 106.136 13.3979 1422 116.52 1092.21 463.045
2049 0 109.128 12.8657 1404 118.795 1091.88 459.187
2050 0 111.127 12.8682 1430 120.184 1091.46 459.115
2051 0 114.111 13.4167 1531 120.317 1092.05 458.812
2052 0 118.157 13.3806 1581 120.855 1091.71 456.034
2053 0 122.472 11.8068 1446 123.976 1091.33 454.105
2054 0 124.169 11.9514 1484 117.379 1093.39 450.89
2055 1 69.0434 10.4137 719 111.673 1092.85 478.057
2056 0 70.1105 10.3408 725 111.883 1092.32 476.651
2057 0 73.2197 10.5573 773 109.939 1093.92 474.245
2058 0 76.2553 11.4222 871 106.986 1093.34 469.808
2059 0 78.2433 10.9402 856 108.222 1093.47 468.041
2060 0 81.4309 12.1207 987 105.146 1093.47 469.079
2061 0 83.3879 10.625 886 111.005 1093.34 465.479
2062 0 86.1554 12.5587 1082 109.015 1093.31 472.26
2063 0 89.1808 12.0878 1078 110.779 1093.54 469.871
2064 0 92.1817 11.5207 1062 112.245 1093.52 466.968
2065 0 96.3218 12.7385 1227 109.463 1093.48 467.039
2066 0 97.2398 12.6286 1228 111.264 1094.4 465.066
2067 0 99.1892 12.5518 1245 113.175 1094.63 462.424
2068 0 103.366 12.3251 1274 114.458 1094.12 460.414
2069 0 107.318 12.6634 1359 114.527 1093.34 461.244
2070 0 111.366 12.7687 1422 113.181 1093.37 457.255
2071 0 112.194 12.5408 1407 115.447 1094.08 455.694
2072 0 115.212 12.6722 1460 116.762 1094.05 455.672
2073 0 119.415 13.5159 1614 115.728 1094.09 452.87
2074 0 121.37 12.087 1467 119.01 1094.35 450.163
2075 0 122.331 12.3926 1516 117.626 1094.33 449.581
2076 0 130.679 13.0626 1707 117.915 1094.21 441.843
2077 0 135.687 13.4722 1828 118.027 1094.67 442.33
2078 1 76.349 11.2248 857 113.481 1094.59 471.331
2079 0 78.287 11.7516 920 111.596 1094.14 472.507
2080 0 81.1149 11.9707 971 109.449 1095.15 472.165
2081 0 81.089 11.5059 933 111.731 1094.68 469.543
2082 0 84.1262 11.2212 944 111.698 1094.27 469.934
2083 0 88.2534 12.2148 1078 119.184 1093.79 471.588
2084 0 92.1804 12.9529 1194 117.338 1094.03 469.201
2085 0 93.1083 12.1471 1131 122.183 1094.51 463.627
2086 0 96.1417 13.0744 1257 118.94 1094.85 463.722
2087 0 98.2248 10.5371 1035 124.912 1094.86 465.343
2088 0 103.32 13.8599 1432 120.721 1093.93 461.853
2089 0 105.163 11.5916 1219 127.314 1094.19 458.258
2090 0 110.202 13.0578 1439 122.813 1093.83 457.798
2091 0 111.189 12.6542 1407 124.84 1093.38 454.682
2092 0 116.388 14.1853 1651 120.292 1093.57 453.767
2093 0 120.266 12.7135 1529 123.763 1093.81 452.785
2094 1 67.0299 12.5317 840 115.956 1094.4 479.655
2095 0 66.0699 11.0035 727 120.279 1094.57 478.748
2096 0 67.1693 10.7787 724 116.733 1091.73 475.38
2097 0 72.1538 12.903 931 106.146 1092.33 477.422
2098 0 74.1337 12.1267 899 109.524 1092.3 475.375
2099 0 75.073 11.5088 864 111.1 1092.09 473.981
2100 0 76.069 11.437 870 105.075 1093.24 467.531
2101 0 79.1183 10.5285 833 107.646 1092.87 465.964
2102 0 81.1621 11.4462 929 106.096 1093.02 466.62
2103 0 82.095 11.3162 929 106.14 1093.67 466.886
2104 0 85.2604 11.4942 980 106.766 1093.29 461.198
2105 0 85.1854 11.1404 949 108.708 1093.12 458.863
2106 0 88.2676 11.839 1045 107.292 1093.24 459.797
2107 0 91.1811 12.2174 1114 107.031 1092.86 460.767
2108 0 95.1727 10.854 1033 109.939 1093.24 458.703
2109 0 97.1303 11.3971 1107 110.386 1093.29 456.324
2110 0 99.2777 11.765 1168 109.83 1093.03 450.878
2111 0 103.114 12.0352 1241 110.003 1093.95 451.804
2112 0 107.132 12.0038 1286 109.426 1093.45 452.66
2113 0 111.068 11.3444 1260 111.013 1093.26 450.524
2114 0 115.048 11.7951 1357 108.978 1093.15 448.678
2115 0 117.21 11.3728 1333 110.194 1093.86 453.625
2116 0 119.241 10.8268 1291 112.73 1093.81 444.921
2117 0 126.19 13.4639 1699 107.364 1093.57 443.473
2118 1 69.0445 10.8336 748 102.507 1094.88 473.91
2119 0 69.1555 10.4258 721 112.731 1093.98 465.562
2120 0 73.1487 11.0597 809 113.365 1093.93 466.637
2121 0 77.0904 10.9352 843 110.48 1094.47 466.625
2122 0 75.1498 10.9515 823 112.474 1094.78 463.905
2123 0 79.0932 11.6192 919 111.02 1094.18 462.011
2124 0 84.0676 11.5978 975 111.009 1093.78 461.275
2125 0 88.1641 10.9682 967 111.139 1094.58 461.739
2126 0 87.0766 11.243 979 113.591 1094.16 455.774
2127 0 90.1847 11.3545 1024 111.609 1093.46 460.325
2128 0 93.2168 11.1997 1044 113.476 1093.64 453.52
2129 0 93.1617 10.5837 986 115.703 1093.7 450.276
2130 0 101.223 13.4259 1359 107.314 1093.51 453.459
2131 0 103.217 11.7132 1209 111.515 1093.35 451.101
2132 0 108.3 13.0748 1416 109.867 1093.17 450.181
2133 0 110.194 12.6051 1389 111.659 1093.04 449.818
2134 0 113.174 13.1921 1493 110.794 1092.96 445.555
2135 0 117.424 12.4846 1466 112.648 1092.86 443.591
2136 0 121.143 11.6639 1413 114.202 1092.91 443.238
2137 0 126.161 11.6993 1476 114.009 1093.43 442.638
2138 0 128.251 13.0213 1670 111.487 1092.43 437.144
2139 0 134.245 12.6038 1692 111.956 1091.83 436.952
2140 1 74.2317 8.59471 638 107.157 1093.12 469.592
2141 0 79.2007 10.7196 849 102.274 1092.82 467.794
2142 0 80.19 11.8095 947 99.8933 1093 466.497
2143 0 81.1928 9.86541 801 105.019 1093.36 463.187
2144 0 85.1874 11.774 1003 102.167 1093.09 462.144
2145 0 87.1946 11.1131 969 104.228 1092.83 460.344
2146 0 88.1011 12.6219 1112 102.743 1092.8 457.954
2147 0 93.2179 13.0233 1214 102.304 1093.17 457.978
2148 0 97.143 13.3309 1295 101.18 1093.31 458.659
2149 0 99.1604 12.1319 1203 107.072 1092.81 454.303
2150 0 102.239 14.4759 1480 102.634 1093.18 453.63
2151 0 103.2 14.157 1461 106.287 1093.01 451.487
2152 0 106.131 13.474 1430 108.544 1093.36 450.697
2153 0 108.221 11.0145 1192 115.264 1093.42 447.677
2154 0 113.132 13.1704 1490 111.311 1093.24 447.655
2155 0 115.195 13.0735 1506 112.942 1093.39 447.362
2156 0 118.284 12.3854 1465 114.734 1093.27 445.496
2157 0 123.179 13.4601 1658 114.034 1093.45 440.949
2158 0 127.387 12.7643 1626 113.871 1093.69 443.014
2159 0 133.22 13.5941 1811 112.116 1093.67 439.546
2160 0 134.162 12.0749 1620 116.864 1094.02 435.507
2161 0 141.336 12.4951 1766 114.738 1094.41 433.453
2162 0 145.211 11.9895 1741 116.651 1094.14 430.35
2163 1 81.4365 10.9902 895 110.296 1093.12 463.57
2164 0 83.2808 12.4038 1033 107.783 1093.71 461.597
2165 0 86.2388 12.2335 1055 101.136 1093.47 462.276
2166 0 87.128 11.1216 969 105.234 1093.11 460.135
2167 0 90.205 10.8974 983 106.2 1093.35 458.146
2168 0 94.1759 12.4873 1176 102.949 1093.16 458.8
2169 0 98.1396 11.9422 1172 105.11 1093.65 455.15
2170 0 98.1189 13.1983 1295 103.646 1093.2 454.2
2171 0 103.207 12.2181 1261 105.844 1093.53 452.807
2172 0 104.09 11.4804 1195 107.709 1093.65 451.051
2173 0 109.436 11.9339 1306 107.06 1093.64 449.612
2174 0 116.304 13.2498 1541 103.145 1092.79 450.711
2175 0 115.227 11.8289 1363 108.475 1093.05 445.676
2176 0 122.254 12.3922 1515 107.824 1092.81 445.205
2177 1 65.3004 9.32613 609 108.737 1093.58 469.806
2178 0 71.233 10.4727 746 104.362 1092.75 472.221
2179 0 74.1577 10.9092 809 105.382 1093.33 469.354
2180 0 74.083 11.0552 819 107.136 1094.08 467.77
2181 0 78.1263 9.95824 778 109.518 1094.08 467.256
2182 0 82.1371 12.5644 1032 105.062 1093.4 468.451
2183 0 83.2625 9.8844 823 107.255 1093.21 465.052
2184 0 86.3228 11.4454 988 104.906 1093.2 464.185
2185 0 89.2875 11.1102 992 106.714 1092.99 463.608
2186 0 92.3133 11.1143 1026 108.814 1092.7 461.376
2187 0 93.3087 12.2604 1144 108.734 1093.02 457.316
2188 0 97.2844 11.1529 1085 112.556 1092.61 457.298
2189 0 99.1892 11.5738 1148 115.45 1092.37 452.868
2190 0 101.41 11.1331 1129 117.398 1092.57 455.788
2191 0 105.361 12.1487 1280 115.471 1092.63 453.953
2192 0 110.298 11.2876 1245 118.198 1092.33 451.227
2193 0 111.213 11.995 1334 117.882 1092.47 449.676
2194 0 112.386 11.8253 1329 118.154 1092.38 450.868
2195 0 118.411 12.3637 1464 117.135 1092.6 448.629
2196 0 118.252 11.3571 1343 120.373 1093 440.206
2197 0 129.38 12.5445 1623 115.383 1092.87 442.276
2198 1 72.1749 9.93421 717 112.607 1091.97 466.596
2199 0 76.1355 11.7291 893 107.349 1091.36 466.797
2200 0 80.2285 11.9534 959 101.664 1094.31 467.101
2201 0 81.2382 12.014 976 103.006 1093.34 466.195
2202 0 83.2758 10.9035 908 106.42 1093.31 464.564
2203 0 88.4644 12.31 1089 102.834 1092.79 463.45
2204 0 92.3402 12.1399 1121 102.832 1093.87 463.757
2205 0 94.2131 11.5483 1088 105.278 1093.22 462.201
2206 0 95.4248 10.951 1045 109.318 1093.24 457.666
2207 0 100.403 12.7985 1285 108.387 1093.15 457.12
2208 0 102.344 12.155 1244 108.767 1093.31 460.112
2209 0 106.17 12.1315 1288 110.602 1093.91 459.096
2210 0 110.19 11.1807 1232 112.771 1093.78 458.575
2211 0 111.266 11.2344 1250 114.906 1093.42 452.15
2212 0 115.299 11.596 1337 113.74 1093.82 455.266
2213 0 120.272 12.1142 1457 113.312 1093.48 450.428
2214 0 123.318 11.6771 1440 114.304 1093.58 449.222
2215 0 128.301 13.3046 1707 111.467 1093.3 448.291
2216 0 130.179 11.3844 1482 115.929 1093.38 444.658
2217 0 134.309 11.3916 1530 115.397 1093.57 445.507
2218 0 140.271 12.1765 1708 114.891 1093.56 439.202
2219 0 144.242 11.0786 1598 117.191 1093.46 439.179
2220 1 83.1051 11.4674 953 109.097 1094.25 471.431
2221 0 85.0529 12.1454 1033 109.023 1094.51 471.721
2222 0 88.0953 13.5421 1193 110.877 1094.42 467.244
2223 0 89.1201 12.1634 1084 115.868 1094.58 467.068
2224 0 92.0581 12.6225 1162 115.73 1094.51 465.127
2225 0 96.0671 13.3344 1281 113.571 1094.46 466.722
2226 0 99.2723 12.914 1282 115.796 1093.65 461.405
2227 0 101.231 12.1801 1233 117.622 1093.86 462.537
2228 0 102.233 13.7529 1406 115.088 1093.26 458.156
2229 0 105.222 11.6801 1229 118.98 1093.96 461.264
2230 0 110.194 14.4927 1597 113.019 1093.31 456.431
2231 0 112.244 14.7803 1659 113.761 1093.25 451.958
2232 0 114.107 14.022 1600 117.053 1093.15 452.263
2233 0 117.097 13.3736 1566 112.529 1093.76 456.683
2234 0 120.121 12.1794 1463 115.271 1093.61 455.388
2235 0 124.132 11.6731 1449 116.244 1093.77 452.267
2236 0 128.112 12.2939 1575 116.585 1094.26 449.693
2237 0 134.126 13.8973 1864 112.458 1094.16 447.516
2238 1 77.0548 12.6014 971 111.481 1094.44 474.406
2239 0 79.1126 11.8312 936 113.677 1093.81 472.987
2240 0 79.1406 10.3108 816 110.542 1093.1 464.821
2241 0 81.0969 12.6022 1022 105.372 1093.49 466.804
2242 0 84.1132 11.3894 958 108.145 1093.46 464.428
2243 0 85.1467 11.7444 1000 108.978 1093.45 463.404
2244 0 89.1132 11.7715 1049 102.317 1093.43 465.344
2245 0 92.248 11.6642 1076 102.924 1093.23 464.238
2246 0 93.1964 12.64 1178 101.74 1093.44 459.836
2247 0 98.2227 11.1583 1096 105.609 1092.92 456.61
2248 0 101.413 11.606 1177 104.912 1093.4 456.283
2249 0 103.203 12.1605 1255 104.569 1092.75 455.757
2250 0 107.277 12.0529 1293 110.766 1092.46 456.694
2251 0 110.181 11.3903 1255 110.625 1091.79 455.931
2252 0 116.293 11.385 1324 109.895 1092.59 454.893
2253 1 64.1639 9.94329 638 104.876 1091.62 482.462
2254 0 67.0517 10.8871 730 103.781 1091.35 478.956
2255 0 69.0774 11.2048 774 103.5 1090.65 477.795
2256 0 72.0875 10.8063 779 101.312 1091.77 476.299
2257 0 73.0998 11.0397 807 102.489 1091.6 473.442
2258 0 76.1464 11.7799 897 100.654 1091.2 474.77
2259 0 76.2156 10.6934 815 103.034 1093.04 470.271
2260 0 78.2347 11.1971 876 102.541 1092.94 469.918
2261 0 81.1032 11.8244 959 102.193 1092.28 471.806
2262 0 82.1805 11.0123 905 105.107 1092.35 468.462
2263 0 87.2148 12.5552 1095 102.26 1092.72 469.367
2264 0 92.2923 12.7963 1181 103.554 1091.73 470.321
2265 0 93.3678 12.4133 1159 106.087 1091.86 471.401
2266 0 97.1951 12.5418 1219 107.235 1090.95 473.828
2267 0 99.1267 13.9115 1379 106.378 1090.11 472.433
2268 0 101.209 13.0522 1321 109.722 1089.78 473.061
2269 0 104.152 12.2417 1275 112.144 1089.63 473.762
2270 0 107.1 12.8571 1377 112.695 1088.92 473.3
2271 0 110.126 12.9579 1427 113.245 1089.3 470.254
2272 0 114.276 13.1699 1505 112.819 1089.36 469.112
2273 0 116.165 11.5095 1337 117.211 1089.62 471.526
2274 0 118.072 12.4839 1474 117.709 1089.82 464.083
2275 0 124.227 11.9298 1482 119.361 1089.01 460.468
2276 1 72.1521 12.2242 882 115.508 1088.34 491.211
2277 0 74.1508 13.2568 983 114.832 1088.44 489.612
2278 0 73.1365 13.0988 958 117.279 1088.2 486.71
2279 0 77.1199 13.5374 1044 116.951 1087.44 485.855
2280 0 82.1564 14.2777 1173 114.921 1087.51 485.224
2281 0 81.0748 13.6541 1107 117.996 1087.35 483.671
2282 0 83.0978 13.0569 1085 120.411 1086.87 483.038
2283 0 88.0939 14.3143 1261 116.734 1087.18 480.556
2284 0 90.0844 13.1321 1183 119.371 1087.21 481.536
2285 0 93.2402 14.8863 1388 116.494 1087.37 477.122
2286 0 99.1749 14.7114 1459 115.538 1087.37 477.217
2287 0 100.131 14.4511 1447 117.726 1087.43 475.281
2288 0 103.106 14.6354 1509 117.71 1087.21 474.963
2289 0 105.113 14.727 1548 119.508 1086.23 473.912
2290 0 108.154 13.1849 1426 123.717 1086.47 474.126
2291 0 112.093 15.273 1712 119.717 1087.15 472.422
2292 0 115.124 14.1152 1625 124.225 1086.62 471.298
2293 0 119.197 14.1865 1691 123.047 1087.33 468.868
2294 0 123.194 13.7831 1698 125.219 1087.99 464.883
2295 0 123.194 13.7994 1700 158.434 1087.99 464.687
2296 1 72.1185 12.632 911 122.316 1088.75 492.63
2297 0 74.1229 11.9126 883 126.071 1088.34 490.301
2298 0 78.0986 13.0476 1019 121.648 1088.17 491.86
2299 0 79.1238 14.4457 1143 121.408 1088.05 487.001
2300 0 81.1906 13.9918 1136 121.266 1088.03 485.628
2301 0 85.1203 13.428 1143 121.307 1088.16 482.361
2302 0 88.0694 14.182 1249 119.641 1087.86 482.612
2303 0 91.0624 13.1448 1197 123.175 1087.59 480.52
2304 0 94.0835 14.6997 1383 119.05 1087.57 479.781
2305 0 96.1259 13.2326 1272 124.086 1087.84 477.6
2306 0 100.092 15.2659 1528 118.535 1087.71 478.245
2307 0 103.067 14.7185 1517 121.566 1087.56 475.86
2308 0 105.097 14.4152 1515 123.377 1087.59 472.723
2309 0 109.05 14.1861 1547 124.135 1086.93 471.757
2310 0 112.065 14.9824 1679 122.426 1086.6 470.149
2311 0 116.08 14.5934 1694 122.924 1086.61 469.09
2312 0 120.146 14.9652 1798 121.847 1086.15 466.661
2313 0 123.146 14.0727 1733 124.968 1086.69 467.141
2314 0 128.167 15.0351 1927 122.053 1087.01 463.652
2315 0 130.34 14.631 1907 123.86 1086.56 462.316
2316 0 134.151 14.2899 1917 125.637 1086.81 457.003
2317 0 138.113 14.0609 1942 125.777 1086.95 457.912
2318 0 143.158 14.8298 2123 123.987 1086.93 455.301
2319 0 149.141 15.2607 2276 122.928 1087.07 450.217
2320 0 153.179 14.421 2209 125.841 1087.11 447.043
2321 0 156.159 13.8065 2156 128.703 1087.33 446.255
2322 0 159.157 13.9862 2226 129.887 1087.81 439.082
2323 0 164.194 13.5328 2222 130.478 1087.57 435.808
2324 0 170.218 14.0349 2389 130.15 1088.6 434.242
2325 0 175.126 14.0756 2465 131.043 1088.21 432.256
2326 0 179.173 13.9865 2506 131.752 1088.24 430.406
2327 0 185.217 14.5937 2703 130.388 1088.12 430.324
2328 0 192.21 13.9847 2688 132.969 1087.89 424.333
2329 0 194.277 13.7073 2663 134.885 1087.65 416.531
2330 0 204.287 14.5286 2968 132.202 1087.47 415.65
2331 0 206.219 13.5245 2789 135.225 1087.25 408.577
2332 0 216.395 15.3054 3312 129.98 1087.5 404.419
2333 0 226.459 14.9387 3383 127.463 1087.44 406.808
2334 1 56.2406 11.2374 632 101.658 1087.42 490.271
2335 0 54.1133 8.37133 453 105.879 1087.95 489.113
2336 0 55.0246 8.92328 491 106.684 1088.09 487.037
2337 0 60.1582 9.8241 591 102.712 1088.26 489.702
2338 0 62.103 10.5631 656 108.264 1085.91 490.662
2339 0 65.165 11.0028 717 107.517 1086.02 484.237
2340 0 68.1979 12.6983 866 103.418 1086.25 485.896
2341 0 70.1661 12.727 893 104.691 1086.39 483.919
2342 0 72.1965 11.3856 822 106.612 1086.72 480.135
2343 0 76.186 12.1413 925 105.068 1086.44 481.523
2344 0 77.1949 12.5656 970 103.986 1086.68 480
2345 0 80.2658 12.9445 1039 103.831 1086.87 478.915
2346 0 81.126 12.3881 1005 106.142 1087.38 479.522
2347 0 83.1382 12.9303 1075 106.436 1087.19 475.646
2348 0 83.3044 11.428 952 110.101 1087.41 474.254
2349 0 86.1367 12.2712 1057 109.612 1089.07 475.721
2350 0 91.1864 12.2606 1118 109.111 1088.71 473.71
2351 0 92.198 12.9938 1198 108.386 1089.48 471.811
2352 0 95.2666 12.9426 1233 110.388 1089.12 467.818
2353 0 100.211 12.1543 1218 117.51 1088.8 467.918
2354 0 102.145 13.2557 1354 113.236 1088.74 466.513
2355 0 103.234 12.4184 1282 114.799 1089.03 466.762
2356 0 105.329 12.3897 1305 116.538 1088.96 461.366
2357 0 110.25 11.3379 1250 118.13 1089.57 460.828
2358 1 64.0914 9.01838 578 110.799 1089.81 480.206
2359 0 70.1319 11.9917 841 114.411 1088.63 484.024
2360 0 69.1832 11.8381 819 112.071 1089.45 480.27
2361 0 75.1273 13.5104 1015 100.606 1088.9 476.085
2362 0 75.1814 13.248 996 104.18 1089.53 475.058
2363 0 76.0878 12.0913 920 109.102 1090.96 478.762
2364 0 72.1017 11.04 796 107.867 1089.44 477.481
2365 1 86.2549 16.3469 1410 94.5532 1090.25 466.418
2366 0 88.2112 14.4199 1272 99.978 1090.04 468.355
2367 0 88.246 14.6296 1291 101.23 1090.07 467.355
2368 0 89.2398 13.7046 1223 103.617 1090.09 469.045
2369 0 89.096 11.3024 1007 109.549 1089.92 473.129
2370 0 91.1904 12.0407 1098 109.924 1089.89 469.146
2371 0 95.1546 11.8859 1131 109.92 1090.02 468.463
2372 0 97.2438 11.3221 1101 111.081 1090.58 463.876
2373 0 98.2052 11.476 1127 109.399 1090.65 468.079
2374 0 103.27 11.6103 1199 109.611 1090.55 459.822
2375 0 106.15 11.3142 1201 109.833 1090.62 459.862
2376 0 108.293 11.5427 1250 110.641 1090.99 455.889
2377 0 113.194 11.9176 1349 108.965 1090.28 456.54
2378 1 63.1822 11.0316 697 114.207 1091.32 479.756
2379 0 65.1618 10.8806 709 114.57 1091.65 476.966
2380 0 67.2041 12.7522 857 110.211 1091.73 473.461
2381 0 69.1026 11.0126 761 110.62 1091.3 469.603
2382 0 74.1323 12.3023 912 105.058 1090.91 474.613
2383 0 74.1045 11.9696 887 106.99 1091.23 471.183
2384 0 76.1165 11.9685 911 107.292 1090.81 469.339
2385 0 76.261 10.9492 835 109.846 1091.48 470.32
2386 0 80.1921 11.3602 911 109.026 1091.19 465.609
2387 0 84.1919 10.7611 906 108.882 1091.84 470.35
2388 0 88.165 13.1798 1162 102.034 1091.33 469.489
2389 0 88.3515 12.3937 1095 103.113 1091.08 467.213
2390 0 91.3324 12.5914 1150 103.381 1091.48 465.629
2391 0 94.2418 12.5634 1184 103.843 1091.28 462.405
2392 0 95.1747 12.787 1217 105.651 1090.37 460.301
2393 0 99.2437 13.0588 1296 105.01 1090.95 457.794
2394 0 102.442 13.6663 1400 105.006 1090.4 459.489
2395 0 105.323 12.8273 1351 106.728 1090.74 457.563
2396 0 108.207 13.7237 1485 105.644 1090.79 454.155
2397 0 111.347 14.1091 1571 106.199 1090.48 453.127
2398 0 114.191 14.6246 1670 106.265 1090.74 449.431
2399 0 115.273 12.7002 1464 112.699 1090.84 445.656
2400 0 123.375 14.8653 1834 107.347 1090.46 447.292
2401 0 126.242 13.7672 1738 110.238 1090 441.785
2402 0 132.169 14.89 1968 107.489 1090.65 441.931
2403 0 137.328 14.9132 2048 107.389 1090.79 441.828
2404 0 140.344 15.3765 2158 106.509 1090.88 441.179
2405 0 145.287 14.9084 2166 107.896 1090.71 434.634
2406 0 152.284 16.0621 2446 105.056 1090.63 435.513
2407 0 157.263 15.331 2411 106.892 1091.5 434.859
2408 0 162.451 15.6971 2550 107.592 1091.3 429.33
2409 0 167.227 15.769 2637 107.376 1091.78 425.278
2410 1 89.1385 9.76009 870 110.811 1092.06 463.316
2411 0 93.0849 11.9461 1112 106.395 1092.58 460.705
2412 0 95.1272 11.3637 1081 108.135 1091.92 458.744
2413 0 98.2223 12.8179 1259 105.58 1091.32 458.769
2414 0 101.133 11.9348 1207 107.384 1092.49 457.159
2415 0 108.133 13.6498 1476 103.736 1091.57 456.167
2416 0 108.112 12.0523 1303 108.437 1090.91 454.627
2417 0 113.197 13.4015 1517 106.565 1090.76 451.763
2418 0 117.191 13.0129 1525 107.742 1091.1 448.47
2419 0 120.131 12.553 1508 109.777 1091.18 446.263
2420 0 127.206 14.8577 1890 113.593 1091.32 451.762
2421 0 131.23 14.0592 1845 115.894 1090.84 449.885
2422 0 136.23 14.6737 1999 113.74 1091.02 448.212
2423 0 141.175 15.0877 2130 109.51 1091.15 444.221
2424 0 144.243 14.4339 2082 110.337 1092.05 440.94
2425 0 148.227 14.7814 2191 111.533 1092.08 438.733
2426 0 154.255 14.0936 2174 112.498 1091.92 436.238
2427 0 159.338 13.9452 2222 114.869 1091.91 436.146
2428 0 163.244 14.2609 2328 115.925 1091.98 431.295
2429 0 168.273 13.3296 2243 118.011 1092.25 431.789
2430 0 173.374 14.835 2572 116.003 1091.98 430.028
2431 0 178.275 14.2701 2544 118.085 1092.31 421.806
2432 0 184.36 14.2113 2620 118.457 1092.3 422.049
2433 0 189.443 13.9356 2640 119.68 1091.77 420.362
2434 0 194.31 14.5489 2827 119.645 1091.12 413.889
2435 0 200.347 14.5697 2919 120.132 1091.23 411.951
2436 0 207.356 15.1768 3147 118.962 1091.32 408.062
2437 0 214.426 15.5811 3341 118.435 1091.06 407.639
2438 0 220.572 15.0926 3329 121.074 1090.79 402.558
2439 0 227.39 15.1502 3445 120.294 1091.22 402.858
2440 0 235.543 15.7509 3710 120.184 1091.24 397.277
2441 0 241.621 14.7959 3575 123.938 1091.7 393.214
2442 0 252.544 15.9101 4018 121.024 1091.66 386.428
2443 0 252.678 14.0376 3547 124.273 1091.53 392.546
2444 0 252.418 10.8075 2728 125.49 1092.1 407.605
2445 0 250.445 9.89839 2479 127.39 1091.48 407.663
2446 0 251.476 10.8599 2731 125.178 1091.73 409.162
2447 1 225.268 13.424 3024 124.615 1091.43 399.566
2448 0 235.28 14.0598 3308 123.316 1090.52 394.189
2449 0 242.353 13.8971 3368 124.17 1091.45 392.114
2450 0 252.354 14.9314 3768 122.748 1092.07 386.774
2451 0 258.366 14.104 3644 125.67 1092.3 378.11
2452 1 297.515 9.59281 2854 129.437 1092.08 395.242
2453 0 295.535 9.77211 2888 130.569 1092.25 389.793
2454 0 297.794 21.8473 6506 106.831 1092.62 353.963
2455 0 299.825 19.5247 5854 112.81 1092.37 359.785
2456 0 310.591 21.4269 6655 108.374 1092.92 352.687
2457 0 317.648 17.107 5434 119.024 1092.35 346.189
2458 0 328.604 18.0248 5923 114.441 1091.55 347.142
2459 0 325.294 11.2575 3662 128.261 1091.11 362.815
2460 0 326.566 11.1524 3642 127.961 1091.66 358.869
2461 0 324.332 9.95278 3228 127.109 1091.74 369.84
2462 0 323.424 10.8495 3509 128.463 1091.61 361.347
2463 0 326.497 10.5882 3457 128.188 1092 364.066
2464 0 326.355 10.0075 3266 125.118 1092.12 375.006
2465 0 327.563 8.4808 2778 127.846 1091.39 375.448
2466 1 311.48 14.0619 4380 121.748 1091.39 350.68
2467 1 336.771 25.9227 8730 91.8833 1091.19 316.944
2468 1 321.755 9.67507 3113 127.105 1091.21 360.661
2469 1 254.688 13.2358 3371 116.705 1090.81 378.979
2470 0 265.908 13.7228 3649 114.716 1091.36 378.905
2471 0 273.672 13.7025 3750 116.307 1091.14 370.386
2472 0 283.635 14.769 4189 111.85 1091.04 366.195
2473 0 293.715 13.8468 4067 113.328 1091.72 359.041
2474 1 305.603 13.9822 4273 112.79 1091.59 358.509
2475 0 313.496 17.4962 5485 104.839 1091.08 347.999
2476 0 323.667 17.759 5748 103.696 1091.68 348.046
2477 0 334.587 15.7508 5270 108.808 1091.99 333.78
2478 0 346.459 17.2632 5981 105.216 1091.66 332.04
2479 0 359.673 17.5409 6309 103.96 1091.87 325.402
2480 0 370.693 17.2919 6410 105.096 1091.74 318.363
2481 0 383.667 16.6889 6403 106.396 1091.75 316.804
2482 0 399.564 16.3829 6546 106.966 1091.6 305.85
2483 0 414.744 16.5717 6873 106.259 1091.72 288.484
2484 1 215.505 12.7375 2745 109.182 1090.98 404.257
2485 0 224.601 13.5974 3054 106.762 1092.18 392.589
2486 0 230.685 12.2635 2829 110.568 1092.48 395.061
2487 0 240.63 14.3789 3460 104.779 1091.85 388.742
2488 0 246.676 12.709 3135 108.319 1092.36 388.445
2489 1 264.853 20.147 5336 93.1539 1092.39 368.287
2490 0 263.7 17.7247 4674 100.142 1091.67 373.753
2491 0 271.73 17.6425 4794 101.051 1091.97 370.025
2492 0 278.869 16.4306 4582 103.387 1092.5 365.978
2493 1 204.551 12.9063 2640 108.513 1092.75 416.101
2494 0 209.763 13.0719 2742 111.33 1092.38 405.824
2495 0 216.545 12.2284 2648 114.317 1092.36 400.884
2496 0 222.673 15.0086 3342 107.921 1092.1 400.174
2497 0 231.581 13.7706 3189 110.795 1092.23 396.437
2498 0 239.716 14.8968 3571 108.23 1091.89 391.775
2499 0 246.497 14.8724 3666 108.834 1092.75 384.631
2500 0 254.538 14.9329 3801 109.089 1092.54 386.227
2501 0 263.605 14.9618 3944 109.33 1092.05 379.956
2502 0 269.45 16.2776 4386 106.084 1092.17 376.876
2503 0 278.558 16.6501 4638 105.954 1091.62 367.922
2504 0 286.361 16.1055 4612 107.508 1091.28 366.308
2505 0 295.384 15.8472 4681 109.047 1091.62 360.588
2506 0 302.419 14.427 4363 113.938 1091.71 355.457
2507 0 312.631 14.9313 4668 113.385 1091.36 349.391
2508 0 322.523 15.2733 4926 113.173 1091.31 352.118
2509 0 330.654 14.7737 4885 114.992 1091.93 345.295
2510 0 342.546 15.9541 5465 113.251 1091.99 339.43
2511 0 352.507 16.7316 5898 111.235 1092.35 336.274
2512 0 364.679 17.1027 6237 109.626 1091.98 326.927
2513 0 374.649 16.765 6281 111.359 1092.21 325.463
2514 0 386.726 15.4011 5956 114.896 1092.69 305.362
2515 0 398.736 14.9899 5977 118.766 1092.49 300.832
2516 0 413.813 15.6158 6462 117.456 1092.5 305.034
2517 0 426.667 15.6047 6658 118.872 1092.57 288.542
2518 0 58.1323 10.9234 635 104.575 1091.64 459.128
2519 0 58.1643 11.777 685 108.073 1091.29 427.796
2520 0 59.1273 11.7036 692 109.421 1090.57 436.169
2521 0 59.1626 11.3247 670 112.273 1092.18 441.14
2522 0 61.1737 13.3227 815 109.643 1093.05 447.145
2523 1 73.2886 16.2099 1188 94.2567 1092.45 442.95
2524 0 75.7509 16.1186 1221 96.8534 1093.47 435.556
2525 0 62.2169 17.1818 1069 103.327 1092.97 446.38
2526 0 63.2439 15.8592 1003 103.215 1091.51 449.531
2527 0 62.201 15.7393 979 109.884 1093.16 450.358
2528 0 63.1201 16.429 1037 104.764 1092.62 447.296
2529 0 63.1833 16.46 1040 111.792 1093.24 452.382
2530 0 65.1524 17.5895 1146 105.095 1093.09 453.257
2531 0 64.1075 15.6924 1006 111.936 1093.33 452.736
2532 0 64.1595 16.646 1068 114.257 1094.04 455.804
2533 0 63.2713 15.8208 1001 118.462 1093.89 457.912
2534 0 64.1942 15.8737 1019 117.575 1093.84 461.494
2535 0 66.1105 18.4388 1219 110.623 1093.95 467.608
2536 0 63.1797 16.1602 1021 118.925 1093.74 474.995
2537 0 65.151 16.3773 1067 117.662 1093.92 473.771
2538 0 64.1121 16.2528 1042 119.129 1092.65 472.553
2539 0 67.0955 18.4811 1240 111.552 1092.59 472.926
2540 0 65.0929 16.4688 1072 119.081 1092.65 471.894
2541 0 65.0445 16.6194 1081 119.71 1092.37 474.618
2542 0 64.1845 16.2345 1042 121.353 1092.42 472.99
2543 0 66.1131 16.5625 1095 119.111 1092.29 474.32
2544 0 65.0929 15.885 1034 122.59 1092 474.436
2545 0 66.0427 17.095 1129 118.264 1092.41 473.57
2546 0 66.061 16.2426 1073 121.031 1092.66 473.034
2547 0 65.1843 16.2616 1060 121.731 1092.81 473.273
2548 0 68.0958 18.5327 1262 113.032 1093.05 473.503
2549 0 67.1501 17.5428 1178 116.133 1093.17 473.702
2550 0 67.236 17.5204 1178 116.086 1093.91 472.754
2551 0 67.0608 17.0442 1143 117.951 1093.28 472.474
