time division length width area intensity CMx CMy
0 0 120.225 11.7862 1417 121.817 1193.66 440.912
1 0 124.355 12.4643 1550 120.472 1192.85 438.09
2 1 71.275 11.9958 855 116.016 1193.3 463.174
3 0 72.1986 12.5487 906 113.025 1192.66 459.212
4 0 72.1698 13.1495 949 111.62 1192.7 457.882
5 0 77.2089 13.198 1019 113.804 1192.73 459.332
6 0 79.1852 13.4495 1065 113.529 1193.21 455.493
7 0 80.1019 11.9098 954 113.638 1193.88 460.919
8 0 82.0354 12.0192 986 114.503 1194.51 458.993
9 0 87.0776 12.0697 1051 112.439 1194.45 458.043
10 0 90.1364 11.8154 1065 113.455 1193.35 458.46
11 0 93.0761 12.6133 1174 110.639 1193.77 457.945
12 0 95.0811 10.6435 1012 114.933 1195.74 456.994
13 0 96.082 11.8961 1143 114.327 1195.2 450.839
14 0 101.162 13.157 1331 110.579 1195.44 452.927
15 0 105.069 12.5822 1322 110.884 1195.4 448.261
16 1 62.0647 10.1668 631 115.58 1194.96 470.613
17 0 65.1314 12.4824 813 113.016 1195 468.555
18 0 66.1678 13.2844 879 110.766 1194.75 467.107
19 0 67.1057 12.8752 864 112.278 1194.61 466.618
20 0 70.0876 13.6115 954 109.61 1194.08 465.035
21 0 73.1769 13.2966 973 109.184 1194.59 463.809
22 0 75.1056 13.9404 1047 108.012 1194.67 462.571
23 0 79.1156 13.2717 1050 108.887 1194.17 460.586
24 0 82.096 12.5707 1032 111.066 1193.79 460.56
25 0 81.1209 12.7587 1035 111.775 1194.65 457.303
26 0 85.0707 14.0001 1191 109.182 1194.78 455.074
27 0 88.1187 13.9357 1228 109.379 1193.56 452.669
28 0 89.1633 13.3351 1189 111.953 1195.31 452.552
29 0 92.122 13.3627 1231 112.922 1194.55 452.518
30 0 97.1127 14.2721 1386 110.513 1194.21 450.208
31 0 99.1703 13.0987 1299 114.182 1194.32 448.009
32 0 102.154 12.0015 1226 117.682 1194.58 445.139
33 0 103.221 13.8634 1431 120.259 1193.88 442.187
34 0 109.178 13.3451 1457 120.844 1194.67 442.117
35 0 109.195 13.2149 1443 121.572 1194.72 438.847
36 1 58.069 11.8652 689 116.524 1193.93 465.714
37 0 61.041 11.7462 717 115.351 1194.02 465.296
38 0 65.0748 12.647 823 108.566 1193.92 462.979
39 0 64.0673 12.7522 817 107.235 1193.55 463.465
40 0 66.1 11.4523 757 109.905 1193.82 463.555
41 0 68.1042 12.7892 871 107.228 1194.24 462.173
42 0 71.084 11.9155 847 108.57 1194.9 460.227
43 0 72.2086 12.4916 902 107.033 1194.41 456.517
44 0 75.1378 11.805 887 107.274 1195.04 455.754
45 0 81.489 13.2288 1078 102.565 1194.1 456.229
46 0 87.3744 13.2304 1156 102.053 1194.46 451.995
47 0 84.2169 13.5721 1143 103.457 1193.86 453.066
48 1 96.2899 13.1997 1271 98.5539 1193.83 445.04
49 0 96.3728 15.6268 1506 95.6966 1193.99 443.941
50 0 92.2729 13.6551 1260 103.498 1194.03 446.405
51 0 91.131 12.1144 1104 118.474 1193.78 444.477
52 0 94.2435 13.0619 1231 116.195 1193.96 441.336
53 1 108.177 16.1957 1752 102.368 1194.2 436.484
54 0 110.096 18.4294 2029 98.3164 1194.83 435.171
55 0 110.216 16.2045 1786 104.611 1194.58 436.808
56 0 111.153 17.1565 1907 104.245 1194.49 433.548
57 0 109.26 12.7402 1392 118.751 1193.72 439.134
58 0 112.141 13.1531 1475 118.624 1194.35 434.326
59 0 112.078 13.6244 1527 118.67 1194.11 432.744
60 0 114.153 12.8687 1469 121.515 1193.66 427.018
61 0 120.172 13.6471 1640 114.371 1193.57 422.425
62 0 124.194 12.255 1522 117.101 1194.08 427.118
63 0 128.098 13.9034 1781 114.166 1193.44 424.875
64 1 67.0795 11.6429 781 119.606 1194.56 451.895
65 0 72.0788 13.3465 962 113.323 1195.84 455.938
66 0 75.0761 12.2675 921 117.727 1195.4 451.097
67 0 78.0817 12.5766 982 117.554 1195.52 452.562
68 0 78.0672 12.7839 998 117.847 1194.9 449.194
69 0 89.0765 12.9888 1157 109.456 1194.92 453.426
70 0 87.0738 12.5526 1093 112.636 1195.04 454.234
71 0 89.111 12.49 1113 114.51 1195.3 449.621
72 0 91.1107 10.9427 997 118.848 1194.51 447.338
73 0 95.0874 12.0731 1148 116.069 1194.54 446.776
74 0 92.0345 11.4088 1050 121.183 1194.01 442.887
75 0 100.175 11.41 1143 118.478 1194.7 446.325
76 0 102.095 11.8126 1206 119.349 1194.4 439.264
77 0 104.283 12.9455 1350 117.25 1194.65 437.947
78 0 104.111 11.6894 1217 120.696 1194.19 437.222
79 0 107.197 11.4649 1229 123.097 1193.74 431.703
80 0 116.141 12.8379 1491 117.958 1193.77 430.847
81 0 123.178 13.3546 1645 115.838 1193.96 431.734
82 0 126.26 13.5119 1706 117.726 1193.65 427.624
83 0 128.358 13.3066 1708 120.912 1193.8 422.115
84 0 138.252 13.4393 1858 120.133 1193.76 421.206
85 0 140.242 12.7565 1789 123.424 1193.75 417.918
86 0 148.181 14.0774 2086 118.077 1194.29 420.373
87 0 154.332 13.9504 2153 118.973 1193.67 415.069
88 0 156.374 13.941 2180 119.194 1193.78 412.862
89 1 83.1424 9.10486 757 125.398 1194.22 442.487
90 0 85.2277 11.6159 990 119.744 1194.63 444.366
91 0 89.1485 10.4657 933 120.265 1194.33 445.242
92 0 94.2284 11.3554 1070 119.206 1194.88 439.861
93 0 100.13 12.294 1231 114.214 1195.08 443.53
94 0 98.2876 13.4707 1324 113.698 1193.64 440.07
95 0 104.144 12.7324 1326 114.812 1194.65 437.014
96 0 102.22 14.5568 1488 112.679 1193.82 435.225
97 0 106.11 12.0064 1274 120.228 1193.23 431.472
98 0 105.117 13.6705 1437 118.19 1193.05 428.553
99 0 113.085 13.901 1572 108.452 1193.04 431.837
100 0 109.098 12.1543 1326 110.802 1193.12 425.646
101 0 117.174 14.2267 1667 105.366 1192.82 426.331
102 0 118.125 13.545 1600 108.257 1192.46 423.402
103 0 119.129 13.0279 1552 111.487 1193.51 417.872
104 0 130.14 13.5239 1760 108.555 1192.92 420.316
105 0 138.159 14.5629 2012 104.92 1193.19 421.746
106 0 135.195 14.4828 1958 107.757 1192.73 416.416
107 0 143.109 14.6741 2100 107.71 1192.91 413.65
108 0 150.124 13.9085 2088 109.613 1193.29 409.731
109 0 157.128 15.166 2383 107.655 1192.86 407.711
110 1 96.1235 9.87271 949 108.113 1192.68 451.017
111 0 98.1611 11.2061 1100 107.227 1193.36 448.395
112 0 103.159 11.332 1169 107.308 1192.98 445.989
113 0 103.109 11.9679 1234 107.81 1194.18 441.343
114 0 104.122 11.5729 1205 109.409 1193.36 439.832
115 0 103.193 11.1248 1148 112.43 1193.82 433.091
116 0 107.062 12.32 1319 108.9 1193.24 434.124
117 0 109.163 11.8997 1299 110.862 1193 431.852
118 0 112.294 11.7548 1320 111.342 1193.27 428.079
119 0 118.084 11.9661 1413 109.897 1193.55 426.085
120 0 119.082 11.9162 1419 111.484 1193.37 422.273
121 0 125.232 13.6866 1714 107.355 1193.03 421.957
122 0 128.304 12.8913 1654 110.412 1193.63 417.034
123 0 134.127 12.9056 1731 110.391 1193.45 415.451
124 0 140.219 14.5914 2046 107.832 1193.52 413.338
125 0 147.186 12.7458 1876 111.707 1192.71 410.738
126 0 147.172 13.4536 1980 111.503 1192.53 407.022
127 0 150.163 14.6508 2200 109.605 1193.3 403.88
128 0 153.18 12.5865 1928 115.619 1193.04 397.948
129 1 182.215 6.90392 1258 122.826 1193.25 406.06
130 0 183.195 9.38889 1720 120.453 1192.43 401.016
131 0 179.269 9.94596 1783 121.864 1192.69 396.579
132 0 184.313 12.1695 2243 117.337 1191.62 392.111
133 0 182.218 13.171 2400 117.639 1192.51 386.719
134 0 192.327 14.3869 2767 114.22 1192.65 388.476
135 0 196.303 12.6794 2489 119.039 1193 380.27
136 1 209.448 12.6714 2654 118.731 1193.11 380.049
137 0 213.303 12.433 2652 119.516 1192.29 376.336
138 0 220.322 13.9841 3081 115.023 1191.86 370.799
139 0 224.494 9.98691 2242 118.645 1192.8 388.748
140 1 244.427 13.5132 3303 115.87 1191.46 371.147
141 1 176.314 10.6458 1877 112.918 1192.44 407.886
142 0 180.31 11.6799 2106 108.447 1192.16 408.974
143 0 185.341 12.3772 2294 104.186 1192.82 403.217
144 0 191.207 11.0352 2110 106.619 1192.25 399.669
145 0 197.238 11.5292 2274 107.145 1193.03 393.035
146 0 205.309 10.7448 2206 109.519 1192.36 392.249
147 0 209.374 12.0837 2530 106.16 1192.62 394.94
148 0 217.273 12.077 2624 107.828 1192.18 384.567
149 0 223.219 11.7015 2612 109.077 1191.88 378.366
150 0 231.344 12.6479 2926 105.912 1191.65 377.114
151 0 239.34 13.4453 3218 105.241 1192.8 369.183
152 1 52.0623 8.97002 467 87.9872 1191.17 474.839
153 0 47.0224 6.72021 316 83.6424 1193.68 473.93
154 0 50.041 7.39393 370 83.9243 1194.41 473.235
155 0 48.0437 5.86966 282 85.6489 1194.06 477.482
156 0 50.025 4.03798 202 89.5693 1192.94 471.673
157 0 52.0172 5.72888 298 87.4362 1192.93 477.456
158 0 52.0323 7.0533 367 87.3896 1192.8 471.409
159 0 58.0211 8.97949 521 84.5374 1192.24 474.678
160 0 61.0557 9.79434 598 84.9866 1192.4 471.667
161 0 61.1453 8.81507 539 88.397 1191.98 470.004
162 0 64.0693 10.9101 699 85.5694 1193.59 470.466
163 0 63.061 8.34113 526 90.27 1193.97 472.652
164 0 67.1161 9.07383 609 89.5632 1192.98 471.466
165 0 68.0666 9.47601 645 90.6264 1192.82 468.171
166 0 70.1204 9.07011 636 90.923 1192.68 469.81
167 0 71.0791 9.90446 704 92.2202 1191.33 465.216
168 0 73.2128 10.367 759 92.3887 1191.42 464.891
169 0 75.17 11.2146 843 90.8719 1191.67 464.301
170 0 76.1509 10.0065 762 91.8701 1192.14 464.567
171 0 86.3254 16.461 1421 75.8698 1191.81 449.886
172 0 87.188 13.7863 1202 82.8794 1192.95 457.398
173 0 85.2242 11.7572 1002 88.1587 1192.37 459.077
174 0 85.1951 9.93015 846 91.6785 1192.1 460.115
175 0 87.1053 11.5263 1004 88.9701 1192.01 459.004
176 0 90.1449 11.3595 1024 89.6387 1192.19 458.393
177 0 92.1708 10.0683 928 90.7748 1192.06 457.217
178 0 95.1384 11.5621 1100 89.0564 1192.98 453.854
179 0 96.3138 10.85 1045 91.134 1192.62 449.631
180 0 100.311 11.1653 1120 91.775 1193.44 448.234
181 1 121.24 16.8426 2042 77.238 1193.85 441.083
182 0 126.621 16.5375 2094 78.3443 1193.22 434.487
183 0 127.445 17.5998 2243 78.0281 1193.89 435.314
184 0 123.366 16.8848 2083 81.6707 1194.05 437.315
185 0 134.588 18.3969 2476 76.2641 1193.88 426.903
186 0 137.301 21.2307 2915 72.7352 1193.55 423.352
187 0 136.321 15.5149 2115 83.9187 1193.11 427.991
188 0 135.192 16.1401 2182 85.1888 1193.33 430.908
189 1 74.0648 12.8806 954 87.7505 1193.11 463.276
190 0 82.1569 14.2897 1174 82.8842 1194.43 458.197
191 0 83.1527 13.4692 1120 84.6446 1193.34 458.08
192 0 82.1229 13.4189 1102 86.314 1193.72 458.364
193 0 84.0667 10.8604 913 91.8686 1192.82 457.852
194 0 84.0973 11.8196 994 89.493 1192.44 458.471
195 0 88.1463 11.4128 1006 91.9702 1192.04 455.778
196 0 91.232 12.7916 1167 89.2271 1193.09 454.865
197 0 94.0967 11.7539 1106 91.0335 1192.29 453.439
198 0 95.1235 12.1736 1158 92.4249 1192.66 449.34
199 0 99.113 10.4729 1038 95.1773 1192.63 451.322
200 0 102.231 12.9119 1320 91.7303 1191.96 447.002
201 0 104.092 12.2296 1273 94.0369 1192.93 446.833
202 0 107.169 11.3745 1219 95.8376 1191.79 444.203
203 0 111.118 12.0413 1338 95.9178 1192.36 446.01
204 0 117.138 13.2665 1554 100.512 1191.96 440.983
205 1 67.1058 11.6234 780 97.568 1191.77 465.71
206 0 71.1581 12.0436 857 88.7351 1191.51 465.827
207 0 73.0915 13.0385 953 88.554 1192.43 466.769
208 0 76.1052 13.6127 1036 86.4237 1193.23 465.537
209 0 75.0889 11.5996 871 91.4581 1191.82 462.896
210 0 80.1574 13.3487 1070 87.7178 1193.12 463.414
211 0 78.14 12.6184 986 89.1278 1192.47 462.925
212 1 91.2162 14.5369 1326 83.8296 1192.45 459.05
213 0 87.1155 12.4777 1087 92.4572 1192.46 456.337
214 0 91.1098 15.1575 1381 86.4649 1192.72 456.137
215 0 94.1095 15.2588 1436 86.6309 1194.39 455.005
216 0 93.0994 14.1462 1317 90.82 1193.35 453.992
217 0 94.0596 12.407 1167 95.7438 1193.84 453.739
218 0 104.217 15.6309 1629 86.6311 1192.83 448.943
219 0 108.128 16.1383 1745 85.6762 1193.41 446.163
220 0 112.168 17.0726 1915 83.9718 1193.22 441.453
221 0 111.171 16.713 1858 88.2126 1193.25 444.165
222 0 110.15 14.1807 1562 95.628 1193.31 446.131
223 0 111.244 12.6659 1409 99.7005 1193.33 444.623
224 0 117.357 13.6933 1607 97.7536 1192.74 444.989
225 0 121.201 12.5989 1527 99.7734 1191.78 442.513
226 0 126.205 12.242 1545 101.564 1192.04 438.741
227 0 129.206 12.4839 1613 102.433 1192.52 437.765
228 1 56.2131 10.9583 616 98.9237 1194.54 470.959
229 0 57.1223 10.7489 614 98.6694 1194.08 469.518
230 0 58.2453 11.1425 649 101.968 1194.04 466.806
231 0 62.2504 11.8071 735 99.1007 1192.88 468.011
232 0 63.1525 12.0344 760 99.5053 1193.43 466.303
233 0 62.096 12.3679 768 100.043 1194.57 466.345
234 0 65.2046 11.4869 749 100.969 1194.18 466.372
235 0 68.1313 12.5053 852 99.885 1193.87 464.023
236 0 68.1741 12.7468 869 100.198 1193.22 463.158
237 0 72.1206 13.7686 993 98.3766 1193.28 452.958
238 0 74.3063 13.4309 998 99.2746 1194.15 456.283
239 0 76.2215 13.5657 1034 99.5242 1193.48 453.677
240 0 75.0762 11.6681 876 104.884 1193.76 456.492
241 0 77.2244 13.0917 1011 101.342 1193.96 460.044
242 0 82.2299 13.7176 1128 100.776 1193.24 445.542
243 0 82.1912 12.4952 1027 103.475 1193.7 452.442
244 0 84.1815 12.1404 1022 104.004 1192.01 457.736
245 0 84.2207 11.5767 975 102.481 1192.41 459.286
246 0 92.1631 13.7799 1270 96.9614 1191.94 457.388
247 0 89.1129 12.0746 1076 102.077 1192.43 458.67
248 0 91.1155 12.314 1122 103.648 1191.98 455.794
249 0 94.1054 13.7824 1297 100.301 1192.17 455.716
250 0 99.1916 14.6383 1452 97.9304 1190.95 454.256
251 0 102.183 14.6307 1495 99.0649 1191.01 450.658
252 0 107.12 14.4605 1549 100.001 1192.1 448.431
253 0 109.163 13.2737 1449 101.761 1191.74 445.741
254 0 112.274 14.5894 1638 102.114 1192.06 447.039
255 0 116.14 14.1639 1645 103.661 1191.62 446.161
256 0 117.148 12.9665 1519 107.895 1191.34 438.497
257 0 122.253 14.2983 1748 106.393 1190.69 424.756
258 0 126.193 13.8677 1750 107.449 1192.22 434.285
259 0 129.086 15.3619 1983 103.946 1192.03 438.673
260 0 130.053 13.3714 1739 103.013 1191.9 439.495
261 0 133.152 12.9476 1724 105.55 1191.74 436.194
262 0 139.12 14.297 1989 100.585 1191.48 434.809
263 0 144.168 13.8935 2003 102.572 1191.84 409.785
264 0 149.329 13.5406 2022 103.749 1191.96 393.473
265 0 154.314 14.3668 2217 102.174 1190.47 399.956
266 0 158.184 12.9975 2056 104.867 1192.23 407.506
267 1 93.1993 10.8477 1011 99.5381 1192 455.216
268 0 94.0841 11.8511 1115 98.0126 1191.68 458.813
269 0 99.0951 13.5526 1343 95.2092 1192.36 455.587
270 0 108.072 17.294 1869 85.0931 1191.95 448.354
271 0 110.121 15.3286 1688 89.2755 1191.09 448.225
272 0 113.125 16.0177 1812 87.8355 1192.19 446.456
273 0 108.144 12.2059 1320 95.9235 1192.65 444.068
274 0 111.243 12.4143 1381 95.1926 1192.04 443.174
275 0 116.198 11.1103 1291 98.3284 1192.64 438.947
276 0 119.101 10.9319 1302 100.184 1192.77 435.125
277 0 123.156 12.0336 1482 97.6802 1192.28 436.532
278 0 127.326 12.5583 1599 97.0851 1192.75 435.251
279 0 132.299 13.409 1774 95.6511 1192.75 434.079
280 0 136.176 12.2929 1674 97.3333 1192.49 433.93
281 0 141.17 12.9985 1835 95.6943 1193.08 432.516
282 0 145.189 13.1828 1914 96.988 1192.86 429.236
283 0 153.356 12.9568 1987 96.5506 1192.4 429.371
284 1 88.1659 12.2723 1082 92.281 1193.61 463.053
285 0 90.1326 12.0822 1089 92.0854 1192.52 459.348
286 0 92.0872 13.1614 1212 92.1914 1193.08 459.121
287 0 95.0737 12.0433 1145 88.2524 1193.75 457.682
288 0 98.1079 13.0876 1284 86.81 1192.88 455.882
289 0 100.113 12.7856 1280 89.0195 1193.06 449.214
290 0 102.183 11.3913 1164 90.2612 1193.23 453.582
291 0 105.188 11.4937 1209 89.9992 1192.62 446.325
292 0 108.067 11.4744 1240 90.4145 1192.89 448.531
293 0 113.201 11.4045 1291 90.6971 1193.56 446.916
294 0 114.307 12.0116 1373 90.5011 1193 444.535
295 0 119.198 12.0304 1434 89.6939 1192.84 446.252
296 0 120.157 12.0925 1453 90.4866 1193.28 443.67
297 0 127.283 13.2146 1682 90.0684 1192.67 440.012
298 0 129.2 12.7399 1646 92.7594 1192.84 434.763
299 0 136.337 11.941 1628 94.6284 1192.86 435.576
300 0 139.308 11.7222 1633 95.8316 1193.42 433.368
301 0 145.368 12.7401 1852 93.8861 1192.72 428.725
302 0 148.357 12.4362 1845 96.3837 1192.85 423.888
303 1 84.1672 13.0217 1096 91.3184 1193.7 461.047
304 0 85.3155 14.757 1259 89.2923 1193.52 458.354
305 0 88.2268 13.2273 1167 96.455 1193.85 456.848
306 0 90.1296 13.5804 1224 97.1152 1193.32 453.641
307 0 91.1439 13.4842 1229 97.786 1192.62 450.774
308 0 95.1336 13.4548 1280 98.2 1192.78 449.181
309 0 97.1316 13.4766 1309 99.1077 1192.36 447.89
310 0 99.1765 14.1364 1402 98.7304 1193.06 446.959
311 0 100.149 14.2888 1431 99.6059 1192.21 446.954
312 0 103.148 14.2029 1465 99.2976 1193.04 443.225
313 0 106.237 13.6205 1447 101.11 1191.75 442.45
314 0 113.103 13.9077 1573 99.7057 1192.71 444.88
315 0 114.213 12.7919 1461 102.005 1193.89 444.177
316 0 118.169 14.7246 1740 98.3931 1192.89 440.074
317 0 121.083 12.925 1565 101.749 1193.22 439.489
318 0 126.24 12.8089 1617 102.682 1192.97 436.053
319 0 131.115 13.82 1812 100.643 1192.95 435.148
320 1 69.0869 11.2757 779 101.272 1194.15 463.422
321 0 72.0903 13.5247 975 96.9662 1194.25 463.076
322 0 75.0874 13.0248 978 97.8548 1193.07 461.603
323 0 77.108 13.3579 1030 98.9214 1194.23 459.516
324 0 82.2129 13.9759 1149 96.3873 1193.8 460.229
325 0 85.1747 15.5915 1328 92.5866 1192.69 459.762
326 0 84.1802 13.578 1143 98.1496 1193.34 457.852
327 0 87.1436 12.8065 1116 99.2563 1193.86 459.72
328 0 89.1407 12.8112 1142 99.2583 1193.47 458.046
329 0 94.1492 13.5423 1275 98.1357 1193.98 457.082
330 0 95.1056 13.2695 1262 100.763 1192.43 452.207
331 0 97.2789 12.8599 1251 102.031 1193.82 451.433
332 0 102.334 14.0422 1437 98.7286 1193.79 451.29
333 0 104.126 14.0695 1465 99.727 1193.66 448.967
334 0 106.263 14.3982 1530 99.5451 1193.61 449.844
335 0 110.196 14.6194 1611 99.7101 1192.76 443.342
336 0 112.129 13.0742 1466 103.51 1193.1 443.826
337 0 120.13 15.2918 1837 98.436 1192.74 441.976
338 0 123.188 13.2318 1630 101.127 1193.47 442.264
339 0 127.169 13.7376 1747 99.7888 1193.32 440.93
340 0 135.169 14.4042 1947 99.5244 1193.22 437.461
341 1 77.0856 14.4385 1113 98.6649 1193.81 467.498
342 0 78.0641 13.5145 1055 101.281 1193.66 463.993
343 0 84.1331 15.1189 1272 98.9953 1193.84 462.871
344 0 85.0449 13.5458 1152 102.901 1192.62 462.352
345 0 90.0966 14.5177 1308 100.434 1192.71 461.605
346 0 93.1159 13.8752 1292 102.646 1192.92 459.207
347 0 96.2508 15.3765 1480 99.7764 1192.93 459.163
348 0 97.1153 13.5406 1315 104.234 1193.2 456.833
349 0 101.078 14.8302 1499 101.001 1193.07 456.426
350 0 103.128 14.4189 1487 102.7 1193.22 452.972
351 0 106.237 14.4017 1530 102.184 1192.45 452.687
352 0 108.097 14.1354 1528 103.23 1193.48 451.305
353 0 113.135 13.948 1578 102.992 1193.03 448.402
354 0 118.204 15.2702 1805 99.795 1193.37 444.024
355 0 118.204 15.3294 1812 146.497 1193.37 444.098
356 1 128.195 14.3375 1838 101.295 1193.4 440.118
357 1 72.1209 12.7286 918 100.267 1194.45 469.9
358 0 73.0652 13.9054 1016 98.6506 1193.92 469.036
359 0 78.1362 13.3101 1040 100.126 1193.65 466.888
360 0 79.113 13.1078 1037 101.631 1192.55 465.317
361 0 81.0723 13.2104 1071 102.594 1193.65 461.75
362 0 84.1811 14.8014 1246 99.1645 1192.72 461.873
363 0 90.0969 14.4622 1303 98.4996 1193.25 462.008
364 0 90.1944 13.5707 1224 100.694 1192.82 460.249
365 0 93.1135 14.3373 1335 99.2202 1192.92 457.724
366 0 96.1679 15.8681 1526 96.9436 1192.15 454.874
367 0 97.1271 13.2198 1284 102.475 1192.58 454.106
368 0 102.204 15.4103 1575 98.2114 1191.35 453.521
369 0 103.144 14.95 1542 99.7056 1192.21 449.834
370 0 107.193 14.7025 1576 100.315 1192.42 450.945
371 0 111.139 15.6381 1738 99.7215 1191.26 447.108
372 0 115.15 14.6939 1692 101.482 1192.72 447.394
373 1 64.0545 12.8328 822 98.2299 1192.48 470.29
374 0 66.0849 11.6517 770 100.384 1192.95 466.161
375 0 69.1542 13.9688 966 99.9679 1192.51 469.088
376 0 71.1482 14.4066 1025 101.117 1192.63 468.251
377 0 73.0744 13.3973 979 103.968 1192.36 469.12
378 0 76.2408 13.3 1014 104.307 1192.52 466.46
379 0 77.0801 13.4146 1034 105.307 1192.96 464.387
380 0 79.1322 13.6986 1084 104.995 1191.34 461.485
381 0 81.1191 14.226 1154 104.959 1192.97 462.152
382 0 83.0878 13.5519 1126 107.63 1193.35 458.005
383 0 88.1566 14.0772 1241 106.407 1192.7 457.787
384 0 89.0498 14.5649 1297 106.902 1192.19 455.871
385 0 91.1688 13.3489 1217 109.453 1192.09 454.653
386 0 95.2542 13.8577 1320 107.867 1192.49 454.331
387 0 98.1065 14.841 1456 105.688 1191.54 450.812
388 0 100.139 14.0304 1405 108.685 1192.33 450.135
389 0 103.124 13.7214 1415 109.615 1192.18 449.953
390 0 106.17 14.1659 1504 109.128 1192.37 448.593
391 0 110.152 14.371 1583 108.33 1192.37 446.711
392 0 114.136 14.1761 1618 108.23 1192.39 444.607
393 0 117.176 14.0046 1641 109.036 1191.72 442.817
394 0 121.158 14.9886 1816 107.726 1191.82 438.994
395 0 123.283 13.7732 1698 111.501 1190.9 436.777
396 0 130.198 13.8634 1805 113.69 1191.89 435.56
397 1 58.0801 13.1026 761 107.832 1192.09 473.133
398 0 60.1282 13.2883 799 106.703 1192.84 474.136
399 0 62.0472 13.6348 846 106.767 1192.4 471.911
400 0 63.0507 13.3861 844 107.835 1193.12 471.538
401 0 64.0719 12.5172 802 110.696 1192.65 471.031
402 0 67.0563 12.9145 866 109.919 1192.01 469.575
403 0 68.1277 12.9316 881 111.318 1191.73 468.034
404 0 72.084 14.0947 1016 104.49 1192.3 469.505
405 0 72.1414 13.4181 968 106.337 1192.1 467.549
406 0 75.0425 14.5118 1089 104.502 1192.6 466.643
407 0 76.092 14.719 1120 105.499 1192.23 463.984
408 0 78.1159 13.992 1093 108.275 1193.18 465.531
409 0 83.1559 14.9478 1243 106.51 1192.64 462.498
410 0 84.1106 13.8033 1161 110.106 1193.16 460.301
411 0 86.1076 12.705 1094 113.64 1192.86 459.699
412 0 91.069 14.3518 1307 109.199 1192.55 458.715
413 0 93.0926 14.7058 1369 108.495 1192.71 459.077
414 0 95.1458 13.7263 1306 112.609 1192.07 452.623
415 0 101.269 13.8146 1399 111.639 1192.86 454.184
416 0 105.121 14.4025 1514 110.555 1191.91 450.573
417 1 62.1487 12.6632 787 114.525 1192.4 471.797
418 0 63.1016 14.5955 921 109.564 1192.31 468.682
419 0 65.094 14.072 916 110.102 1192.57 470.635
420 0 68.0631 13.9283 948 109.554 1192.68 470.549
421 0 69.0451 14.2516 984 108.93 1192.37 467.039
422 0 70.0311 13.851 970 110.752 1192.53 466.06
423 0 72.0784 14.9143 1075 107.787 1191.92 464.699
424 0 75.0669 13.9742 1049 109.708 1191.86 464.767
425 0 79.1694 14.1974 1124 108.491 1192 464.258
426 0 80.1209 14.4532 1158 107.934 1192.2 463.244
427 0 80.2498 13.4704 1081 111.414 1191.45 461.266
428 0 84.1314 14.727 1239 107.412 1192 460.107
429 0 86.1325 13.2586 1142 109.944 1191.77 458.251
430 0 87.1354 13.7831 1201 109.492 1190.66 455.304
431 0 92.0606 13.6758 1259 109.299 1191.08 455.743
432 0 93.3132 13.728 1281 109.822 1191.08 454.978
433 0 97.252 14.6424 1424 107.494 1191.72 453.718
434 0 101.199 14.7135 1489 106.972 1191.4 451.497
435 0 103.341 15.2602 1577 106.598 1191.89 450.353
436 0 107.148 16.1272 1728 105.837 1191.77 449.953
437 0 108.133 15.6566 1693 107.943 1191.43 446.437
438 0 109.296 14.017 1532 113.196 1192.36 446.84
439 0 113.142 13.6554 1545 113.862 1191.03 446.089
440 0 117.176 13.3048 1559 114.112 1192.07 445.604
441 0 120.123 13.7692 1654 114.063 1191.07 440.765
442 0 125.298 14.4535 1811 112.154 1191.92 440.832
443 0 128.225 14.8411 1903 113.336 1191.75 436.502
444 0 132.327 14.6984 1945 113.019 1192.19 435.544
445 0 136.192 13.7159 1868 116.937 1191.7 430.66
446 0 143.404 14.63 2098 114.222 1192.47 430.437
447 0 150.257 15.8728 2385 109.691 1190.54 426.728
448 0 151.459 13.535 2050 115.817 1191.18 421.056
449 0 159.408 14.7484 2351 112.439 1191.34 420.385
450 1 79.2246 11.7262 929 112.054 1192.09 461.497
451 0 84.2094 14.2621 1201 105.15 1191.96 460.335
452 0 86.2272 14.543 1254 104.725 1191.71 461.381
453 0 88.0946 15.0974 1330 104.362 1192.2 459.42
454 0 90.2514 14.1494 1277 105.984 1192.03 458.644
455 0 93.3398 14.399 1344 105.153 1192.4 457.497
456 0 96.316 14.1825 1366 105.581 1192.41 455.215
457 0 97.1078 14.0359 1363 104.676 1192.37 456.081
458 0 100.299 12.6621 1270 106.769 1193.2 453.957
459 0 102.088 14.0467 1434 104.607 1191.96 451.512
460 0 107.66 15.0196 1617 101.745 1192.18 447.324
461 0 112.258 13.852 1555 103.096 1192.4 450.781
462 0 115.301 14.3625 1656 102.871 1192.11 449.335
463 0 118.257 14.0372 1660 104.463 1192.09 446.957
464 0 123.185 14.5148 1788 103.389 1192.11 445.95
465 0 126.275 14.0725 1777 105.205 1191.93 444.17
466 0 131.134 13.6426 1789 105.777 1191.32 443.669
467 0 137.282 13.8619 1903 105.73 1192.18 440.593
468 0 141.282 14.4817 2046 104.391 1192.33 439.425
469 0 148.133 14.8313 2197 103.878 1192.55 431.507
470 0 150.246 13.4646 2023 106.682 1191.93 433.262
471 0 157.266 14.9747 2355 103.495 1192.19 429.163
472 0 161.171 14.6491 2361 104.244 1192.07 429.141
473 0 166.151 13.9151 2312 107.212 1192.71 421.149
474 0 174.266 15.396 2683 103.13 1192.12 424.244
475 0 179.182 13.9244 2495 107.54 1192.42 416.245
476 0 183.323 13.6371 2500 108.668 1191.61 413.532
477 0 191.33 15.7685 3017 103.7 1192.87 413.56
478 0 194.203 13.4962 2621 109.411 1192.35 410.323
479 0 203.608 15.1369 3082 106.003 1192.56 404.763
480 0 209.333 14.1163 2955 108.257 1191.93 401.371
481 0 217.542 15.2063 3308 106.483 1191.84 397.088
482 0 225.411 14.6621 3305 107.105 1190.98 397.896
483 0 232.417 15.4679 3595 106.202 1191.45 388.535
484 0 243.462 14.4499 3518 108.527 1191.55 389.671
485 0 252.558 15.8538 4004 107.322 1191.92 376.214
486 1 56.0641 12.5571 704 99.5369 1191.79 478.01
487 0 56.1125 12.564 705 101.979 1191.86 477.261
488 0 60.1534 13.3658 804 100.331 1191.43 477.884
489 0 61.0803 13.7196 838 100.37 1191.98 476.844
490 0 64.1314 13.2073 847 101.76 1191.19 475.385
491 0 65.2059 12.9129 842 105.063 1192.11 472.795
492 0 68.2132 13.5751 926 104.4 1191.57 472.915
493 0 71.1014 13.2065 939 105.232 1192.29 472.229
494 0 69.2124 12.021 832 109.683 1191.62 470.672
495 0 74.1972 13.3833 993 107.546 1191.59 469.447
496 0 74.1363 11.7891 874 112.569 1191.06 468.736
497 0 77.2324 13.3493 1031 110.203 1192.24 468.785
498 0 78.4144 12.9186 1013 112.924 1192.83 467.658
499 0 83.1426 13.4829 1121 111.811 1191.92 465.395
500 0 85.2498 14.1349 1205 112.161 1193.16 463.901
501 0 88.2085 14.8512 1310 111.482 1192.33 462.137
502 0 90.4444 14.3514 1298 113.706 1192.22 462.627
503 0 93.2924 14.5135 1354 115.248 1191.65 459.165
504 0 97.2106 14.5972 1419 115.362 1191.55 458.218
505 0 98.3869 14.4226 1419 117.777 1191.45 457.514
506 0 101.382 13.1484 1333 122.267 1190.68 455.86
507 1 59.2609 12.3859 734 117.082 1191.7 478.371
508 0 61.3281 13.1098 804 119.085 1191.26 477.756
509 0 62.2299 14.3982 896 117.584 1192.03 476.083
510 0 65.3171 13.8555 905 119.502 1191.7 476.401
511 0 66.5045 13.3525 888 122.271 1190.75 474.053
512 0 69.2465 14.3256 992 120.695 1192.06 473.088
513 0 69.5613 13.0964 911 125.672 1191 472.136
514 0 73.176 14.7863 1082 121.122 1191.45 470.774
515 0 76.3719 15.1496 1157 118.826 1191.51 472.51
516 1 104.365 14.9092 1556 104.768 1192.7 464.024
517 0 102.246 14.8857 1522 107.491 1191.72 462.375
518 0 103.265 16.1816 1671 104.278 1191.94 459.903
519 0 107.598 16.8869 1817 102.172 1191.85 457.263
520 0 103.217 19.4735 2010 99.5891 1191.39 456.242
521 0 103.407 18.5868 1922 104.725 1191.85 457.885
522 0 110.213 18.1467 2000 105.022 1191.51 455.61
523 0 107.257 17.8637 1916 109.634 1191.41 455.897
524 0 116.297 18.3496 2134 106.474 1191.82 452.812
525 0 110.244 17.9965 1984 112.612 1191.84 453.33
526 0 109.231 17.083 1866 117.539 1191.61 455.585
527 0 110.147 16.3146 1797 121.974 1192.69 454.912
528 0 112.093 15.3801 1724 125.315 1192.23 453.263
529 0 118.188 15.1369 1789 124.684 1192.08 453.32
530 0 121.185 16.6439 2017 119.671 1192.68 451.529
531 0 124.208 16.1584 2007 121.931 1191.6 446.451
532 0 128.153 15.107 1936 124.135 1192.24 444.853
533 0 136.166 15.8997 2165 120.375 1191.97 445.037
534 1 79.0331 14.0194 1108 125.553 1192.13 472.578
535 0 79.0696 14.4303 1141 124.184 1191.88 471.126
536 0 84.1296 14.7629 1242 122.979 1191.21 467.457
537 0 87.182 14.6131 1274 123.063 1191.73 466.235
538 0 89.1347 15.2915 1363 121.522 1192.62 465.067
539 0 92.135 15.2059 1401 121.498 1192.22 464.784
540 0 97.1272 15.8658 1541 118.942 1192.14 460.657
541 0 100.074 16.5478 1656 117.065 1191.89 460.957
542 0 102.199 15.5384 1588 121.384 1191.03 455.895
543 0 107.16 15.0242 1610 122.113 1191.17 457.299
544 0 108.115 14.8176 1602 124.583 1192.31 455.435
545 0 113.094 14.7134 1664 124.68 1190.69 453.284
546 0 118.145 14.7784 1746 124.467 1191.37 453.716
547 0 123.135 15.747 1939 122.357 1191.58 448.741
548 0 128.258 15.9288 2043 122.246 1192.03 447.672
549 0 134.117 14.5992 1958 126.283 1191.43 444.788
550 1 77.0799 13.7779 1062 129.282 1192.95 471.937
551 0 80.0914 15.3949 1233 124.487 1191.43 470.74
552 0 81.123 14.78 1199 127.914 1191.72 468.793
553 0 83.1204 15.3031 1272 127.252 1191.91 467.381
554 0 84.1119 14.1478 1190 130.74 1191.91 467.571
555 0 87.0696 14.7468 1284 125.421 1192 463.698
556 0 88.2737 14.7496 1302 128.539 1193.24 462.749
557 0 90.2198 14.9967 1353 131.693 1192.47 465.39
558 0 89.0574 15.0689 1342 123.58 1191.55 462.658
559 0 92.1647 15.2444 1405 126.093 1192.44 465.108
560 0 90.1641 14.0411 1266 134.393 1192.41 461.665
561 0 91.2355 14.194 1295 135.073 1192.65 463.137
562 0 93.2155 15.3515 1431 131.968 1191.65 464.147
563 0 91.2102 13.6388 1244 141.081 1191.57 463.88
564 0 91.1214 13.9045 1267 142.836 1191.26 462.391
565 0 92.0665 14.2723 1314 142.627 1191.39 462.516
566 0 95.119 14.2768 1358 141.144 1191.97 463.272
567 0 98.2143 14.9571 1469 138.112 1190.83 461.357
568 0 99.1898 14.5277 1441 140.227 1191.93 460.865
569 0 101.07 14.9401 1510 138.152 1191.11 460.521
570 0 105.26 15.7515 1658 135.574 1191.65 457.64
571 0 106.089 15.2891 1622 137.422 1191.43 454.698
572 0 110.156 14.6065 1609 138.748 1191.72 454.705
573 0 112.109 15.2531 1710 137.686 1190.32 452.274
574 0 115.145 15.0505 1733 139.246 1191.1 450.803
575 0 119.176 15.2296 1815 138.95 1191.44 451.238
576 0 121.099 16.4658 1994 136.673 1191.83 448.353
577 0 125.205 14.8316 1857 142.898 1190.9 445.388
578 0 127.14 15.2902 1944 142.774 1191.36 446.352
579 0 131.159 15.5461 2039 143.262 1190.7 443.181
580 1 60.223 12.4869 752 152.363 1190.75 474.213
581 0 65.1236 13.4053 873 150.286 1190.42 474.223
582 0 65.2172 13.5087 881 153.494 1191.12 473.121
583 0 68.1682 13.6867 933 152.748 1190.85 471.95
584 0 69.194 14.1486 979 153.422 1192.04 471.482
585 0 68.1302 13.9732 952 158.694 1191.48 469.373
586 0 71.1004 14.5569 1035 157.239 1191.49 470.76
587 0 71.1297 14.5087 1032 159.896 1191.29 471.046
588 0 74.2134 13.9867 1038 164.5 1192.38 468.979
589 0 75.1892 14.2175 1069 165.464 1191.82 468.947
590 0 77.1502 14.919 1151 165.822 1192.37 468.277
591 0 80.2905 14.9831 1203 166.733 1191.82 466.852
592 0 81.2792 14.7885 1202 170.365 1192.34 465.855
593 0 82.2465 14.4809 1191 173.753 1191.94 465.338
594 0 84.0968 14.7687 1242 175.072 1192.05 462.891
595 0 87.1462 16.2945 1420 168.858 1191.37 461.901
596 0 90.1494 15.1526 1366 173.395 1191.69 460.521
597 0 92.2305 15.3528 1416 173.475 1191.46 459.258
598 0 94.1256 15.3093 1441 174.355 1191.11 458.208
599 0 98.0671 15.2753 1498 173.855 1191.82 457.678
600 0 102.212 15.0471 1538 173.772 1190.65 454.288
601 0 105.189 15.3914 1619 172.908 1191.56 453.138
602 0 109.275 15.6212 1707 171.436 1191.1 450.948
603 0 116.25 15.2001 1767 167.43 1190.94 445.805
604 0 121.183 15.0269 1821 166.571 1190.19 443.202
605 0 124.193 14.9364 1855 167.296 1191 439.795
606 0 130.216 14.6986 1914 165.944 1190.4 437.534
607 1 63.1194 11.0109 695 152.01 1191.18 471.173
608 0 66.142 10.5984 701 151.429 1191.37 471.445
609 0 66.1004 11.0287 729 150.694 1191.15 470.502
610 0 68.23 11.813 806 148.001 1191.05 467.953
611 0 71.0944 11.4355 813 147.442 1191.08 468.803
612 0 73.1427 12.1406 888 144.896 1190.62 467.8
613 0 76.1068 13.4548 1024 139.132 1190.98 467.231
614 0 79.2139 13.5835 1076 138.155 1190.74 466.099
615 0 82.1783 12.1443 998 141.255 1191.04 464.183
616 0 83.2366 12.6026 1049 139.561 1190.74 461.224
617 1 44.1446 9.06114 400 127.645 1192.26 484.678
618 0 45.033 8.90459 401 124.97 1192.37 484.314
619 0 45.1452 9.10396 411 124.331 1190.68 483.973
620 0 48.0626 10.3199 496 121.054 1192.25 482.812
621 0 51.1955 11.8565 607 128.74 1191.58 479.336
622 0 51.1624 10.5937 542 132.862 1190.79 480.445
623 0 54.2819 12.2324 664 125.92 1190.82 481.794
624 0 53.2907 11.2027 597 131.673 1191.21 478.524
625 0 54.2124 12.1006 656 128.168 1191.29 479.418
626 0 56.1332 10.6532 598 131.808 1189.67 480.099
627 0 59.1146 11.8245 699 127.95 1190.44 480.129
628 0 57.254 10.9861 629 131.771 1189.93 478.523
629 0 62.1576 11.1813 695 129.327 1190.71 477.155
630 0 63.2612 12.4879 790 126.733 1191.06 477.943
631 0 66.209 11.8564 785 127.976 1190.99 476.348
632 0 69.3314 12.4619 864 125.872 1190.68 475.293
633 0 69.2626 11.377 788 129.659 1192 474.482
634 0 72.1923 11.1092 802 130.47 1191.25 473.17
635 0 74.1921 12.3059 913 127.195 1191.96 472.299
636 0 76.3112 11.1255 849 128.969 1191.06 472.302
637 0 79.3406 11.9107 945 127.001 1191.46 468.778
638 0 85.1506 11.9083 1014 124.953 1190.58 468.355
639 0 85.2281 10.2783 876 131.051 1191.39 465.009
640 0 92.1145 10.8126 996 121.261 1189.59 461.974
641 1 57.1159 9.13931 522 117.787 1190.11 477.784
642 0 59.3095 10.4536 620 111.508 1190.54 480.431
643 0 60.1959 10.9476 659 108.431 1190.05 477.924
644 0 63.173 9.89346 625 110.246 1189.95 478
645 0 65.2151 10.749 701 107.204 1190.16 477.539
646 0 66.1487 11.459 758 106.701 1190.1 474.811
647 0 67.1648 10.8241 727 107.476 1191.14 475.851
648 0 71.2506 12.0701 860 104.184 1191.77 473.478
649 0 70.4016 11.3492 799 106.576 1191.08 474.448
650 0 75.2871 12.1933 918 102.764 1191.6 474.487
651 0 78.3371 11.8973 932 118.403 1191.51 469.52
652 0 77.2358 10.1637 785 122.767 1192 467.813
653 0 80.4469 11.2745 907 117.379 1191.82 469.152
654 0 82.2849 10.9133 898 119.738 1192.24 467.7
655 0 82.5736 11.8076 975 115.529 1190.69 466.961
656 0 86.2385 11.5494 996 116.275 1190.69 467.1
657 0 90.2948 11.6618 1053 115.188 1190.51 465.604
658 0 91.3006 12.1138 1106 115.107 1191.57 463.578
659 0 93.3804 11.8547 1107 115.727 1191.62 463.69
660 0 96.2579 11.677 1124 116.745 1191.94 459.495
661 0 98.1565 12.2254 1200 115.692 1191.07 459.801
662 1 53.1293 10.8227 575 110.857 1191.37 481.751
663 0 54.0506 11.9333 645 108.174 1191.53 480.324
664 0 55.1517 11.8582 654 105.385 1191.07 480.983
665 0 58.1079 12.0294 699 104.132 1190.84 479.773
666 0 57.2296 11.847 678 104.984 1191.06 479.115
667 0 60.1552 12.2018 734 104.759 1190.92 477.703
668 0 62.2311 11.9072 741 105.845 1191.15 478.039
669 0 64.1464 11.8323 759 107.798 1192.32 476.726
670 0 65.1521 11.7724 767 109.196 1191.95 476.742
671 0 67.1727 12.5944 846 108.119 1192.02 475.983
672 0 69.0795 14.0852 973 108.473 1191.91 474.337
673 0 72.1656 13.7739 994 111.039 1191.96 472.862
674 0 73.1631 12.3696 905 118.469 1191.4 471.815
675 0 74.2421 11.6107 862 128.043 1191.13 468.678
676 0 76.1049 12.6142 960 125.24 1192.32 470.768
677 0 77.189 13.3309 1029 124.363 1191.02 469.681
678 0 78.298 12.6823 993 128.081 1192.34 468.235
679 0 80.0896 12.6109 1010 129.555 1191.56 467.742
680 0 83.2852 12.2711 1022 130.501 1191.55 461.681
681 0 83.1147 12.7174 1057 131.17 1191.33 465.43
682 0 86.1163 15.2701 1315 121.617 1191.99 463.112
683 0 87.2782 15.9261 1390 121.855 1191.9 463.074
684 0 84.1277 12.0174 1011 140.815 1191.67 462.899
685 0 86.1952 12.901 1112 137.399 1190.25 462.764
686 0 86.134 12.9566 1116 139.169 1191.52 463.593
687 0 87.0836 13.5732 1182 137.069 1191.54 461.108
688 0 87.3591 14.137 1235 134.98 1192.44 464.673
689 0 87.1819 13.5923 1185 139.695 1190.92 461.539
690 0 85.2633 13.6518 1164 141.864 1191.49 461.808
691 0 87.0812 13.7228 1195 141.79 1191.56 460.967
692 0 87.1656 14.5241 1266 139.843 1191.35 461.893
693 0 87.2796 13.5885 1186 144.995 1191.83 462.112
694 0 88.1588 13.7252 1210 144.312 1191.58 461.005
695 0 87.1094 14.3153 1247 144.803 1192.24 461.847
696 0 87.264 13.8774 1211 146.136 1191.47 462.312
697 0 87.098 13.8005 1202 147.839 1191.77 460.938
698 0 88.2518 14.0054 1236 146.994 1192.32 461.17
699 0 88.1548 14.5766 1285 145.34 1192.31 460.118
700 0 89.3257 14.4975 1295 145.124 1191.73 460.121
701 0 89.0702 13.3602 1190 150.361 1191.76 461.567
702 0 88.178 13.7676 1214 149.549 1192.03 460.425
703 0 90.261 14.724 1329 143.932 1192.49 460.083
704 0 88.1098 14.3571 1265 147.493 1191.65 460.265
705 0 90.304 14.8277 1339 148.479 1191.66 461.161
706 0 89.2229 13.8529 1236 154.663 1193.09 459.357
707 0 92.2354 13.2595 1223 153.351 1192.7 462.324
708 0 91.1538 13.9873 1275 150.557 1191.92 461.62
709 0 89.3752 13.4713 1204 152.801 1192.51 460.416
710 0 91.2465 14.1595 1292 149.807 1192.29 460.65
711 0 90.1119 14.6706 1322 149.245 1192.97 460.038
712 0 90.1593 13.6425 1230 153.613 1192.63 459.569
