time division length width area intensity CMx CMy
0 0 28.0348 10.808 303 135.805 1178.01 479.307
1 0 27.0627 10.9745 297 136.354 1178.77 479.636
2 0 28.0329 10.0953 283 138.163 1178.66 480.042
3 0 28.0313 9.84613 276 139.75 1178.86 479.518
4 0 28.0102 11.353 318 135.245 1178.84 478.918
5 0 29.0283 10.9548 318 137.456 1179.33 479.044
6 0 29.0074 10.3422 300 139.237 1178.85 478.273
7 0 30.0379 10.5533 317 138.703 1179.25 478.278
8 0 33.0793 11.6085 384 130.755 1178.78 478.831
9 0 32.035 12.3615 396 129.79 1178.6 478.79
10 0 34.102 12.4333 424 130.111 1178.18 478.012
11 0 34.102 12.3746 422 138.727 1177.16 478.026
12 0 37.0908 12.9412 480 126.777 1178.13 477.904
13 0 37.105 12.9363 480 127.671 1177.86 477.429
14 0 37.1188 11.7461 436 130.927 1177.91 478.892
15 0 40.0172 12.4197 497 126.543 1177.9 477.835
16 0 40.0947 13.6676 548 122.839 1178.64 477.513
17 0 41.0615 12.5665 516 126.438 1178.35 476.198
18 0 41.052 12.4233 510 127.355 1179.15 476.176
19 0 42.0084 12.6165 530 126.668 1178.02 477.125
20 0 44.0481 11.8961 524 127.811 1177.56 475.183
21 0 46.1246 14.0489 648 120.306 1177.94 475.063
22 0 47.0334 13.7349 646 120.949 1177.72 476.319
23 0 47.0894 13.4638 634 123.137 1177.3 475.55
24 0 47.0797 12.2558 577 127.291 1177.14 475.735
25 0 49.0573 13.1071 643 124.051 1176.16 474.806
26 0 50.0621 13.6031 681 123.551 1175.89 474.05
27 0 51.0694 11.9054 608 127.961 1175.93 474.582
28 0 53.082 13.0364 692 124.913 1175.62 472.081
29 0 55.0922 13.668 753 121.329 1176.14 472.117
30 0 55.085 12.0359 663 127.056 1176.23 470.635
31 0 59.0857 12.8288 758 123.652 1175.3 469.993
32 0 61.0601 12.2666 749 125.71 1175.07 468.951
33 0 66.1466 14.2562 943 118.217 1175.58 469.572
34 0 68.0919 13.6433 929 119.912 1175.61 468.167
35 0 67.1066 13.1731 884 123.862 1175.52 467.055
36 0 72.1097 13.7846 994 120.377 1176.18 465.729
37 1 36.0689 12.1711 439 129.932 1175.97 481.854
38 0 37.0224 11.3985 422 131.398 1175.49 481.491
39 0 41.0347 14.3537 589 118.676 1175.24 481.348
40 0 42.0147 13.6619 574 120.401 1175.34 481.021
41 0 43.0308 12.4562 536 124.209 1175.52 480.039
42 0 42.0185 12.7325 535 126.693 1175.22 479.735
43 0 46.0508 12.8554 592 124.242 1175.55 480.188
44 0 47.0262 12.8652 605 124.866 1175.22 478.722
45 0 47.0477 12.583 592 127.204 1175.44 479.264
46 0 48.043 12.6137 606 127.99 1174.64 477.454
47 0 52.0441 13.796 718 124.731 1174.49 476.26
48 0 53.0267 14.125 749 124.41 1174.61 475.065
49 0 55.0122 13.5424 745 125.597 1174.28 475.658
50 0 56.0403 13.0085 729 128.65 1174.37 475.232
51 0 58.0302 14.1134 819 125.487 1175.09 473.915
52 0 59.0619 13.6298 805 127.52 1174.69 473.393
53 0 62.0669 14.4521 897 123.934 1174.44 473.922
54 0 62.0463 13.1192 814 129.661 1174.03 472.534
55 0 65.0441 14.7285 958 124.619 1174.17 471.065
56 0 67.025 13.8754 930 126.843 1174.81 471.246
57 0 70.042 14.32 1003 125.304 1174.27 469.305
58 0 73.0267 14.0086 1023 126.1 1174.66 468.653
59 0 76.0463 14.1098 1073 125.336 1175.27 467.08
60 0 79.0989 13.8814 1098 126.477 1174.87 464.994
61 0 80.1096 12.795 1025 136.163 1174.7 465.431
62 0 84.0708 13.6671 1149 135.05 1173.97 462.986
63 0 87.1121 13.3276 1161 135.826 1173.78 459.638
64 1 46.098 11.5189 531 133.985 1174.29 481.141
65 0 46.0649 12.2653 565 134.214 1174.51 480.333
66 0 49.0995 12.8718 632 133.166 1173.97 477.725
67 0 49.0538 12.048 591 129.702 1173.14 480.323
68 0 52.087 12.7671 665 127.492 1173.19 479.316
69 0 53.0557 13.0994 695 126.095 1172.9 478.655
70 0 54.0606 13.0964 708 126.614 1172.86 477.107
71 0 56.0583 11.5237 646 130.234 1172.68 476.806
72 0 59.1108 12.8741 761 125.586 1172.74 473.091
73 0 61.1118 12.6653 774 126.068 1172.72 472.968
74 0 63.0869 13.0455 823 124.211 1173.21 472.595
75 0 64.0655 12.8306 822 125.552 1173.35 471.127
76 0 69.0309 12.8493 887 124.501 1173.5 471.529
77 0 68.0296 14.0527 956 133.913 1174.43 470.359
78 0 76.0474 13.3338 1014 122.147 1174.11 469.362
79 0 76.1005 12.6149 960 125.18 1174 467.496
80 0 80.0756 13.4498 1077 122.892 1174.02 465.956
81 0 82.1719 12.9363 1063 125.668 1172.97 464.154
82 0 84.107 13.792 1160 124.287 1172.73 462.95
83 0 88.0792 12.273 1081 128.132 1173.4 462.397
84 0 92.1752 14.0276 1293 122.316 1173.19 460.125
85 1 47.1642 12.6155 595 122.23 1174.37 481.081
86 0 49.1503 12.4516 612 121.775 1174.07 481.461
87 0 48.0338 11.596 557 126.596 1174.03 480.732
88 0 51.0374 12.0108 613 128.69 1173.97 478.437
89 0 53.0807 12.415 659 122.396 1173.6 478.346
90 0 56.1651 13.4959 758 119.416 1173.52 476.847
91 0 56.0956 12.2113 685 123.648 1173.43 475.945
92 0 60.0549 14.2703 857 117.562 1173.62 475.653
93 0 61.1812 13.3538 817 125.985 1173.14 473.208
94 0 64.0981 13.4325 861 124.568 1173.54 473.125
95 0 66.0692 15.287 1010 120.648 1173.12 470.962
96 0 68.0982 14.2588 971 122.764 1173.17 470.326
97 0 69.339 14.2921 991 123.776 1174.08 468.14
98 0 73.0864 13.8329 1011 123.59 1173.48 468.264
99 0 76.1076 13.9408 1061 123.533 1173.59 466.391
100 0 76.1998 14.252 1086 123.97 1173.73 464.643
101 0 80.0808 13.8735 1111 124.954 1172.4 464.318
102 0 82.2275 13.5478 1114 127.442 1172.56 461.092
103 0 84.1791 13.9464 1174 126.736 1172.52 459.72
104 0 89.3158 14.7006 1313 123.785 1172.46 458.768
105 0 91.3278 13.238 1209 128.441 1172.3 457.864
106 0 93.2226 12.3468 1151 131.3 1171.75 456.223
107 0 97.2187 13.4851 1311 128.301 1172.26 452.829
108 0 102.307 13.7527 1407 126.885 1172.62 451.392
109 0 105.222 14.3032 1505 124.268 1172.39 450.15
110 1 55.028 11.4669 631 126.49 1172.95 471.219
111 0 59.0738 11.9342 705 123.362 1172.93 471.626
112 0 60.0637 12.287 738 124.014 1172.49 469.663
113 0 63.0287 14.3585 905 117.414 1171.28 472.179
114 0 64.1314 13.0202 835 119.699 1171.61 473.04
115 0 64.0819 12.0471 772 124.488 1171.79 470.028
116 0 68.1264 13.1814 898 120.433 1171.8 468.98
117 0 71.0724 12.8883 916 120.378 1171.84 466.379
118 0 74.0679 13.4336 995 118.633 1172.11 464.855
119 0 74.0435 12.7763 946 120.344 1171.59 463.119
120 0 76.1311 12.242 932 122.627 1171.27 460.429
121 0 79.1314 12.9658 1026 119.068 1171.22 461.292
122 0 82.0996 13.715 1126 117.402 1171.96 457.208
123 0 84.1032 12.9008 1085 119.406 1171.73 457.677
124 0 88.1701 13.3152 1174 117.941 1172.31 455.729
125 0 90.117 12.7279 1147 119.32 1172.29 454.324
126 0 90.117 12.6946 1144 145.378 1173.28 454.323
127 0 98.0644 12.4714 1223 120.722 1170.91 450.982
128 0 100.111 12.2064 1222 120.902 1171.84 450.921
129 0 104.17 12.5852 1311 118.874 1172.2 448.725
130 1 53.0929 10.4534 555 118.011 1171.94 471.092
131 0 59.0961 12.8435 759 109.427 1172.13 471.109
132 0 61.1557 13.1304 803 113.995 1173.17 473.336
133 0 62.0815 13.3695 830 108.453 1173.96 473.516
134 0 65.0829 12.5532 817 109.599 1173.03 471.941
135 0 66.0325 12.721 840 110.221 1172.88 470.019
136 0 71.0916 13.1942 938 107.778 1173.63 469.316
137 0 72.076 13.8465 998 106.845 1172.77 468.729
138 0 75.1597 13.2252 994 108.817 1173 466.877
139 0 76.0658 12.6864 965 111.51 1172.8 466.417
140 0 79.1013 12.3512 977 111.513 1173.01 464.724
141 0 82.1133 12.3488 1014 112.015 1173 460.526
142 0 86.0621 12.1889 1049 112.608 1171.93 461.216
143 0 91.1195 13.6963 1248 107.837 1172.89 458.718
144 0 92.1124 13.7006 1262 110.41 1172.03 456.63
145 1 51.085 11.3145 578 112.285 1172.26 479.304
146 0 51.1251 12.8313 656 108.07 1172.73 478.916
147 0 54.1041 12.3466 668 107.888 1171.98 477.994
148 0 53.0382 12.2365 649 107.733 1173.4 478.493
149 0 53.0313 11.0501 586 111.613 1173.16 478.635
150 0 54.0882 12.0544 652 110.152 1172.97 475.56
151 0 57.0795 12.2286 698 108.819 1173.68 475.97
152 0 60.178 12.5461 755 108.914 1172.99 474.167
153 0 62.1067 11.9794 744 110.652 1173.03 473.362
154 0 57.0568 9.86736 563 118.554 1173.69 468.158
155 0 65.153 12.8927 840 109.671 1173.22 470.257
156 0 67.0695 13.7022 919 107.704 1172.82 470.789
157 0 70.0648 13.0165 912 110.628 1172.73 467.235
158 0 71.142 13.0443 928 111.314 1172.54 467.359
159 0 72.1491 12.6128 910 115.055 1172.49 466.053
160 0 78.0711 12.9241 1009 114.419 1172.99 466.341
161 0 77.1686 12.4273 959 117.515 1173.29 465.286
162 0 81.153 14.3679 1166 114.779 1172.44 464.075
163 0 82.1421 13.501 1109 118.941 1172.12 461.263
164 0 84.1369 14.2149 1196 117.806 1172.44 458.729
165 0 87.2118 15.0782 1315 117.066 1172.08 456.189
166 0 90.2014 14.4676 1305 118.394 1172.12 454.719
167 0 92.2152 14.336 1322 119.568 1172.81 453.261
168 0 96.1828 14.1709 1363 119.45 1173.19 450.988
169 0 101.154 15.3627 1554 116.105 1172.82 450.606
170 1 52.0536 10.6045 552 119.897 1173.52 473.799
171 0 54.1545 13.443 728 114.364 1171.7 471.985
172 0 56.0498 11.7931 661 118.08 1171.77 471.769
173 0 58.1166 12.5782 731 111.079 1173.09 475.785
174 0 59.2078 12.1606 720 112.981 1172.88 473.557
175 0 60.1225 11.3934 685 115.13 1172.04 474.207
176 0 64.1789 12.4963 802 112.776 1171.86 470.979
177 0 64.0658 12.9554 830 112.633 1172.77 470.73
178 0 67.083 12.5963 845 112.507 1172.14 469.308
179 0 70.1268 12.0639 846 113.662 1172.46 468.628
180 0 72.0433 12.8673 927 113.035 1172.36 466.49
181 0 75.0296 12.5284 940 113.154 1171.99 466.462
182 0 78.0524 12.3635 965 113.921 1172.26 463.319
183 0 81.0678 12.0763 979 114.379 1172.43 463.322
184 0 80.0182 11.135 891 118.673 1171.82 461.27
185 0 85.0977 11.4104 971 118.743 1172.41 459.667
186 0 86.0952 12.3584 1064 116.931 1172.46 456.225
187 0 91.1597 12.4616 1136 116.939 1173.23 454.222
188 0 96.2872 14.9137 1436 109.171 1173.05 456.226
189 0 97.1939 12.9741 1261 115.013 1173.25 452.171
190 0 100.189 11.9773 1200 117.162 1172.46 451.405
191 1 51.0314 9.91546 506 112.468 1172.14 476.901
192 0 55.0223 12.0497 663 107.885 1172.13 475.938
193 0 56.0244 12.8872 722 107.188 1172.62 475.265
194 0 57.1606 12.2812 702 109.634 1172.48 474.812
195 0 60.0954 12.2805 738 108.045 1172.02 473.287
196 0 63.1182 12.6905 801 106.652 1172.58 471.361
197 0 64.0846 12.0934 775 108.675 1172.33 470.265
198 0 67.2383 11.8682 798 108.543 1172.87 469.159
199 0 68.2972 13.0166 889 106.751 1172.68 467.612
200 0 68.124 11.435 779 112.01 1172.93 466.395
201 0 73.1502 12.7136 930 115.549 1172.87 465.5
202 0 74.0783 12.3383 914 118.193 1172.19 461.848
203 0 77.1661 12.6999 980 116.74 1172.25 464.433
204 0 81.2731 12.3288 1002 116.504 1172.55 461.598
205 0 83.2109 12.8829 1072 116.616 1172.82 459.994
206 0 85.2004 13.2394 1128 115.967 1172.71 459.356
207 0 88.1658 12.3744 1091 117.379 1172.57 459.222
208 0 90.2298 13.0888 1181 115.307 1172.98 455.831
209 0 94.1557 12.1713 1146 115.749 1173.07 454.177
210 0 100.218 13.2411 1327 111.69 1173.23 453.959
211 0 100.218 11.5947 1162 116.425 1173.12 451.676
212 0 104.137 12.0898 1259 113.392 1173.35 450.321
213 0 108.079 12.1671 1315 112.932 1172.1 449.227
214 0 112.151 11.012 1235 116.453 1172.49 447.215
215 0 117.151 11.6858 1369 113.457 1172.34 444.218
216 0 122.157 12.6804 1549 111.539 1172.45 439.544
217 0 125.286 12.1163 1518 112.713 1173.07 436.915
218 1 69.0324 10.8355 748 111.572 1173.07 465.992
219 0 70.0487 11.6776 818 110.925 1173.11 466.275
220 0 74.0578 13.665 1012 107.475 1171.75 464.333
221 0 76.1339 11.5586 880 111.677 1171.56 464.395
222 0 80.1095 13.7936 1105 107.485 1171.33 461.718
223 0 85.0763 13.9404 1186 107.283 1171.46 462.393
224 0 86.0618 14.9776 1289 106.091 1171.92 460.723
225 0 89.0732 13.1353 1170 111.624 1172.57 459.802
226 0 92.1273 13.5573 1249 112.249 1172.13 457.789
227 0 94.1332 12.3867 1166 115.36 1172.06 458.753
228 0 96.1398 13.0747 1257 114.932 1171.37 454.603
229 0 98.1618 14.3029 1404 115.073 1171.38 451.614
230 0 103.194 14.0706 1452 115.448 1172.1 453.696
231 0 106.201 12.5611 1334 119.55 1171.48 451.603
232 0 108.211 13.446 1455 119.236 1171.79 448.166
233 1 58.0588 10.4549 607 115.135 1171.27 473.554
234 0 60.1453 10.8238 651 114.031 1171.57 468.103
235 0 63.1424 11.1969 707 107.593 1172.67 468.645
236 0 65.0681 13.0786 851 107.841 1172.02 472.544
237 0 66.052 12.7173 840 109.885 1172.42 471.088
238 0 68.123 12.3306 840 109.88 1172.23 470.193
239 0 71.172 11.409 812 111.506 1172.7 469.504
240 0 74.04 12.9795 961 107.369 1172.3 469.502
241 0 75.0622 11.0841 832 113.383 1171.42 467.258
242 0 79.0753 11.8242 935 109.938 1171.71 465.927
243 0 82.1113 12.8606 1056 107.46 1172.08 465.586
244 0 82.0646 11.9784 983 110.511 1172.16 462.883
245 0 87.138 12.2105 1064 109.257 1173.29 461.882
246 0 89.0901 12.1787 1085 110.062 1172.26 458.777
247 0 93.1168 12.5864 1172 108.098 1173.96 456.639
248 0 97.0735 14.4324 1401 103.138 1173.54 456.52
249 0 100.09 13.6277 1364 104.596 1173.74 455.194
250 0 104.23 12.6451 1318 106.65 1173.3 452.337
251 1 51.0966 11.1162 568 106.347 1174.04 478.648
252 0 53.0251 10.9948 583 106.705 1174.63 477.475
253 0 54.1014 11.959 647 105.493 1173.86 472.326
254 0 57.1653 13.1898 754 101.708 1173.36 472.638
255 0 59.0981 12.42 734 102.413 1173.73 472.451
256 0 59.111 11.9267 705 102.553 1174.08 473.806
257 0 61.1073 11.2425 687 103.262 1173.21 473.173
258 0 59.1021 11.1164 657 104.233 1173.39 472.326
259 0 63.1496 11.6865 738 102.446 1173.51 470.203
260 0 67.1705 12.4906 839 99.0322 1173.16 470.627
261 0 67.2094 12.5727 845 100.514 1173.39 466.011
262 0 70.0814 10.6733 748 104.861 1173.93 468.325
263 0 71.0592 11.0049 782 104.646 1172.8 466.976
264 0 77.0727 11.1323 858 101.98 1172.84 465.969
265 0 78.0859 10.4372 815 103.975 1173.53 463.616
266 0 83.0793 11.9284 991 100.527 1173.22 462.341
267 1 43.0684 12.2363 527 100.989 1174.23 480.199
268 0 44.0831 10.5256 464 104.672 1172.69 480.106
269 0 44.0116 10.6108 467 102.741 1173.43 481.488
270 0 45.0421 10.8565 489 103.521 1173.76 479.777
271 0 49.0909 13.4445 660 97.103 1173.08 479.218
272 0 50.0917 12.6568 634 98.6672 1173.23 476.402
273 0 51.0457 12.2439 625 100.794 1172.89 477.322
274 0 53.0476 14.3456 761 96.2773 1172.88 476.231
275 0 54.0415 12.3794 669 101.01 1172.53 475.634
276 0 55.0637 12.3312 679 102.034 1172.75 475.323
277 0 56.0302 11.5295 646 103.817 1172.71 474.718
278 0 57.0251 12.5734 717 101.937 1172.46 472.997
279 0 61.0402 12.7293 777 100.828 1172.96 472.951
280 0 62.0916 12.2561 761 101.898 1172.83 471.699
281 0 63.0353 12.6437 797 102.656 1173.44 471.009
282 0 64.0494 12.6621 811 102.39 1173.15 471.951
283 0 66.1202 12.0689 798 103.356 1174.07 467.516
284 0 70.1086 13.2081 926 100.207 1173.64 468.974
285 0 72.0898 14.0242 1011 98.1998 1174.01 467.399
286 0 73.0468 13.3339 974 100.477 1173.62 466.352
287 0 76.069 13.1197 998 100.178 1174.02 463.739
288 0 78.0368 13.3783 1044 100.013 1172.91 463.67
289 0 80.0582 12.0787 967 106.825 1173.45 461.746
290 0 85.0816 13.6575 1162 102.299 1173.61 461.046
291 0 88.1677 13.3496 1177 102.226 1173.78 458.898
292 0 92.1679 13.1933 1216 101.664 1173.01 459.766
293 1 48.0438 11.9058 572 98.9283 1173.25 479.68
294 0 49.1626 11.9806 589 95.5857 1172.9 477.693
295 0 49.2704 12.6445 623 95.3066 1173.94 475.563
296 0 54.198 12.2698 665 93.4015 1172.38 476.836
297 0 55.1059 14.0094 772 90.1269 1173.84 476.114
298 0 55.0718 11.1128 612 96.3758 1173.45 475.828
299 0 57.0523 12.9355 738 92.5935 1172.54 473.419
300 0 59.1456 13.1032 775 92.5226 1173.05 473.97
301 0 63.1249 13.9248 879 89.934 1173.37 473.164
302 0 63.1144 14.1172 891 90.8451 1173.11 470.671
303 0 65.0257 12.1798 792 93.6957 1174.02 472.148
304 0 68.0752 13.6907 932 90.4592 1173.49 470.235
305 0 69.0493 13.9755 965 90.9824 1173.81 468.036
306 0 70.0545 12.0763 846 93.9196 1174.14 469.514
307 0 73.0423 14.0603 1027 91.0263 1173.34 465.253
308 0 74.0868 12.1479 900 95.7867 1173.13 464.178
309 0 79.0893 12.3531 977 94.4985 1173.2 465.309
310 0 80.0895 12.1739 975 99.722 1171.84 464.199
311 0 83.0929 13.166 1094 97.7934 1172.71 461.693
312 0 85.1621 12.4703 1062 99.5066 1173.58 459.781
313 0 88.1336 12.2087 1076 99.9796 1173.71 458.125
314 0 90.075 10.6023 955 102.993 1173.32 457.444
315 1 48.0239 10.7446 516 99.0446 1173.86 479.793
316 0 50.1809 12.1162 608 97.7303 1173.14 477.656
317 0 50.0201 12.0752 604 98.5464 1173.71 475.487
318 0 50.0201 12.1151 606 122.901 1174.71 475.495
319 0 55.185 13.5725 749 96.8278 1173.49 475.721
320 0 56.1286 12.0081 674 100.059 1173.26 475.723
321 0 58.0439 13.3864 777 97.7568 1173.55 475.759
322 0 58.0452 13.1622 764 99.9306 1174.22 472.208
323 0 61.105 12.0939 739 101.564 1173.48 472.869
324 0 62.0841 11.3717 706 97.7705 1173.46 472.616
325 0 64.0841 11.8282 758 97.1306 1173.53 472.364
326 0 65.1672 10.6035 691 99.479 1173.44 472.132
327 0 68.0641 11.2541 766 100.347 1173.01 468.794
328 0 70.1057 10.5555 740 101.62 1173.22 468.5
329 0 74.0895 11.0812 821 101.372 1172.89 468.035
330 0 76.1081 11.9304 908 100.683 1173.11 465.074
331 0 79.0541 11.5744 915 101.775 1173.24 464.122
332 0 84.0697 11.2883 949 101.415 1172.91 462.582
333 1 45.0404 10.9013 491 97.5519 1173.15 482.658
334 0 43.0642 10.4959 452 99.2168 1172.77 480.805
335 0 48.1107 11.0994 534 98.1442 1171.84 477.736
336 0 48.0233 11.0988 533 98.1144 1173.05 478.137
337 0 50.0375 12.4107 621 98.8454 1173.12 480.565
338 0 51.0592 12.1428 620 100.269 1172.56 480.445
339 0 52.1469 12.6374 659 99.1882 1172.98 476.68
340 0 53.1965 11.5797 616 100.445 1173.63 478.789
341 0 57.1247 13.1117 749 97.6529 1172.44 476.87
342 0 60.1107 12.7764 768 96.7057 1173.19 476.414
343 0 59.0528 11.1087 656 101.07 1173.22 474.287
344 0 61.138 11.6785 714 99.2353 1173.22 473.454
345 0 60.0837 11.717 704 100.418 1173.64 471.31
346 0 64.1052 10.8571 696 100.431 1173.18 472.427
347 0 66.1384 11.3247 749 99.5741 1172.55 471.605
348 0 68.1402 11.2856 769 100.528 1173.18 469.818
349 0 73.1319 12.4433 910 97.9209 1173.62 467.956
350 0 73.1714 11.8079 864 99.2743 1173.71 466.852
351 0 77.1358 11.7585 907 99.9504 1173.35 464.896
352 0 77.1346 11.6549 899 122.527 1172.36 464.808
353 0 84.0795 13.8203 1162 95.562 1173.15 464.646
354 0 86.0469 12.621 1086 99.1013 1172.69 463.66
355 0 88.1044 12.4511 1097 100.51 1172.36 459.21
356 0 91.1966 13.279 1211 99.3295 1172.78 458.291
357 0 94.0943 12.6469 1190 101.634 1172.58 457.473
358 1 50.0163 10.9364 547 95.0658 1174.19 480.207
359 0 51.1154 10.3687 530 97.866 1174.11 479.223
360 0 53.1143 12.3695 657 99.5966 1174.41 479.18
361 0 53.1383 11.0466 587 101.194 1174.65 477.963
362 0 54.055 11.9693 647 99.8748 1175.11 476.065
363 0 55.0348 11.0657 609 102.118 1175.18 478.731
364 0 57.1089 12.2047 697 101.455 1174.47 473.544
365 0 60.035 11.1268 668 103.353 1174.62 473.504
366 0 61.0515 11.8752 725 102.389 1174.35 474.026
367 0 64.123 12.1017 776 102.25 1174.09 473.325
368 0 67.1291 12.6622 850 102.139 1173.96 470.613
369 0 69.1244 14.6837 1015 98.0946 1173.91 471.566
370 0 71.0354 12.4726 886 103.722 1173.98 467.921
371 0 74.073 13.3787 991 104.521 1174.1 468.366
372 0 76.1144 12.363 941 107.233 1173.84 467.292
373 0 79.086 13.2767 1050 108.003 1173.86 466.085
374 0 83.1576 14.4906 1205 107.402 1173.83 461.978
375 0 87.1298 13.5086 1177 110.171 1174.4 463.75
376 0 88.1569 13.3399 1176 112.601 1174.23 460.991
377 0 93.2806 13.0145 1214 113.703 1173.87 460.885
378 0 95.1177 13.5727 1291 105.518 1173.59 456.559
379 1 51.0524 10.5186 537 106.339 1172.69 481.857
380 0 52.0853 11.942 622 110.783 1174.05 480.204
381 0 53.0611 12.1746 646 105.72 1173.67 479.43
382 0 55.035 12.7919 704 103.741 1173.84 479.092
383 0 58.0547 13.0911 760 102.842 1173.75 478.732
384 0 60.0582 14.2362 855 100.897 1173.73 476.952
385 0 62.1228 14.3748 893 100.602 1173.15 476.181
386 0 63.0498 12.847 810 105.474 1174.07 474.625
387 0 65.0738 13.4924 878 103.94 1174.68 473.793
388 0 66.1569 12.682 839 106.515 1174.4 472.373
389 0 70.079 12.8855 903 105.55 1173.85 472.715
390 0 72.041 13.0898 943 106.352 1173.41 470.754
391 0 74.0425 13.2627 982 105.903 1173.69 470.568
392 0 77.1074 13.0856 1009 106.492 1174.01 469.613
393 0 79.0922 13.7182 1085 106.844 1173.9 466.669
394 0 84.1042 13.7449 1156 105.943 1173.93 466.894
395 0 85.1263 12.3111 1048 110.858 1173.78 465.093
396 0 86.1823 12.6824 1093 111.296 1173.97 462.449
397 0 89.0806 12.5729 1120 111.433 1174.43 461.804
398 0 94.1516 13.5951 1280 110.509 1173.7 460.534
399 1 48.0327 11.513 553 113.864 1175.32 482.051
400 0 49.0697 12.0237 590 113.578 1175.7 480.583
401 0 52.0872 12.2295 637 111.642 1175.18 480.761
402 0 55.2218 12.9297 714 108.42 1174.57 479.618
403 0 56.0774 13.3209 747 106.874 1174.38 478.882
404 0 57.0939 12.2255 698 109.772 1174.36 478.885
405 0 58.1124 12.4414 723 111.271 1173.92 475.541
406 0 60.1406 12.7534 767 109.898 1174.47 476.922
407 0 61.1189 12.0094 734 111.661 1174.25 475.672
408 0 63.2 12.6424 799 110.746 1174.03 474.374
409 0 67.1163 13.5437 909 108.7 1173.38 472.814
410 0 68.1196 13.1827 898 110.134 1173.57 472.612
411 0 71.1644 14.5157 1033 107.005 1173.77 471.164
412 0 73.114 14.5253 1062 107.714 1173.31 470.365
413 0 76.1306 14.3306 1091 108.103 1174.06 468.155
414 0 77.1212 13.6668 1054 111.181 1173.78 467.102
415 0 80.1348 13.2776 1064 112.037 1173.92 467.256
416 0 83.1614 13.5279 1125 112.063 1173.79 464.489
417 0 87.0932 12.7794 1113 113.982 1174.36 460.464
418 0 88.12 12.5057 1102 115.457 1174.36 461.999
419 0 91.1291 14.4081 1313 111.978 1174.36 458.152
420 0 94.1101 13.0379 1227 115.903 1174.43 457.165
421 1 51.0282 12.2677 626 116.684 1174.89 478.874
422 0 52.0701 12.5216 652 115.305 1174.07 478.477
423 0 52.0701 12.5792 655 143.243 1174.1 478.551
424 0 55.0998 12.9038 711 108.274 1173.24 475.682
425 0 56.1296 11.0993 623 111.737 1172.94 475.978
426 0 56.063 12.6643 710 111.403 1173.63 476.99
427 0 60.0494 12.3065 739 109.866 1173.44 477.424
428 0 61.0583 11.661 712 112.258 1173.09 474.93
429 0 64.1701 12.1084 777 111.57 1173.57 475.214
430 0 65.0976 11.0757 721 114.817 1173.42 474.551
431 0 68.0961 12.9082 879 111.064 1173.93 473.472
432 0 71.1504 12.8741 916 110.471 1173.94 472.408
433 0 73.0953 12.3948 906 113.355 1173.31 468.766
434 0 74.1073 11.9017 882 114.858 1172.97 469.768
435 0 79.1064 11.9839 948 115.214 1174.04 468.783
436 0 82.0997 14.3971 1182 110.227 1174.36 467.095
437 0 85.1125 13.5115 1150 113.923 1173.64 463.992
438 0 87.0636 12.8527 1119 115.356 1173.57 464.958
439 0 92.1881 13.9714 1288 111.944 1173.69 461.761
440 1 46.0737 11.5684 533 111.255 1173.57 485.096
441 0 44.0555 10.5095 463 116.477 1173.28 483.505
442 0 49.0338 12.2364 600 110.555 1173.61 484.087
443 0 49.0209 12.7497 625 111.003 1172.98 482.08
444 0 52.0849 12.4988 651 110.398 1173.87 482.037
445 0 53.1085 11.7684 625 112.826 1173.73 481.238
446 0 55.1641 12.7801 705 109.721 1174.09 478.779
447 0 58.0836 11.8278 687 110.122 1173.31 479.047
448 0 60.1309 12.4894 751 108.22 1174.14 477.82
449 0 61.1446 12.6422 773 108.348 1173.36 476.285
450 0 60.0773 10.5697 635 113.683 1173.51 475.86
451 0 66.1129 13.4013 886 112.194 1174.03 474.869
452 0 68.2218 12.9724 885 113.962 1174.61 472.314
453 0 71.2418 13.2787 946 114.626 1174.05 471.214
454 0 72.2287 13.3326 963 113.343 1174.66 471.889
455 0 74.232 11.8278 878 117.39 1174.6 470.028
456 0 79.1711 13.755 1089 112.859 1174.77 467.198
457 0 82.1301 13.0768 1074 113.953 1175.23 466.541
458 0 85.2296 13.6455 1163 112.315 1174.84 464.715
459 0 87.3403 11.3235 989 117.668 1174.59 464.593
460 0 90.2634 12.6851 1145 114.423 1174.22 462.486
461 0 93.2361 11.7122 1092 114.595 1173.67 459.277
462 1 48.1938 10.5823 510 111.567 1174.79 483.488
463 0 49.1391 11.4369 562 108.906 1174.71 480.925
464 0 49.0368 11.4812 563 109.645 1174.77 480.268
465 0 50.0749 11.0634 554 111.888 1175.39 479.365
466 0 56.2483 13.1204 738 106.53 1176.01 479.619
467 0 57.052 13.3212 760 105.874 1175.24 478.532
468 0 60.0481 12.6399 759 107.427 1174.95 478.18
469 0 61.0678 13.1984 806 107.532 1175.31 476.973
470 0 63.1026 12.3767 781 111.68 1175.45 476.516
471 0 66.0867 13.3915 885 109.584 1175.17 474.149
472 0 67.057 14.7039 986 107.935 1174.61 472.391
473 0 70.1237 14.2463 999 108.93 1175.16 473.232
474 0 72.1263 13.3238 961 111.594 1175.2 471.692
475 0 75.2408 13.1179 987 112.56 1175.39 469.454
476 0 77.1141 12.8641 992 113.188 1175.48 469.472
477 0 81.1953 14.225 1155 111.113 1175.18 465.502
478 0 83.1586 13.7328 1142 111.804 1175.33 466.109
479 0 85.1031 13.0195 1108 113.87 1174.81 465.412
480 0 87.2104 13.4502 1173 113.633 1174.48 463.659
481 0 93.2063 13.8081 1287 112.179 1174.38 461.382
482 0 95.1364 14.1691 1348 111.248 1174.11 460.757
483 0 97.2696 12.892 1254 114.844 1173.79 461.249
484 1 51.0791 13.5085 690 113.981 1174.63 479.093
485 0 52.1584 12.9605 676 115.052 1174.14 479.004
486 0 53.0469 12.8565 682 115.872 1174.21 481.488
487 0 51.1093 12.6983 649 112.675 1174.59 480.846
488 0 53.0406 11.8777 630 114.452 1174.65 479.871
489 0 57.0487 12.6734 723 111.199 1174.36 479.141
490 0 61.042 14.1542 864 107.565 1174.69 477.263
491 0 62.104 12.6562 786 111.439 1174.73 475.987
492 0 65.0783 13.1688 857 110.541 1174.63 475.775
493 0 66.0434 13.158 869 111.819 1173.73 473.956
494 0 70.1339 14.3583 1007 108.621 1174.51 473.125
495 0 71.1128 13.2325 941 113.105 1173.86 471.718
496 0 74.1481 13.2168 980 113.999 1173.76 469.45
497 0 77.0899 14.775 1139 110.75 1174.19 466.356
498 0 79.132 12.6371 1000 115.588 1174.45 468.032
499 0 83.1097 14.3064 1189 113.252 1174.22 465.307
500 0 84.1183 13.5167 1137 120.348 1174.36 464.538
501 0 88.2622 14.2077 1254 122.155 1174.8 460.419
502 0 90.2528 14.4594 1305 123.617 1174.66 455.943
503 0 95.3208 14.1732 1351 123.772 1175.05 456.297
504 1 48.1958 11.5778 558 123.367 1175.14 480.808
505 0 50.2473 11.9608 601 121.301 1175.11 480.431
506 0 50.2383 12.381 622 122.32 1174.95 478.571
507 0 51.2295 11.8096 605 122.729 1174.84 480.43
508 0 55.1304 12.8967 711 119.286 1174.66 480.719
509 0 57.1482 12.9663 741 118.313 1175.5 479.493
510 0 60.0907 13.0636 785 117.688 1175.69 477.665
511 0 58.0616 12.2801 713 120.383 1175.51 478.525
512 0 62.1572 13.4015 833 117.312 1175.48 475.942
513 0 66.1214 13.5206 894 116.128 1175.18 474.724
514 0 65.086 13.0596 850 120.147 1175.34 473.169
515 0 69.1236 12.861 889 120.489 1175.1 471.963
516 0 72.094 13.1634 949 121.875 1174.61 470.31
517 0 75.1838 12.7288 957 122.694 1175.4 470.205
518 0 78.1622 14.4955 1133 118.252 1174.99 467.397
519 0 83.2137 13.8559 1153 119.109 1174.82 465.226
520 0 83.3404 13.6069 1134 121.286 1175.09 465.625
521 0 87.3604 14.526 1269 119.667 1175.17 461.724
522 0 90.3825 14.2505 1288 120.906 1174.49 461.043
523 0 93.34 12.8777 1202 125.606 1174.34 458.639
524 0 98.328 13.3228 1310 123.944 1174.9 457.568
525 0 101.265 14.309 1449 120.57 1174.83 457.097
526 1 49.1045 12.1781 598 120.161 1174.73 481.01
527 0 51.0842 13.3701 683 116.796 1174.48 480.611
528 0 52.0792 12.9226 673 118.065 1174.79 480.468
529 0 53.0458 13.1396 697 119.237 1174.15 478.861
530 0 54.0626 12.4485 673 121.204 1174.92 479.285
531 0 57.1193 13.1479 751 117.543 1174.48 478.879
532 0 59.1784 13.3157 788 117.999 1174.5 475.838
533 0 62.1352 14.0017 870 116.828 1174.48 474.161
534 0 61.103 12.4871 763 121.662 1174.25 473.121
535 0 66.0543 14.0793 930 117.416 1174.5 473.113
536 0 67.1252 12.8417 862 120.304 1174.33 473.14
537 0 70.0674 14.429 1011 117.265 1174.74 472.586
538 0 70.2235 13.927 978 120.195 1175.22 468.183
539 0 74.1111 13.7496 1019 120.784 1174.5 468.736
540 0 77.1027 13.6571 1053 125.028 1174.03 468.301
541 0 78.0896 13.2284 1033 127.035 1174.01 464.711
542 0 82.1591 14.9831 1231 122.043 1173.54 465.147
543 0 86.1231 13.8871 1196 123.264 1173.89 463.473
544 0 88.147 13.7611 1213 124.128 1173.9 461.615
545 0 90.075 13.6664 1231 125.454 1174.01 460.301
546 0 94.1327 13.0135 1225 125.887 1174.29 458.055
547 0 97.1501 13.3196 1294 124.439 1174.02 456.065
548 0 102.194 13.034 1332 123.438 1174.18 456.704
549 0 104.105 12.6027 1312 124.556 1174.13 454.389
550 1 55.08 12.4546 686 120.411 1175.73 477.816
551 0 56.0844 12.1424 681 121.749 1175.71 477.928
552 0 58.043 11.9739 695 116.164 1175.32 476.452
553 0 60.0482 11.4242 686 118.701 1175.14 476.484
554 0 62.0803 12.7577 792 116.77 1175.07 474.27
555 0 63.0579 12.211 770 118.838 1174.87 473.678
556 0 67.047 11.6784 783 120.169 1175.33 475.013
557 0 71.1771 12.5743 895 118.068 1175.06 472.811
558 0 72.0855 11.7777 849 121.846 1175.12 471.313
559 0 74.0758 13.6077 1008 117.221 1175.51 472.359
560 0 79.1303 13.3198 1054 119.925 1175.64 471.218
561 0 80.0636 13.5642 1086 123.681 1175.2 466.39
562 0 83.1183 13.9199 1157 120.381 1174.98 467.194
563 0 86.1138 13.4589 1159 124.071 1175.13 465.243
564 0 89.0769 12.9326 1152 125.748 1175.14 462.698
565 0 91.1019 13.6441 1243 125.391 1175.64 462.002
566 0 95.187 13.0375 1241 125.917 1175.11 460.327
567 1 50.0725 10.8642 544 118.45 1175.69 484.989
568 0 50.0558 11.9067 596 116.782 1176.08 483.309
569 0 51.0843 11.8823 607 119.079 1175.86 481.461
570 0 53.1269 11.6514 619 120.084 1175.58 481.123
571 0 56.1484 12.7519 716 116.953 1175.85 480.807
572 0 54.1264 11.2514 609 123.475 1175.95 478.402
573 0 56.1868 11.0168 619 124.149 1175.56 478.984
574 0 58.1887 11.4971 669 122.392 1174.97 477.691
575 0 61.0576 11.5629 706 120.013 1175.99 477.523
576 0 64.1072 11.7148 751 119.016 1175.32 475.803
577 0 65.1478 11.3588 740 120.119 1175.06 475.208
578 0 67.1504 11.9136 800 119.31 1175.74 474.219
579 0 71.1029 12.3624 879 116.377 1175.11 472.564
580 0 74.2032 11.7515 872 117.529 1175.16 470.447
581 0 77.1707 12.1808 940 115.287 1174.88 469.861
582 0 81.1701 12.1843 989 115.532 1174.35 467.595
583 0 82.0746 12.184 1000 117.152 1174.41 464.367
584 0 84.119 10.6991 900 119.338 1175.45 465.766
585 0 90.1773 12.0984 1091 116.83 1174.65 462.579
586 1 46.1277 11.4898 530 113.855 1174.63 484.36
587 0 49.1239 12.2751 603 110.421 1174.79 483.998
588 0 48.1287 10.9498 527 113.943 1175.07 482.235
589 0 51.1402 11.8889 608 111.674 1174.51 482.183
590 0 53.0423 11.6134 616 113.073 1175.46 480.604
591 0 56.1141 12.8666 722 109.517 1175.31 479.316
592 0 57.1314 12.5325 716 110.04 1175.46 480.658
593 0 58.0664 12.1068 703 112.666 1175.37 477.933
594 0 59.0896 12.4387 735 112.322 1175.39 477.423
595 0 62.0867 12.3859 769 112.532 1175.11 476.912
596 0 63.0478 11.753 741 114.642 1176.35 476.599
597 0 63.0497 11.6257 733 126.947 1177.35 476.606
598 0 66.0264 12.4193 820 111.007 1174.72 471.568
599 0 68.051 12.1526 827 112.648 1174.91 472.579
600 0 70.1398 12.0188 843 112.854 1174.74 471.154
601 0 73.0718 13.2746 970 110.436 1174.72 470.939
602 0 73.0951 12.5453 917 114.502 1174.04 469.204
603 0 77.0743 12.4425 959 115.23 1174.1 469.934
604 0 79.0822 12.4428 984 116.548 1174.31 466.607
605 0 82.1177 13.3467 1096 114.338 1174.43 468.577
606 0 85.2148 13.0024 1108 116.216 1174.75 466.911
607 0 88.1399 13.3424 1176 115.086 1174.34 465.945
608 0 89.073 12.6301 1125 119.202 1174.46 463.26
609 0 94.1072 13.8672 1305 114.722 1175.02 461.688
610 1 46.0139 11.0401 508 121.659 1175.43 484.323
611 0 50.0381 11.7111 586 124.012 1174.61 484.761
612 0 50.0867 12.4983 626 124.538 1174.4 482.514
613 0 51.1267 13.3394 682 119.494 1174.48 481.44
614 0 54.1257 13.2839 719 119.309 1174.44 481.745
615 0 54.129 12.8397 695 121.494 1174.16 481.397
616 0 55.082 13.8158 761 120.225 1173.94 479.678
617 0 57.1476 12.8614 735 123.566 1174.43 479.29
618 0 61.036 13.0251 795 121.821 1174.32 478.152
619 0 61.0695 13.1653 804 121.963 1175.32 478.185
620 0 63.0817 12.6978 801 123.928 1174.81 477.974
621 0 67.0217 14.831 994 116.753 1174.92 476.785
622 0 69.1341 14.3489 992 118.913 1174.35 475.301
623 0 70.0766 13.8705 972 121.244 1174.12 474.412
624 0 73.0854 14.1205 1032 120.515 1174.02 472.983
625 0 75.0409 13.2728 996 123.124 1174.4 471.106
626 0 77.101 13.0089 1003 124.625 1173.77 471.281
627 0 79.0859 12.9606 1025 123.862 1173.95 469.482
628 0 84.1111 13.6011 1144 121.962 1173.56 466.384
629 0 85.1002 13.772 1172 122.418 1173.2 464.737
630 1 43.0302 11.6197 500 127.18 1173.6 485.618
631 0 46.115 11.3195 522 129.935 1173.8 482.952
632 0 47.0605 13.6845 644 123.036 1173.92 483.562
633 0 47.0886 12.0624 568 128.437 1174.25 484.349
634 0 50.0608 13.7832 690 123.728 1174.18 482.448
635 0 52.0332 13.0878 681 126.153 1174.28 481.308
636 0 53.0752 12.5859 668 128.608 1174.82 481.502
637 0 54.026 13.7896 745 125.659 1175.07 478.813
638 0 57.0468 13.077 746 127.414 1174.53 478.291
639 0 58.0913 13.3583 776 128.607 1175.01 476.17
640 0 59.0435 12.8719 760 130.691 1175.55 477.668
641 0 62.0532 11.748 729 133.787 1174.76 476.978
642 0 66.0464 14.0204 926 127.075 1174.84 473.325
643 0 66.2791 12.3267 817 132.956 1174.23 473.268
644 0 69.1816 13.6742 946 130.449 1174.73 471.3
645 0 73.2037 14.2889 1046 128.385 1174.36 471.164
646 0 73.3768 13.5056 991 132.258 1173.82 470.079
647 0 75.1776 13.2619 997 134.681 1174.08 467.298
648 0 77.224 14.1666 1094 131.942 1174.17 466.318
649 0 79.243 14.058 1114 133.729 1174.12 464.466
650 0 83.1833 14.8467 1235 131.148 1173.97 463.435
651 0 84.3722 13.9027 1173 135.587 1173.73 458.711
652 0 88.3541 13.8647 1225 134.552 1173.83 460.826
653 0 92.271 14.6633 1353 131.91 1174.27 458.965
654 0 94.2008 13.2695 1250 137.074 1174.42 456.949
655 0 98.4503 13.8141 1360 134.41 1174.99 454.49
656 0 102.359 13.736 1406 133.613 1174.87 453.528
657 1 53.2285 12.2491 652 126.936 1175.29 478.975
658 0 56.211 12.542 705 126.362 1175.16 478.39
659 0 56.0784 11.7514 659 129.744 1174.16 478.608
660 0 58.1412 12.6932 738 126.238 1174.05 478.417
661 0 60.1139 13.3247 801 125.984 1173.89 475.356
662 0 63.1928 13.1502 831 125.513 1173.74 474.816
663 0 64.1402 12.1453 779 127.629 1174.03 473.516
664 0 68.1187 12.2727 836 124.915 1174.28 472.054
665 0 70.1239 12.649 887 122.498 1174.02 469.588
666 0 73.2007 13.3878 980 120.011 1174.32 467.723
667 0 75.0864 12.1593 913 122.713 1174.02 466.764
668 0 75.1353 10.887 818 125.742 1174.14 465.539
669 0 81.2284 12.8403 1043 119.351 1174.4 464.152
670 0 83.1894 11.8405 985 120.525 1174.56 464.356
671 0 87.2254 12.7371 1111 119.37 1174.46 461.564
672 0 89.267 11.9865 1070 120.559 1174.41 459.367
673 0 93.3363 12.3639 1154 118.211 1174.02 457.672
674 0 95.2082 11.8162 1125 120.104 1174.26 455.524
675 0 100.211 13.5015 1353 114.945 1175.01 454.991
676 0 104.255 12.4598 1299 116.535 1174.45 454.455
677 0 109.222 12.1405 1326 116.488 1174.2 452.33
678 1 54.2142 11.1594 605 110.881 1175.16 479.17
679 0 59.2582 11.4921 681 111.639 1174.45 476.332
680 0 60.121 12.7244 765 107.081 1174.01 477.571
681 0 63.1824 12.6301 798 106.683 1174.4 474.511
682 0 63.1082 11.5357 728 110.644 1173.82 472.298
683 0 65.1895 12.6401 824 107.931 1174.28 471.976
684 0 68.121 12.6393 861 108.395 1174.63 470.859
685 0 70.1436 12.617 885 108.41 1174.49 470.165
686 0 73.2314 12.4673 913 109.761 1174.24 467.653
687 0 74.1394 12.0449 893 113.954 1174.19 468.22
688 0 80.0973 12.1477 973 110.149 1173.57 466.917
689 0 82.0971 12.3634 1015 110.749 1173.46 465.98
690 0 82.0897 12.1818 1000 113.306 1173.71 464.079
691 0 85.1392 12.7203 1083 111.856 1173.97 462.957
692 0 89.2658 11.8522 1058 113.923 1173.84 459.33
693 0 91.2269 11.5865 1057 114.661 1173.98 458.343
694 0 96.1967 12.6823 1220 112.086 1173.84 459.098
695 0 97.266 11.34 1103 116.471 1173.96 453.179
696 1 50.2402 10.3105 518 108.471 1174.12 480.344
697 0 49.2854 9.27252 457 111.814 1174.96 480.289
698 0 51.0981 11.9965 613 106.682 1173.78 478.636
699 0 54.0612 12.0049 649 106.807 1173.51 478.978
700 0 54.0659 11.6524 630 108.74 1172.99 479.641
701 0 56.0696 12.1099 679 107.873 1173.36 477.532
702 0 58.0931 12.4628 724 106.642 1173.49 477.967
703 0 62.0681 13.4207 833 103.67 1173.7 476.156
704 0 61.1151 11.6992 715 109.765 1174.53 473.478
705 0 65.0775 12.5696 818 108.16 1174.37 472.378
706 0 67.1285 13.5561 910 107.214 1174.19 470.637
707 0 69.1027 13.2122 913 108.433 1174.27 471.256
708 0 72.1271 12.4918 901 111.203 1174.23 469.309
709 0 73.0865 12.7794 934 111.078 1174.08 470.03
710 0 77.1463 12.8068 988 112.197 1174.53 467.117
711 0 78.1714 13.0994 1024 112.915 1174.25 467.853
712 0 81.1896 13.0312 1058 114.317 1174.23 466.912
713 0 83.189 13.4633 1120 116.772 1174.11 462.063
714 0 87.1806 13.019 1135 118.062 1174.79 464.183
715 0 89.1359 12.3631 1102 121.502 1173.93 459.357
716 1 47.0696 12.8108 603 120.269 1173.37 480.841
717 0 48.1158 12.1997 587 117.145 1174.6 483.041
718 0 49.118 13.4981 663 117.246 1175.13 481.1
719 0 50.0587 12.785 640 117.638 1174.98 481.656
720 0 53.0764 13.1509 698 115.544 1175.01 481.083
721 0 53.1045 12.4283 660 119.145 1174.85 479.629
722 0 54.1516 12.8343 695 119.213 1174.77 478.596
723 0 57.0548 11.1121 634 121.746 1175.03 479.907
724 0 59.111 13.5846 803 114.918 1174.96 479.539
725 0 58.1177 12.6467 735 119.397 1174.36 476.155
726 0 61.1261 13.9384 852 116.677 1174.06 477.438
727 0 62.1051 12.3017 764 122.285 1174.55 474.952
728 0 65.0942 12.9965 846 119.069 1174.72 475.713
729 0 65.1903 13.3455 870 120.628 1173.94 475.663
730 0 69.0607 12.6411 873 121.021 1174.57 474.966
731 0 70.1111 14.0206 983 121.535 1174.25 470.482
732 0 72.0776 12.764 920 126.549 1174.33 472.411
733 0 76.091 12.577 957 125.601 1174.59 471.196
734 0 79.1358 12.6618 1002 121.953 1174.28 469.706
735 0 82.1124 12.9457 1063 122.709 1174.12 468.977
736 0 85.1216 13.4396 1144 121.416 1173.86 465.483
737 1 42.0638 11.3875 479 124.929 1174.1 486.084
738 0 44.0257 12.3337 543 122.085 1174.96 484.114
739 0 47.0448 12.52 589 121.705 1173.57 483.969
740 0 47.0948 12.9738 611 120.1 1173.09 483.316
741 0 49.0416 13.356 655 119.434 1172.69 482.354
742 0 50.0428 13.5084 676 120.062 1173.37 480.518
743 0 53.0624 13.4182 712 118.132 1173.31 481.344
744 0 55.0938 13.3772 737 118.339 1173.67 479.693
745 0 56.0834 13.997 785 117.369 1173.68 480.113
746 0 56.0657 13.3593 749 120.603 1173.61 477.258
747 0 60.0695 14.4666 869 115.148 1173.52 478.749
748 0 61.0258 13.5516 827 117.943 1173.8 476.805
749 0 65.0725 14.3532 934 115.33 1173.88 474.815
750 0 66.0486 13.6263 900 117.247 1173.5 474.277
751 0 67.2371 12.4039 834 122.211 1174.63 473.562
752 0 70.0952 13.7099 961 120.386 1174.42 471.473
753 0 72.129 12.6024 909 126.3 1174.32 469.919
754 0 75.1179 12.5137 940 126.868 1174.25 469.722
755 0 77.0654 12.8462 990 126.105 1173.91 468.23
756 0 82.138 12.4668 1024 127.294 1173.83 467.374
757 0 84.2501 13.6736 1152 125.751 1174.48 463.527
758 0 87.3439 14.586 1274 123.237 1173.79 463.042
759 0 89.1685 14.4782 1291 124.369 1173.6 461.273
760 0 91.1778 13.6437 1244 128.304 1173.62 459.752
761 1 47.0833 11.108 523 122.537 1174.27 482.864
762 0 49.2237 12.2299 602 119.377 1174.46 483.158
763 0 49.1377 11.7425 577 116.503 1174.97 478.721
764 0 54.179 12.8278 695 111.213 1175.25 480.138
765 0 54.0881 12.5536 679 113.436 1174.6 478.686
766 0 55.1824 13.6819 755 111.212 1174.4 477.597
767 0 56.1587 12.5181 703 117.962 1174.42 478.666
768 0 57.0808 11.8604 677 120.072 1174.73 479.173
769 0 58.1203 13.1624 765 116.851 1174.37 478.737
770 0 60.2265 12.5858 758 116.418 1174.71 477.343
771 0 63.1604 12.112 765 117.114 1174.37 476.541
772 0 64.144 12.2537 786 118.461 1174.31 474.614
773 0 64.1364 12.4422 798 118.744 1174.12 474.485
774 0 67.0705 12.718 853 118.395 1174.49 472.586
775 0 69.1072 12.7773 883 119.037 1174.26 472.15
776 0 73.1934 12.4875 914 117.27 1174.55 471.493
777 0 75.1337 12.551 943 117.433 1175.16 469.264
778 0 78.0886 14.4708 1130 112.713 1174.9 469.773
779 0 81.1097 12.9208 1048 118.213 1174.6 468.941
780 0 82.157 12.9995 1068 119.739 1174.29 465.385
781 0 84.1525 12.3942 1043 122.679 1174.24 465.76
782 0 88.3258 12.5558 1109 122.253 1173.79 462.202
783 0 90.469 14.0048 1267 118.388 1174.26 460.238
784 1 48.1616 10.6101 511 119.401 1174.43 481.879
785 0 50.1486 12.3433 619 117.2 1173.42 480.267
786 0 52.0494 10.9896 572 119.042 1174.55 481.811
787 0 51.0546 12.3201 629 116.178 1174.77 479.806
788 0 55.0777 12.5459 691 110.339 1174.17 478.789
789 0 57.2242 12.5122 716 110.077 1173.55 477.494
790 0 58.0683 12.4164 721 109.703 1174.94 476.491
791 0 60.1824 13.3095 801 106.604 1174.32 474.677
792 0 61.1717 11.5249 705 110.689 1174.85 475.864
793 0 63.115 11.8672 749 109.794 1174.27 474.714
794 0 65.171 11.1246 725 112.126 1174.28 472.945
795 0 69.2156 12.4249 860 109.18 1174.53 471.905
796 0 70.093 11.8272 829 107.981 1174.13 473.686
797 0 72.0817 10.7517 775 111.244 1174.07 467.335
798 0 75.0978 12.2773 922 108.146 1174.19 468.13
799 0 77.0427 12.7462 982 108.042 1174.28 465.889
800 0 80.1712 12.0367 965 109.85 1173.75 466.189
801 0 81.1223 11.0944 900 113.263 1173.22 463.321
802 0 86.1398 12.5378 1080 108.952 1173.48 461.853
803 0 88.1548 11.6386 1026 111.879 1173.4 460.309
804 0 91.0924 10.89 992 113.367 1173.33 460.094
805 1 50.0339 11.1924 560 105.961 1173.96 480.461
806 0 54.032 11.1416 602 106.326 1174.42 479.543
807 0 56.0213 11.6741 654 103.969 1173.26 478.639
808 0 54.0891 9.96504 539 110.521 1172.74 477.965
809 0 54.096 10.999 595 110.037 1173.1 478.103
810 0 54.096 11.0174 596 115.683 1173.09 478.077
811 0 61.0961 12.2266 747 106.523 1172.81 475.977
812 0 62.1005 10.4025 646 110.291 1172.61 476.128
813 0 64.0944 12.2164 783 107.52 1172.61 472.579
814 0 65.1021 10.4912 683 112.047 1172.39 469.428
815 0 70.1784 12.5395 880 107.842 1172.43 471.27
816 0 73.2088 11.1735 818 111.011 1172.6 468.645
817 0 74.2798 11.699 869 110.483 1172.07 469.051
818 0 76.1303 10.9549 834 112.697 1172.64 467.314
819 0 81.185 10.7286 871 112.784 1172.97 465.177
820 0 84.2712 11.3087 953 112.688 1172.57 464.977
821 0 85.29 11.5957 989 113.35 1172.08 459.034
822 0 90.1902 12.1299 1094 112.204 1172.09 460.44
823 1 47.0876 11.022 519 109.638 1172.3 482.817
824 0 49.0723 11.5747 568 109.366 1172.6 482.276
825 0 50.0395 13.2895 665 106.83 1172.88 480.504
826 0 50.1304 11.4102 572 112.25 1172.66 480.559
827 0 53.1377 10.821 575 113.064 1172.51 479.266
828 0 53.1425 11.4974 611 112.478 1172.26 478.344
829 0 57.1281 11.4479 654 111.963 1172.44 478.58
830 0 55.1984 11.1779 617 114.729 1172.79 475.608
831 0 57.1152 10.5226 601 116.874 1172.26 477.19
832 0 57.1106 10.4884 599 128.331 1171.28 477.078
833 0 63.1034 13.2956 839 110.706 1172.22 473.902
834 0 64.1693 12.7943 821 113.587 1172.74 473.108
835 0 68.3181 12.4125 848 113.967 1172.91 473.25
836 0 68.3667 12.1843 833 113.824 1172.64 472.683
837 0 71.164 12.8717 916 114.104 1172.91 470.563
838 0 74.1887 12.8995 957 114.538 1173.69 469.918
839 0 77.1914 13.175 1017 115.878 1173.51 468.705
840 0 77.2505 12.7119 982 118.489 1173.64 466.169
841 0 82.379 12.7338 1049 116.96 1173.62 466.311
842 0 85.2743 12.9699 1106 117.786 1173.46 462.09
843 0 89.2375 12.3939 1106 119.432 1173.54 465.045
844 0 91.256 12.591 1149 119.505 1173.45 462.4
845 1 51.1894 11.9751 613 118.183 1173.46 482.589
846 0 51.2145 12.3402 632 118.782 1173.87 480.117
847 0 52.1344 11.5663 603 113.726 1173.2 474.685
848 0 54.0366 11.6958 632 118.225 1172.37 476.578
849 0 56.075 12.7151 713 116.067 1172.56 475.618
850 0 54.0561 11.2291 607 122.843 1172.92 474.881
851 0 58.0252 14.5454 844 112.95 1173.23 475.744
852 0 62.1086 12.929 803 116.54 1173.09 473.331
853 0 64.0667 14.1259 905 114.043 1172.73 473.694
854 0 66.0304 13.8118 912 116.182 1172.59 472.166
855 0 66.0408 13.8399 914 118.337 1172.49 469.309
856 0 68.0299 13.4794 917 118.787 1172.55 470.843
857 0 73.1103 13.6232 996 118.673 1172.18 468.628
858 0 74.045 13.1407 973 121.404 1172.88 468.025
859 0 75.0716 12.9876 975 124.263 1172.4 464.494
860 0 77.076 14.8166 1142 123.976 1172.49 465.854
861 0 82.1362 15.1212 1242 123.095 1173.37 467.366
862 0 85.0756 16.0093 1362 120.983 1174.26 466.065
863 0 86.1078 15.0277 1294 124.078 1173.63 464.828
864 0 90.0764 15.1538 1365 124.651 1173.46 462.812
865 0 94.1131 15.6407 1472 123.208 1174.09 461.039
866 1 50.0508 12.9468 648 126.106 1173.92 482.835
867 0 50.0786 11.8813 595 120.934 1172.7 480.239
868 0 52.0521 12.4683 649 116.478 1173.21 477.384
869 0 53.0809 11.6991 621 117.689 1172.94 478.11
870 0 55.0683 13.3652 736 112.947 1173.67 477.624
871 0 56.168 12.6941 713 115.606 1173.25 476.365
872 0 58.0987 12.9779 754 115.086 1173.28 478.02
873 0 60.0259 13.161 790 114.418 1173.42 475.996
874 0 62.0283 12.7039 788 114.872 1173.2 472.145
875 0 64.0425 12.2575 785 115.429 1174.22 472.246
876 0 67.0857 12.7896 858 113.181 1174.39 471.452
877 0 69.1084 13.1532 909 113.131 1173.61 469.945
878 0 70.0917 13.2826 931 114.041 1173.62 468.232
879 0 72.088 12.6928 915 115.251 1173.56 469.53
880 0 75.0615 13.3357 1001 114.055 1173.62 465.794
881 0 77.082 12.3505 952 117.374 1173.17 464.73
882 0 80.0895 13.1853 1056 115.928 1173.48 462.84
883 0 84.1382 13.1331 1105 118.151 1173.31 464.778
884 0 86.0906 12.8005 1102 116.519 1173.24 462.526
885 0 89.071 12.7875 1139 118.323 1173.25 462.744
886 0 92.1881 11.3355 1045 125.687 1173.51 460.763
887 0 96.1925 13.0571 1256 119.251 1173.58 460.213
888 0 98.2848 12.1178 1191 121.203 1173.26 460.719
889 1 55.0662 11.6224 640 116.362 1173.94 481.086
890 0 56.0496 13.381 750 114.144 1173.58 478.979
891 0 56.0426 12.544 703 115.899 1173.93 479.475
892 0 60.0653 12.1534 730 115.453 1174.4 478.24
893 0 62.149 12.8562 799 112.063 1174.29 477.775
894 0 64.0931 12.9031 827 113.206 1174.27 475.617
895 0 65.1012 12.734 829 114.027 1174.23 475.888
896 0 69.1046 12.416 858 114.61 1174.33 474.906
897 0 71.098 12.9118 918 114.496 1173.91 471.659
898 0 74.2343 11.9487 887 115.849 1173.47 469.012
899 0 77.1536 12.4427 960 113.121 1174.08 470.312
900 0 80.1559 12.064 967 114.491 1173.49 466.407
901 0 82.094 12.0593 990 115.149 1173.4 466.512
902 0 85.1565 12.3068 1048 116.033 1173.24 463.424
903 0 89.1338 13.1936 1176 114.014 1173.77 463.391
904 0 92.1834 13.0935 1207 116.224 1173.68 460.398
905 0 95.1249 13.5506 1289 114.924 1174.26 459.997
906 1 49.0336 11.6247 570 116.061 1174.69 482.523
907 0 50.044 12.6888 635 115.775 1174.07 480.554
908 0 50.0532 13.3858 670 116.594 1174.34 479.34
909 0 52.0731 13.4811 702 115.802 1173.01 479.322
910 0 53.0505 13.2327 702 117.44 1173.72 478.832
911 0 56.0438 13.5965 762 115.008 1173.1 475.753
912 0 58.0967 13.3915 778 115.898 1173.36 473.539
913 0 59.1177 14.2428 842 116.211 1172.79 471.728
914 0 62.0879 13.9963 869 118.362 1173.28 471.395
915 0 64.1545 14.3248 919 120.416 1173.29 472.044
916 0 65.1047 12.3954 807 126.493 1173.13 470.414
917 0 68.1102 13.5516 923 124.087 1173.52 468.731
918 0 71.1808 13.8099 983 123.112 1173.05 469.044
919 0 71.1241 13.3288 948 127.089 1173.61 467.043
920 0 75.1108 14.6983 1104 123.984 1173.17 465.524
921 0 75.1051 13.2614 996 154.351 1172.24 467.433
922 0 81.0663 14.2723 1157 126.01 1172.87 464.203
923 0 83.1 12.7196 1057 131.93 1173.09 461.147
924 0 87.1449 15.5373 1354 123.17 1172.95 461.854
925 1 41.2352 14.9144 615 122.442 1174.04 483.514
926 0 41.1358 13.2245 544 131.097 1173.79 482.496
927 0 44.2168 14.1801 627 129.072 1172.7 481.552
928 0 44.1974 13.666 604 133.709 1172.68 480.526
929 0 46.1392 14.4779 668 129.638 1173.78 481.581
930 0 47.2313 14.2067 671 133.149 1173.36 479.639
931 0 48.1392 14.7281 709 132.574 1173.06 479.584
932 0 49.0929 14.6457 719 132.961 1173.44 479.654
933 0 53.1557 15.1442 805 130.128 1173.52 477.855
934 0 55.1587 16.0083 883 126.658 1174.15 477.262
935 0 56.1053 16.1304 905 127.773 1174 476.148
936 0 57.057 16.8253 960 126.522 1174.47 475.662
937 0 59.1781 15.1576 897 131.477 1174.21 474.514
938 0 61.1625 15.516 949 130.219 1174.09 473.752
939 0 64.1312 17.4798 1121 124.136 1174.41 471.156
940 0 67.2652 15.2531 1026 129.398 1174.21 472.432
941 0 68.1846 15.0767 1028 131.642 1173.42 471.42
942 0 71.0938 15.0083 1067 131.721 1173.79 469.903
943 0 74.1676 16.193 1201 128.264 1173.84 468.186
944 0 75.1094 15.2711 1147 132.589 1173.4 466.664
945 0 77.1577 15.734 1214 133.021 1173.92 464.914
946 0 81.1138 15.768 1279 132.133 1173.76 463.65
947 0 83.2286 15.5355 1293 133.701 1173.64 463.043
948 0 86.1924 15.8019 1362 132.628 1174.04 463.076
949 0 87.1619 14.9721 1305 136.648 1173.87 461.631
950 0 92.2104 15.5622 1435 133.79 1173.81 460.431
951 0 92.2713 16.3756 1511 135.425 1173.68 456.034
952 0 96.166 15.6084 1501 136.893 1173.52 454.796
953 0 104.147 15.9582 1662 133.16 1173.79 455.221
954 1 50.0794 14.2374 713 144.396 1174.56 477.175
955 0 51.1573 15.9117 814 141.721 1174.92 476.097
956 0 53.101 15.3669 816 142.797 1174.19 474.848
957 0 55.1394 15.2704 842 141.741 1174.32 473.253
958 0 59.1042 15.921 941 138.342 1174.78 472.702
959 0 60.255 16.1149 971 138.308 1174.16 471.739
960 0 62.1319 15.5798 968 139.998 1173.69 471.174
961 0 65.2045 14.7229 960 141.618 1174.07 470.191
962 0 67.0417 16.0199 1074 138.782 1174.4 467.421
963 0 70.1673 15.9334 1118 138.326 1174.21 466.767
964 0 72.1927 15.9157 1149 137.881 1173.98 466.791
965 0 75.1468 15.7425 1183 139.277 1173.97 463.964
966 0 78.2661 15.8434 1240 138.685 1173.85 463.318
967 0 81.1001 15.7706 1279 139.142 1173.74 460.444
968 0 84.1129 16.1925 1362 137.015 1173.55 460.205
969 0 86.0753 14.9636 1288 142.141 1173.17 458.474
970 0 90.1312 15.9545 1438 138.085 1173.09 457.609
971 0 94.1784 17.2757 1627 134.414 1172.91 454.776
972 0 97.2029 16.3473 1589 136.682 1173.06 453.79
973 1 46.1874 12.2544 566 143.046 1173.27 476.668
974 0 47.1019 13.163 620 139.423 1173.53 476.774
975 0 51.1143 14.047 718 135.003 1173.67 474.698
976 0 51.046 13.8111 705 136.462 1173 473.496
977 0 53.1586 14.1652 753 134.157 1174.01 473.761
978 0 56.0381 12.9733 727 137.252 1173.5 472.735
979 0 56.1083 13.2066 741 137.618 1173.66 471.289
980 0 59.1966 14.2914 846 134.566 1173.46 469.894
981 0 64.1511 15.1985 975 128.656 1174.41 470.011
982 0 65.2868 14.689 959 131.343 1174.08 469.848
983 0 68.122 13.9896 953 134.926 1173.68 467.768
984 0 70.1604 14.1818 995 133.524 1173.44 467.896
985 0 72.1039 14.2433 1027 134.805 1172.98 466.365
986 0 72.0782 14.1097 1017 137.532 1173.48 465.085
987 0 77.2517 16.3621 1264 130.773 1173.46 463.686
988 0 75.2972 14.4228 1086 139.757 1173.89 463.162
989 0 82.2395 15.5643 1280 134.864 1174.23 461.808
990 0 83.1101 14.92 1240 139.044 1173.97 459.937
991 0 85.2405 14.6057 1245 140.775 1173.89 458.125
992 0 88.2473 14.5387 1283 141.365 1173.64 457.854
993 0 93.1399 15.3747 1432 139.166 1174.67 455.305
994 0 96.2147 14.9665 1440 140.818 1173.84 454.826
995 0 99.2172 14.7253 1461 143.055 1174 452.56
996 0 103.16 15.3741 1586 141.304 1173.62 447.948
997 0 109.279 15.3552 1678 140.598 1173.93 447.9
998 0 112.142 14.4638 1622 144.846 1174.47 444.004
999 0 116.165 14.7893 1718 144.185 1174.11 443.411
1000 0 120.154 14.5064 1743 145.377 1174.88 440.608
1001 0 126.218 15.1326 1910 141.393 1173.78 438.022
1002 1 68.1047 10.0874 687 128.402 1174.4 472.001
1003 0 69.2087 10.5334 729 129.639 1175.21 468.24
1004 0 73.1532 11.9749 876 126.366 1174.49 466.078
1005 0 74.157 10.3834 770 128.729 1174.36 465.477
1006 0 79.2332 11.5734 917 125.056 1174.7 464.024
1007 0 81.3148 10.6992 870 127.557 1174.23 461.254
1008 0 86.2664 11.9977 1035 122.322 1173.99 462.022
1009 0 86.2754 9.9449 858 128.344 1174.11 458.978
1010 1 48.2408 9.55622 461 112.451 1174.85 480.278
1011 0 48.3354 10.0754 487 113.275 1174.56 479.136
1012 0 52.2401 10.2795 537 110.214 1174.44 479.034
1013 0 51.2694 9.7329 499 113.184 1174.82 478.962
1014 0 53.3807 8.80469 470 114.511 1174.88 478.853
1015 0 54.265 10.0617 546 114.359 1174.68 477.41
1016 0 55.1742 10.1497 560 114.054 1174.83 476.661
1017 0 57.0867 9.24909 528 116.14 1175.07 476.4
1018 0 60.3391 10.5239 635 113.742 1174.64 473.05
1019 0 63.301 10.1262 641 113.538 1174.24 472.672
1020 0 62.4448 9.70456 606 116.46 1175.15 471.419
1021 0 67.4078 10.5181 709 113.817 1174.59 470.87
1022 0 70.2461 11.0326 775 111.828 1174.45 471.383
1023 0 71.276 10.9013 777 113.978 1175.14 467.968
1024 0 74.3099 10.1871 757 115.716 1174.81 468.653
1025 0 77.35 10.4589 809 114.518 1174.77 467.351
1026 0 80.3409 10.8413 871 114.808 1174.69 465.191
1027 0 81.2572 10.1653 826 117.019 1174.85 463.481
1028 0 84.1168 10.0456 845 117.608 1174.45 464.562
1029 1 45.1016 11.33 511 113.166 1175.21 482.002
1030 0 44.0597 9.87297 435 118.641 1175.4 481.209
1031 0 46.0945 10.37 478 118.799 1175.09 480.95
1032 0 49.1745 11.2457 553 118.571 1174.78 481.371
1033 0 51.0767 11.5904 592 117.711 1174.51 479.291
1034 0 53.2031 10.319 549 121.166 1174.91 478.572
1035 0 52.1718 10.9638 572 122.507 1174.83 476.983
1036 0 52.0927 10.7693 561 123.146 1174.32 477.695
1037 0 54.0842 10.2063 552 124.341 1174.34 478.308
1038 0 58.0961 11.9457 694 119.631 1174.51 477.254
1039 0 58.173 11.7752 685 119.98 1174.96 476.568
1040 0 60.1795 11.8479 713 119.339 1174.44 475.812
1041 0 63.1456 10.3412 653 123.075 1174.98 474.59
1042 0 64.1861 11.4667 736 122.094 1174.56 472.92
1043 0 64.103 9.37553 601 127.216 1174.17 471.596
1044 0 68.1116 9.24953 630 124.737 1174.57 474.171
1045 0 68.1706 11.1192 758 122.569 1174.26 470.46
1046 0 73.1061 11.4902 840 121.489 1173.81 469.693
1047 0 74.1565 8.96752 665 125.208 1173.82 469.705
1048 0 77.1648 8.83823 682 123.622 1173.71 470.223
1049 1 43.1096 10.021 432 111.012 1172.67 485.132
1050 0 43.1824 10.9304 472 109.019 1173.3 485.286
1051 0 46.0375 12.4029 571 107.429 1173.26 483.214
1052 0 46.2206 11.7047 541 109.558 1172.89 482.793
1053 0 46.0971 10.608 489 111.272 1172.98 480.961
1054 0 48.0702 12.2945 591 105.32 1174.09 479.418
1055 0 50.1778 10.682 536 107.674 1173.38 482.144
1056 0 52.1229 11.9142 621 105.71 1173.38 479.576
1057 0 54.1232 11.8803 643 105.49 1175.23 479.617
1058 0 56.0951 12.871 722 103.03 1175.18 478.104
1059 0 58.0866 12.5158 727 102.743 1174.75 478.356
1060 0 59.1298 12.9884 768 102.059 1174.26 476.312
1061 0 61.16 13.3093 814 101.104 1174.23 476.655
1062 0 63.1263 12.0869 763 102.971 1173.91 475.547
1063 0 64.1695 12.6384 811 102.586 1174.13 472.783
1064 0 64.2411 11.7993 758 104.406 1174.76 473.636
1065 0 68.0958 12.0565 821 101.867 1173.93 471.562
1066 0 70.0546 12.0335 843 103.025 1174.2 470.446
1067 0 70.1615 12.3002 863 104.17 1174.24 467.716
1068 0 74.069 11.0978 822 107.225 1174.07 468.198
1069 0 77.3243 11.8462 916 108.697 1173.61 466.37
1070 0 79.1826 11.0504 875 110.342 1173.85 467.43
1071 0 80.1761 12.4102 995 109.164 1174.46 464.369
1072 0 83.2076 12.0662 1004 110.163 1174.29 464.609
1073 1 44.1752 10.481 463 109.397 1175 483.907
1074 0 45.0676 11.2054 505 109.796 1174.9 483.493
1075 0 45.1615 10.8278 489 112.192 1174.24 482.824
1076 0 45.0811 12.2224 551 110.942 1174.94 480.31
1077 0 48.1406 11.8403 570 110.037 1174.87 479.84
1078 0 49.0443 11.826 580 109.729 1175.34 480.59
1079 0 51.101 11.2718 576 111.245 1175.23 481.139
1080 0 51.0539 11.4389 584 111.055 1175.08 479.861
1081 0 51.0725 10.9257 558 113.579 1175.22 478.179
1082 0 53.0944 11.602 616 111.377 1175.63 478.882
1083 0 54.1268 12.249 663 111.828 1175.2 476.983
1084 0 56.0325 12.1001 678 111.994 1174.88 477.628
1085 0 59.1551 12.0531 713 111.219 1174.96 473.964
1086 0 61.0747 12.2146 746 111.149 1174.67 475.135
1087 0 63.0868 11.825 746 111.81 1174.24 474.485
1088 0 65.0479 13.0212 847 109.357 1174.23 474.358
1089 0 67.1746 12.2517 823 112.375 1173.12 470.674
1090 0 69.0395 11.5876 800 111.241 1174.71 471.521
1091 0 72.0565 12.3237 888 110.214 1174.61 467.507
1092 0 73.1434 12.0448 881 112.203 1174.69 467.305
1093 0 76.2212 12.7392 971 110.763 1174.42 464.678
1094 0 80.078 12.3505 989 112.28 1174.64 465.19
1095 0 82.1708 11.9751 984 114.105 1173.87 462.676
1096 0 84.1983 12.1261 1021 114.201 1174.24 463.064
1097 0 86.1763 12.8458 1107 113.831 1174.07 460.121
1098 0 91.2249 12.7706 1165 114.306 1173.49 461.424
1099 0 94.2434 13.3696 1260 114.613 1173.49 458.49
1100 0 96.1324 12.7637 1227 117.163 1173.63 454.927
1101 1 51.1083 11.1332 569 113.306 1174.66 481.441
1102 0 53.1125 11.7487 624 114.333 1174.34 477.189
1103 0 55.0411 11.991 660 113.088 1174.02 477.988
1104 0 57.1587 13.1564 752 111.547 1174.47 474.283
1105 0 59.077 13.2878 785 111.561 1174.58 474.196
1106 0 60.0972 12.6129 758 114.434 1173.94 472.838
1107 0 63.0661 12.0667 761 114.39 1174.54 472.955
1108 0 64.1173 12.5551 805 114.313 1173.69 473.081
1109 0 69.1149 13.8465 957 109.618 1174.08 470.911
1110 0 71.1328 13.0741 930 113.199 1173.25 469.074
1111 0 72.0909 12.5952 908 115.586 1173.83 467.279
1112 0 74.1124 13.0478 967 114.799 1173.75 466.377
1113 0 77.0479 12.9011 994 114.647 1173.28 465.372
1114 0 82.1704 13.6424 1121 112.279 1173.44 467.537
1115 0 84.2218 13.9156 1172 112.74 1173.46 463.606
1116 0 88.1352 13.6949 1207 113.066 1173.54 463.767
1117 0 88.2253 12.4454 1098 117.097 1173.92 462.27
1118 0 93.2697 13.2733 1238 115.763 1173.81 460.125
1119 0 96.3586 13.1177 1264 116.07 1173.99 458.771
1120 1 48.1163 10.4954 505 118.925 1174.51 481.253
1121 0 52.0743 11.426 595 112.998 1174.71 478.987
1122 0 53.0934 11.7152 622 109.867 1174.54 476.359
1123 0 57.1609 12.3511 706 107.245 1174.36 474.997
1124 0 58.1713 13.3743 778 108.97 1174.81 476.967
1125 0 61.1373 12.5292 766 110.386 1175.19 476.68
1126 0 62.1026 13.059 811 106.57 1174.58 473.4
1127 0 62.0755 12.517 777 109.07 1173.93 470.891
1128 0 64.098 12.4965 801 109.561 1174.14 471.082
1129 0 68.0892 11.6465 793 111.358 1174.04 470.352
1130 0 69.2033 12.1671 842 111.488 1173.97 470.233
1131 0 72.0485 12.561 905 111.91 1173.83 467.492
1132 0 77.1463 12.9494 999 111.046 1173.97 466.237
1133 0 78.0796 13.3582 1043 110.308 1173.71 467.168
1134 0 80.1352 12.5538 1006 114.196 1173.9 464.816
1135 1 41.0967 10.9011 448 108.717 1175.36 481.377
1136 0 41.1534 9.84123 405 112.032 1174.84 479.995
1137 0 44.1287 10.9679 484 105.57 1175.45 479.698
1138 0 47.0806 11.6821 550 103.658 1175.67 479.34
1139 0 47.1133 11.7801 555 105.088 1175.3 478.425
1140 0 49.043 11.7856 578 105.955 1174.23 478.263
1141 0 50.0264 11.1741 559 109.297 1174.41 479.524
1142 0 50.0976 10.5993 531 111.186 1174.86 475.738
1143 0 54.2016 11.7524 637 107.501 1174.42 476.375
1144 0 54.0553 10.7667 582 111.579 1174.01 476.244
1145 0 55.0844 12.1087 667 109.897 1174.91 475.456
1146 0 55.0455 12.3353 679 111.059 1174.5 473.613
1147 0 58.1596 12.5345 729 109.872 1173.05 475.089
1148 0 60.1489 12.6686 762 111.133 1173.72 472.493
1149 0 62.0737 12.3563 767 112.819 1172.79 472.867
1150 0 65.0794 11.8163 769 113.622 1172.9 473.589
1151 0 66.0884 12.3774 818 113.062 1173.25 470.81
1152 0 66.0313 12.5395 828 114.779 1173.11 469.152
1153 0 69.0649 12.7416 880 114.253 1173.42 469.368
1154 0 70.047 12.306 862 115.746 1173.32 467.615
1155 0 75.0975 13.0497 980 114.524 1172.65 466.02
1156 0 76.0781 13.565 1032 116.231 1172.75 466.739
1157 0 79.1566 12.7343 1008 117.889 1173.17 466.086
1158 0 81.125 13.7812 1118 114.052 1172.68 463.436
1159 0 84.1391 12.6101 1061 118.812 1173.45 463.923
1160 0 86.1496 12.7453 1098 120.354 1173.34 461.52
1161 0 90.1555 12.8999 1163 121.028 1173.33 462.461
1162 0 92.1762 12.7148 1172 123.785 1173.49 459.889
1163 0 95.0932 12.7244 1210 124.63 1174.02 456.259
1164 0 100.164 12.3597 1238 126.506 1173.47 456.465
1165 0 103.132 12.324 1271 127.59 1173.94 453.127
1166 1 57.0593 10.971 626 123.032 1174.15 479.762
1167 0 60.0494 13.0559 784 120.837 1173.32 473.754
1168 0 61.06 11.2676 688 121.892 1172.94 475.068
1169 0 64.0469 11.9444 765 120.156 1172.84 473.793
1170 0 66.1202 12.1597 804 119.558 1172.6 473.942
1171 0 68.0489 12.2265 832 119.844 1172.13 471.739
1172 0 72.1068 13.1472 948 115.961 1172.71 471.589
1173 0 73.0931 12.1078 885 121.051 1172.7 468.947
1174 0 75.0735 12.5877 945 120.239 1172.77 469.161
1175 0 77.0307 11.8914 916 122.576 1173.03 466.304
1176 0 79.066 11.6864 924 123.582 1173.18 466.183
1177 0 82.0634 11.7714 966 124.949 1173.19 464.329
1178 0 85.0395 13.0645 1111 121.924 1173.24 462.47
1179 0 87.101 13.0883 1140 122.838 1173.54 461.086
1180 0 87.0971 13.1118 1142 141.238 1173.54 461.241
1181 0 94.1906 12.0076 1131 127.216 1174.08 460.018
1182 1 49.0237 10.1379 497 133.612 1174.28 478.402
1183 0 53.0264 11.1831 593 129.949 1173.5 477.602
1184 0 54.0537 12.3026 665 125.791 1173.09 477.46
1185 0 56.0794 12.3218 691 130.402 1174.69 475.643
1186 0 56.077 12.3045 690 127.229 1174.51 474.713
1187 0 59.0434 13.38 790 123.543 1174.65 476.297
1188 0 62.0879 13.5292 840 123.41 1173.79 473.985
1189 0 64.0982 13.7913 884 121.69 1173.95 474.068
1190 0 66.0564 12.671 837 125.697 1174.42 471.239
1191 0 67.078 13.0594 876 126.151 1174.27 470.154
1192 0 68.1086 13.0086 886 126.704 1174.48 469.807
1193 0 72.069 13.7785 993 124.283 1173.8 468.575
1194 0 75.1139 13.819 1038 123.803 1173.9 468.743
1195 0 77.0741 14.2201 1096 123.439 1174.08 466.326
1196 0 78.1435 13.3856 1046 127.067 1174.41 465.498
1197 0 79.1028 13.059 1033 130.679 1174.08 463.692
1198 0 84.0753 14.1183 1187 127.811 1174.5 463.849
1199 0 86.1311 13.3866 1153 129.754 1175.08 463.202
1200 0 90.2324 15.2828 1379 126.134 1174.42 459.722
1201 0 91.1983 13.8709 1265 131.281 1174.03 459.219
1202 0 96.2531 14.6489 1410 129.159 1173.71 455.88
1203 0 98.1663 13.5892 1334 130.317 1173.65 455.07
1204 0 100.084 13.0191 1303 124.272 1172.96 453.063
1205 0 104.163 13.7476 1432 122.317 1172.78 449.446
1206 1 56.0756 11.5915 650 119.003 1173.17 476.58
1207 0 57.0337 10.9058 622 122.547 1172.38 475.807
1208 0 59.0708 12.375 731 123.65 1174.47 474.111
1209 0 60.0983 13.3614 803 121.359 1174.41 472.971
1210 0 61.0448 12.6464 772 122.001 1173.96 474.234
1211 0 63.0927 12.5847 794 121.783 1173.71 471.698
1212 0 66.1276 13.2471 876 119.484 1173.48 471.559
1213 0 70.0349 13.5218 947 117.925 1174.12 470.656
1214 0 71.0861 12.6888 902 120.4 1173.58 469.208
1215 0 73.2025 13.9749 1023 116.723 1173.65 466.427
1216 0 76.1106 13.3753 1018 116.833 1173.38 464.858
1217 0 79.0963 13.591 1075 115.301 1173.77 465.383
1218 0 82.1412 14.3777 1181 112.244 1173.29 466.033
1219 0 85.1972 14.0028 1193 113.941 1173.38 462.522
1220 0 85.1745 13.173 1122 117.526 1173.57 460.32
1221 0 88.2302 12.4901 1102 113.246 1173.36 456.466
1222 0 92.1988 12.5381 1156 112.919 1173.32 455.92
1223 0 96.1945 11.4352 1100 115.609 1173.53 456.176
1224 1 52.213 11.7021 611 112.689 1173.83 477.16
1225 0 51.0889 11.294 577 114.39 1173.54 476.958
1226 0 55.0546 12.7328 701 111.107 1173 477.351
1227 0 56.0873 11.2147 629 112.987 1174.3 476.785
1228 0 59.1325 10.5864 626 111.639 1173.53 476.173
1229 0 60.0691 11.4035 685 112.074 1173.94 475.458
1230 0 61.0816 9.52823 582 116.297 1173.92 474.091
1231 0 63.1887 10.524 665 115.281 1173.29 472.462
1232 0 65.1239 10.242 667 112.15 1173.17 471.069
1233 0 67.136 11.2607 756 111.563 1173.15 468.566
1234 0 71.1052 10.9978 782 110.825 1173.5 467.99
1235 0 73.1561 11.455 838 110.162 1173.53 465.48
1236 0 76.0926 10.5792 805 111.173 1173.31 467.562
1237 0 79.1097 12.4637 986 108.468 1173.27 463.841
1238 0 78.1616 11.9624 935 112.643 1172.75 461.781
1239 0 84.1552 12.0729 1016 112.354 1173.37 461.604
1240 0 85.1348 12.3216 1049 112.137 1172.76 458.173
1241 0 91.0928 13.0416 1188 109.386 1172.45 457.923
1242 0 93.0823 12.7414 1186 111.229 1172.68 458.103
1243 0 96.1512 11.7627 1131 114.744 1172.95 455.687
1244 1 47.0036 9.61628 452 114.527 1172.95 477.414
1245 0 50.0472 9.93062 497 113.662 1173.14 476.318
1246 0 53.1943 10.847 577 114.802 1172.48 471.846
1247 0 55.0652 12.8575 708 109.919 1173.03 472.48
1248 0 54.0761 11.3174 612 114.217 1172.58 474.998
1249 0 59.037 11.857 700 111.906 1172.88 474.513
1250 0 60.1209 12.8741 774 109.124 1172.65 474.872
1251 0 60.0484 11.8071 709 113.633 1171.58 472.515
1252 0 62.084 11.8066 733 117.689 1171.18 473.731
1253 0 63.0855 11.4448 722 115.717 1171.86 470.489
1254 0 66.0767 11.078 732 117.996 1171.57 473.377
1255 0 69.0443 12.6151 871 113.219 1172.16 471.231
1256 0 70.0506 12.5195 877 115.563 1171.95 469.055
1257 0 74.0332 12.3593 915 115.273 1172.2 469.454
1258 0 74.1505 12.151 901 117.132 1172.35 466.949
1259 0 77.198 13.0832 1010 115.373 1172.46 463.993
1260 0 80.4484 13.2134 1063 114.532 1173.3 463.557
1261 0 83.1679 12.6491 1052 117.089 1172.91 461.326
1262 0 85.3009 12.2625 1046 119.595 1172.07 458.417
1263 0 87.2952 12.7957 1117 118.96 1172.25 456.081
1264 0 91.3052 13.7889 1259 115.527 1172.38 455.402
1265 0 95.2206 14.1776 1350 115.27 1172.54 453.586
1266 0 98.2154 13.6129 1337 117.607 1172.45 451.408
1267 0 98.2568 12.4063 1219 126.027 1173.58 449.728
1268 0 104.318 13.526 1411 122.118 1172.8 448.875
1269 0 106.324 12.8005 1361 124.819 1173.06 446.929
1270 1 58.3382 11.3991 665 114.232 1173.27 473.093
1271 0 59.2234 10.9923 651 115.323 1173.34 471.395
1272 0 62.1749 12.3522 768 113.038 1173.43 469.508
1273 0 65.1941 11.2587 734 114.481 1173.4 469.864
1274 0 65.2554 11.0642 722 117.436 1173.54 467.476
1275 0 68.1086 11.834 806 115.615 1173.77 467.877
1276 0 71.1671 12.5198 891 113.568 1173.38 467.074
1277 0 71.1217 10.9109 776 119.437 1174.19 465.759
1278 0 74.1206 12.4797 925 116.055 1173.6 463.669
1279 0 78.1082 11.8938 929 117.535 1173.36 464.47
1280 0 79.1495 10.9161 864 121.297 1173.47 460.157
1281 0 82.1214 11.1907 919 121.897 1173.5 460.783
1282 0 84.177 11.357 956 122.86 1173.56 460.871
1283 0 86.2004 12.3201 1062 121.459 1173.48 457.957
1284 0 89.2361 11.6321 1038 122.727 1174.36 459.514
1285 0 92.2016 12.4727 1150 122.063 1174.19 456.582
1286 0 94.2108 11.9731 1128 123.928 1174.39 455.983
1287 0 98.1858 13.6883 1344 120.067 1173.66 451.825
1288 0 98.153 11.1968 1099 125.644 1173.36 452.446
1289 0 105.227 11.9836 1261 125.862 1174.08 449.139
1290 1 55.0822 10.9654 604 116.265 1174.41 477.207
1291 0 58.0447 11.3705 660 115.412 1173.58 474.642
1292 0 59.0158 11.4037 673 116.605 1174.5 473.305
1293 0 62.0957 10.8381 673 112.483 1172.55 472.942
1294 0 65.0821 12.0617 785 109.322 1172.76 469.343
1295 0 65.1231 11.7163 763 108.769 1172.67 470.254
1296 0 67.108 11.1462 748 110.765 1173.21 467.07
1297 0 72.0773 12.4727 899 107.082 1172.55 466.77
1298 0 73.0903 12.5461 917 107.592 1172.88 466.36
1299 0 76.0904 12.38 942 107.667 1172.81 464.97
1300 0 76.1181 12.0208 915 108.956 1172.49 465.015
1301 0 79.0486 12.1318 959 107.868 1172.47 465.325
1302 0 80.0919 10.6877 856 110.626 1173.39 464.342
1303 0 83.1781 10.8322 901 110.341 1173.47 459.022
1304 0 84.1732 11.2625 948 110.405 1172.53 457.262
1305 0 88.0714 12.1038 1066 109.008 1172.81 456.71
1306 0 90.1358 11.6713 1052 109.826 1172.43 455.357
1307 0 94.1188 11.7192 1103 109.687 1172.58 454.081
1308 0 97.1491 11.0552 1074 110.413 1172.71 455.215
1309 1 49.13 8.69123 427 108.166 1172.73 474.712
1310 0 50.1524 9.57083 480 107.527 1172.91 473.525
1311 0 53.0849 10.6245 564 104.113 1172.29 476.77
1312 0 56.1149 12.0467 676 100.941 1172.19 474.194
1313 0 56.0964 12.3894 695 101.016 1172.34 472.801
1314 0 58.0976 12.5134 727 101.135 1171.84 472.938
1315 0 60.1118 11.5784 696 102.796 1172.81 472.971
1316 0 60.1283 10.3446 622 106.211 1172.91 470.855
1317 0 64.0779 12.3756 793 100.808 1172.55 469.517
1318 0 65.1288 11.4696 747 102.87 1172.6 469.726
1319 0 66.0904 11.0757 732 104.261 1172.64 467.898
1320 0 68.0488 11.4477 779 104.035 1172.35 466.291
1321 0 69.1775 11.1163 769 104.837 1172.38 465.883
1322 0 70.0886 10.1015 708 108.196 1172.61 466.054
1323 0 73.2148 11.7736 862 105.552 1172.11 460.827
1324 0 76.0557 13.5033 1027 100.588 1172.7 460.563
1325 0 79.1769 12.3268 976 104.299 1172.39 458.99
1326 0 82.1757 13.2156 1086 103.892 1172.79 457.333
1327 0 84.0649 12.0621 1014 106.254 1171.95 456.865
1328 0 88.1224 12.8344 1131 104.313 1172.22 459.446
1329 0 90.0549 12.659 1140 105.875 1172.39 456.628
1330 0 92.0505 11.8522 1091 108.254 1172.84 457.523
1331 0 95.2081 12.2469 1166 108.163 1172.1 451.714
1332 0 99.2556 13.3494 1325 107.019 1171.44 451.583
1333 1 52.0756 10.792 562 105.804 1171.86 474.48
1334 0 54.1268 12.0088 650 103.128 1171.49 474.214
1335 0 56.1684 12.694 713 102.6 1172.2 475.073
1336 0 56.0581 12.1481 681 104.656 1172.03 475.778
1337 0 58.1199 12.6119 733 103.697 1172.41 474.348
1338 0 59.0822 12.8973 762 103.791 1171.93 473.941
1339 0 63.1732 12.901 815 102.329 1172.11 473.875
1340 0 64.0698 12.3147 789 104.926 1172.84 471.309
1341 0 67.0665 13.5835 911 101.205 1172.8 470.372
1342 0 67.1873 12.8745 865 103.815 1172.94 470.521
1343 0 70.0806 12.2288 857 105.832 1172.79 469.513
1344 0 72.0987 13.0793 943 104.052 1172.57 466.24
1345 0 74.0988 12.6993 941 105.571 1172.96 464.947
1346 0 76.1156 13.5583 1032 103.585 1172.31 463.024
1347 0 78.0879 13.9458 1089 102.565 1172.84 463.253
1348 0 80.0559 13.4406 1076 104.893 1172.51 463.298
1349 0 83.04 13.1623 1093 106.291 1172.78 463.67
1350 0 86.062 14.1177 1215 104.505 1172.59 461.035
1351 0 89.0686 14.0229 1249 104.361 1172.73 460.625
1352 0 90.1499 13.7105 1236 106.97 1172.29 458.32
1353 0 93.1724 13.4374 1252 109.407 1171.9 459.274
1354 0 96.1281 12.3273 1185 111.755 1171.32 456.81
1355 1 51.0803 11.4917 587 106.988 1172.05 478.83
1356 0 54.2309 12.834 696 105.858 1172.58 474.444
1357 0 54.4672 11.4748 625 110.699 1172.48 473.587
1358 0 57.0583 12.5135 714 103.775 1173.78 475.126
1359 0 59.1137 12.2983 727 103.404 1173.92 473.403
1360 0 62.0884 12.5466 779 102.117 1173.46 471.777
1361 0 64.2048 11.5879 744 103.085 1173.12 471.304
1362 0 66.1492 12.2753 812 101.621 1173.44 472.255
1363 0 69.1779 12.1571 841 101.894 1173.99 469.671
1364 0 70.1632 12.0576 846 102.734 1173.69 467.96
1365 0 74.1651 13.025 966 99.9089 1173.26 466.889
1366 0 75.1656 11.5611 869 103.287 1172.77 466.571
1367 0 79.2075 12.4609 987 101.638 1173.33 465.511
1368 0 81.23 11.5844 941 104.201 1173.23 464.143
1369 0 84.2228 12.8587 1083 103.178 1172.93 463.388
1370 0 88.1519 13.42 1183 105.033 1173.28 459.438
1371 0 90.2668 13.2496 1196 105.382 1174.09 459.442
1372 1 49.2458 10.9045 537 101.296 1174.39 482.142
1373 0 49.0824 11.6946 574 102.868 1173.67 479.387
1374 0 52.0576 11.9483 622 99.2749 1173.25 479.26
1375 0 52.1482 11.218 585 102.412 1172.57 477.448
1376 0 55.1341 11.862 654 100.092 1172.77 476.398
1377 0 59.0798 11.5776 684 99.2266 1172.72 477.871
1378 0 59.0952 11.7776 696 100.001 1173.04 475.461
1379 0 61.1185 11.9277 729 100.329 1172.4 474.853
1380 0 65.068 12.7559 830 98.6422 1173.77 474.387
1381 0 65.1696 12.69 827 100.364 1173.38 471.719
1382 0 69.2742 13.0785 906 98.266 1173.61 472.638
1383 0 70.1972 14.3453 1007 97.3565 1173.14 469.972
1384 0 72.1959 12.6046 910 101.676 1172.95 470.643
1385 0 75.2045 12.2865 924 102.472 1173.65 469.871
1386 0 75.1409 12.6695 952 103.746 1173.75 468.059
1387 0 79.2064 13.3954 1061 102.926 1173 467.405
1388 0 79.1424 11.5741 916 107.842 1173.11 466.056
1389 0 84.0954 12.4026 1043 107.341 1173.62 465.289
1390 0 87.2041 12.4994 1090 108.413 1173.74 463.478
1391 1 47.0893 10.6606 502 105.056 1174.53 482.912
1392 0 49.1917 11.0994 546 103.951 1174.21 482.775
1393 0 51.1849 12.2106 625 100.896 1173.8 479.909
1394 0 51.0917 11.6653 596 103.252 1173.18 480.945
1395 0 52.1546 13.019 679 101.462 1173.18 477.965
1396 0 55.1241 11.6102 640 101.436 1171.94 476.122
1397 0 56.111 11.8159 663 101.638 1172.59 476.439
1398 0 56.111 11.8337 664 130.422 1172.58 476.426
1399 0 60.119 12.7414 766 103.59 1172.51 475.273
1400 0 60.0801 11.6012 697 104.445 1172.21 471.912
1401 0 63.1446 12.606 796 101.966 1172.69 472.347
1402 0 65.1127 12.8546 837 102.855 1172.28 471.194
1403 0 66.1486 12.1847 806 106.112 1172.76 471.692
1404 0 69.0634 12.4813 862 106.229 1172.51 470.964
1405 0 72.0936 11.9705 863 107.805 1172.53 469.903
1406 0 75.1048 14.7128 1105 102.26 1172.27 466.684
1407 0 76.1853 12.8371 978 107.928 1172.21 465.861
1408 0 79.2093 13.6474 1081 106.787 1171.86 465.834
1409 0 79.3124 11.9527 948 112.602 1172.26 460.321
1410 0 84.297 13.3338 1124 111.08 1172.39 459.48
1411 0 86.1411 11.9223 1027 115.032 1172.33 461.242
1412 0 89.1748 12.6269 1126 114.14 1173.17 457.195
1413 0 91.167 12.1426 1107 115.729 1173.39 457.498
1414 1 50.0545 10.7083 536 117.325 1173.29 476.203
1415 0 50.0839 11.0814 555 116.582 1172.66 475.441
1416 0 52.1434 12.1012 631 116.021 1172.01 469.689
1417 0 54.102 11.7556 636 113.987 1172.83 475.443
1418 0 57.078 12.9647 740 110.668 1172.35 472.807
1419 0 59.067 13.9164 822 107.983 1173.18 470.772
1420 0 61.0588 12.9056 788 104.185 1172.4 470.404
1421 0 62.2479 12.4502 775 106.116 1172.53 469.699
1422 0 64.3422 12.791 823 104.702 1172.75 467.956
1423 0 67.2874 12.7513 858 104.932 1172.75 465.628
1424 0 67.1438 12.7041 853 104.571 1172.73 465.038
1425 0 71.1329 14.1144 1004 100.499 1173.38 464.315
1426 0 73.1165 12.8152 937 103.707 1173.48 464.766
1427 0 76.1274 12.7155 968 103.304 1174.48 464.154
1428 0 77.1825 13.2025 1019 103.437 1174.17 461.929
1429 0 80.1734 12.6725 1016 104.796 1174.17 459.371
1430 0 81.2481 12.6526 1028 105.142 1173.77 460.067
1431 0 84.3082 13.6049 1147 103.879 1173.23 456.562
1432 0 87.1189 12.4313 1083 106.64 1174.11 456.273
1433 0 91.2355 13.3939 1222 105.727 1172.34 454.271
1434 0 94.1614 12.6697 1193 107.037 1172.47 455.925
1435 1 51.1676 11.6285 595 102.143 1174.09 475.726
1436 0 53.2182 11.4247 608 104.766 1173.45 473.003
1437 0 54.162 12.1118 656 106.188 1172.93 469.727
1438 0 55.059 12.5683 692 104.916 1174.01 469.618
1439 0 57.0986 13.573 775 102.937 1173.57 469.557
1440 0 60.1619 13.3473 803 103.648 1173.98 468.432
1441 0 61.1596 13.5547 829 104.408 1172.96 466.654
1442 0 63.118 13.7996 871 102.92 1173.47 468.657
1443 0 65.3395 13.6518 892 104.731 1173.4 464.918
1444 0 66.2213 13.621 902 105.507 1173.52 464.254
1445 0 68.2662 12.4513 850 108.24 1173.12 465.379
1446 0 71.3073 13.3647 953 105.722 1173.38 463.547
1447 0 73.3195 12.8888 945 108.012 1173.41 460.934
1448 0 75.1923 13.1529 989 107.602 1173.72 462.242
1449 0 78.2919 13.6668 1070 106.868 1173.42 459.615
1450 0 81.2099 12.8556 1044 110.362 1173.91 462.087
1451 0 84.3097 12.2999 1037 112.413 1173.73 459.761
1452 0 87.2577 13.0991 1143 110.099 1174.15 458.403
1453 0 89.2442 12.4042 1107 111.487 1173.06 457.723
1454 0 92.1811 12.1283 1118 112.814 1173.17 453.62
1455 1 50.2256 11.2293 564 106.156 1173.83 477.601
1456 0 52.1613 10.8126 564 106.388 1174.22 478.862
1457 0 53.1444 11.8169 628 106.186 1174.39 475.31
1458 0 54.0641 11.6898 632 105.407 1174.38 473.271
1459 0 59.1127 12.7722 755 100.983 1173.88 472.8
1460 0 59.1768 12.6232 747 102.651 1174.31 470.118
1461 0 60.0749 11.2693 677 104.863 1174.46 472.329
1462 0 64.175 12.0919 776 101.799 1174.05 470.497
1463 0 66.155 12.8033 847 101.042 1174.19 467.961
1464 0 68.2226 11.6091 792 103.51 1173.99 465.497
1465 0 71.0709 12.4946 888 101.708 1174.43 466.208
1466 0 73.2034 12.7726 935 101.296 1174.44 464.782
1467 0 76.118 12.8748 980 102.249 1174.07 463.622
1468 0 78.0916 12.5878 983 103.838 1173.75 463.654
1469 0 82.0948 13.3382 1095 102.232 1174.35 461.51
1470 0 84.0799 12.1075 1018 105.494 1174.06 461.952
1471 0 88.1629 13.6339 1202 102.778 1173.8 458.397
1472 0 92.2773 12.3541 1140 105.291 1173.55 458.993
1473 1 51.0334 11.4239 583 103.432 1174.86 476.858
1474 0 51.0529 10.8907 556 102.813 1173.18 477.07
1475 0 54.1874 11.5894 628 100.927 1173.04 477.15
1476 0 55.0503 13.6602 752 98.1729 1174.03 476.134
1477 0 58.151 11.367 661 101.481 1173.59 474.766
1478 0 59.0248 10.6904 631 103.705 1172.85 473.043
1479 0 62.0274 12.2688 761 99.5348 1172.25 472.502
1480 0 63.1145 12.406 783 99.7344 1172.85 471.199
1481 0 66.0343 12.3572 816 99.049 1172.27 471.141
1482 0 67.1694 12.9821 872 98.7385 1172.26 468.415
1483 0 69.0494 12.2087 843 100.533 1172.63 469.49
1484 0 72.0765 11.6404 839 101.883 1172.68 467.234
1485 0 72.078 11.9038 858 102.853 1172.88 463.844
1486 0 75.0667 10.3108 774 104.745 1172.41 464.596
1487 0 79.0504 10.993 869 103.47 1173.17 463.527
1488 0 79.0756 10.3066 815 105.747 1172.81 461.669
1489 0 86.1117 12.6115 1086 100.913 1173.13 458.14
1490 1 46.0816 10.7635 496 99.3911 1172.34 478.79
1491 0 48.0512 10.4056 500 98.684 1172.68 479.316
1492 0 49.0971 10.3672 509 97.9411 1172.3 475.344
1493 0 50.0535 9.58974 480 99.775 1174.29 476.185
1494 0 52.1628 10.6973 558 96.8082 1174.16 474.07
1495 0 54.2027 12.2134 662 94.5559 1173.55 473.316
1496 0 54.2267 10.5114 570 98.6175 1173.14 472.67
1497 0 57.0968 11.9446 682 95.8475 1173.43 470.446
1498 0 60.166 10.4046 626 98.2588 1174.19 468.936
1499 0 59.1275 10.2829 608 99.722 1172.96 467.827
1500 0 60.0805 10.4027 625 100.016 1173.17 467.04
1501 0 62.0532 12.0058 745 95.4215 1172.91 463.607
1502 0 65.0476 10.9766 714 96.8403 1172.65 463.157
1503 0 68.1208 10.0263 683 97.2035 1173.54 459.78
1504 0 68.0576 11.0348 751 94.1105 1173.09 459.266
1505 0 71.0723 11.2139 797 95.1631 1173.27 462.211
1506 0 73.0845 12.8755 941 97.8852 1172.84 462.251
1507 0 71.0794 10.8189 769 107.022 1172.95 463.545
1508 0 75.1225 11.8207 888 104.527 1172.55 465.131
1509 0 77.0517 12.6798 977 103.538 1172.49 465.711
1510 0 76.0916 11.7884 897 106.457 1172.27 464.227
1511 0 79.0587 11.7002 925 105.028 1172.35 462.157
1512 0 81.0981 10.8264 878 105.962 1172.13 460.441
1513 0 86.1243 11.4253 984 102.538 1172.89 459.001
1514 0 88.0533 11.0161 970 102.426 1172.86 459.77
1515 0 89.0551 11.229 1000 102.018 1172.64 456.417
1516 0 93.1576 11.7435 1094 101.145 1172.16 454.465
1517 0 97.1116 12.2642 1191 100.14 1172.74 453.484
1518 0 99.1673 12.0302 1193 101.405 1172.17 451.553
1519 0 100.073 11.2318 1124 103.768 1171.71 448.182
1520 0 105.133 11.4807 1207 104.075 1171.58 449.478
1521 1 58.0597 10.937 635 103.112 1172.15 473.367
1522 0 60.1089 10.9967 661 101.148 1173.09 470.121
1523 0 62.0731 10.7293 666 102.405 1173.16 469.279
1524 0 64.0341 11.7281 751 100.479 1173.27 468.957
1525 0 66.0915 11.1361 736 102.348 1173.75 471.317
1526 0 68.1547 11.9728 816 101.6 1173.62 467.989
1527 0 69.0486 11.6295 803 104.934 1174.01 465.374
1528 0 74.117 13.2088 979 101.701 1174.05 466.747
1529 0 74.0837 13.2688 983 103.338 1173.7 468.279
1530 0 77.1015 12.3733 954 106.458 1173.56 466.038
1531 0 78.1014 11.6771 912 109.936 1173.28 463.905
1532 0 81.1026 12.9712 1052 107.538 1173.27 462.142
1533 0 84.1336 13.2646 1116 107.74 1172.99 462.18
1534 0 88.0979 12.0775 1064 111.462 1173.5 460.798
1535 0 89.1857 14.1839 1265 108.436 1173.71 460.037
1536 0 91.1677 13.3381 1216 113.191 1173.05 457.197
1537 0 94.1528 13.1382 1237 113.323 1172.97 457.769
1538 0 98.1313 12.8909 1265 112.774 1173.08 455.337
1539 0 101.227 13.4055 1357 113.163 1173.11 452.887
1540 0 104.158 12.8458 1338 115.273 1172.36 453.31
1541 1 54.0671 10.1355 548 118.226 1172.92 477.81
1542 0 57.0995 11.3661 649 114.692 1173.07 476.874
1543 0 59.0401 11.7547 694 114.242 1171.87 474.416
1544 0 61.1206 13.3997 819 110.409 1173.15 473.212
1545 0 63.1291 13.2902 839 110.616 1172.56 472.608
1546 0 65.1699 12.1528 792 114.289 1172.41 471.076
1547 0 66.1021 11.331 749 116.881 1172.13 471.454
1548 0 68.1659 12.8363 875 113.683 1172.23 469.081
1549 0 71.0962 13.1793 937 112.947 1171.66 468.148
1550 0 74.102 14.1697 1050 111.134 1171.92 468.87
1551 0 76.1166 13.926 1060 111.326 1171.81 467.981
1552 0 77.1405 12.4059 957 115.898 1171.66 464.758
1553 0 80.0814 11.7381 940 118.887 1171.9 464.661
1554 0 84.178 14.2555 1200 112.466 1171.19 461.635
1555 0 87.1754 14.0407 1224 113.284 1171.46 462.856
1556 0 87.1278 13.4515 1172 116.947 1171.41 461.358
1557 0 90.1256 14.2135 1281 115.774 1171.28 458.686
1558 0 89.1385 12.632 1126 122.043 1170.54 457.419
1559 0 93.125 13.3154 1240 120.112 1171.41 455.98
1560 0 97.1214 13.4368 1305 119.971 1171.1 455.378
1561 0 99.126 13.8107 1369 120.636 1170.94 453.828
1562 0 103.205 14.0593 1451 119.205 1170.59 450.335
1563 0 107.22 13.5982 1458 120.427 1170.85 451.324
1564 0 112.132 13.2344 1484 119.85 1170.52 450.474
1565 0 116.124 14.4242 1675 116.994 1171.08 447.867
1566 1 61.0555 11.727 716 118.426 1171.77 472.21
1567 0 64.0648 12.3157 789 115.47 1171.61 471.943
1568 0 66.0405 12.4621 823 114.3 1171.99 471.265
1569 0 69.1631 12.8248 887 109.954 1172.14 469.002
1570 0 70.19 12.3522 867 111.164 1171.61 468.698
1571 0 72.1992 11.9115 860 110.934 1171.58 466.343
1572 0 74.1332 12.1133 898 110.738 1171.56 465.943
1573 0 75.0764 11.6948 878 111.79 1171.16 464.374
1574 0 79.1273 11.4878 909 110.788 1171.55 463.581
1575 0 82.1939 12.0204 988 109.179 1172 460.687
1576 0 81.2056 11.5879 941 127.073 1174 459.462
1577 0 87.1247 11.7418 1023 110.49 1172.54 458.668
1578 0 90.1562 11.2804 1017 112.23 1171.96 458.087
1579 0 93.1455 12.2389 1140 109.57 1172.12 458.207
1580 0 94.3103 12.1938 1150 109.992 1172.03 457.797
1581 0 97.1513 12.0122 1167 110 1171.92 457.21
1582 0 100.153 11.133 1115 112.808 1171.68 451.939
1583 0 103.107 12.5209 1291 108.496 1171.92 453.397
1584 1 58.0564 11.5405 670 104.552 1172.07 473.939
1585 0 58.084 9.29688 540 109.135 1171.94 473.406
1586 0 61.0923 10.5905 647 106.677 1172.3 470.592
1587 0 64.1055 11.1847 717 102.155 1172.57 473.686
1588 0 66.1395 12.3073 814 100.963 1171.43 472.576
1589 0 69.1526 13.1448 909 98.6491 1171.56 470.834
1590 0 69.0788 12.5943 870 100.971 1171.99 469.972
1591 0 68.1946 11.5552 788 104.877 1171.82 467.44
1592 0 72.181 11.3603 820 105.379 1171.6 467.668
1593 0 75.2364 12.7997 963 102.954 1171.72 466.477
1594 0 78.1688 12.78 999 103.373 1172.13 466.952
1595 0 76.0894 11.8676 903 106.591 1172.31 463.653
1596 0 82.0814 12.2439 1005 104.654 1172.42 465.487
1597 0 81.1398 12.4846 1013 107.968 1171.31 462.515
1598 0 84.1309 12.4449 1047 109.272 1170.69 459.169
1599 0 87.1128 12.0074 1046 114.062 1171.84 458.924
1600 0 91.0708 12.5287 1141 113.046 1172.89 458.689
1601 0 94.2084 12.6846 1195 111.942 1171.67 459.033
1602 0 97.1904 11.5444 1122 115.07 1171.34 457.411
1603 0 101.254 13.5007 1367 111.647 1170.09 454.843
1604 1 54.278 11.2569 611 110.152 1169.95 477.442
1605 0 57.2972 12.5137 717 109.367 1170.38 473.64
1606 0 59.1949 11.5382 683 109.89 1170.57 476.161
1607 0 58.1164 11.0296 641 113.418 1169.86 473.532
1608 0 60.1029 12.828 771 108.869 1170.47 473.301
1609 0 63.0838 12.4755 787 110.173 1169.99 469.765
1610 0 67.0892 11.7754 790 109.605 1170.59 471.494
1611 0 66.0398 12.4773 824 109.972 1170.45 470.931
1612 0 70.0519 13.0046 911 108.577 1169.87 468.994
1613 0 73.0957 13.7765 1007 106.207 1170.22 467.42
1614 0 73.0814 13.0129 951 109.837 1169.95 465.209
1615 0 77.1242 13.1476 1014 109.222 1169.94 465.011
1616 0 79.3386 13.0832 1038 110.185 1170.43 465.185
1617 0 79.0946 11.9604 946 113.124 1170.16 464.166
1618 0 83.2076 13.5925 1131 109.599 1171.27 463.321
1619 0 86.1547 14.3579 1237 108.456 1170.58 460.205
1620 0 88.2732 13.8887 1226 110.157 1170.51 457.557
1621 0 93.1381 14.2047 1323 108.32 1170.9 458.272
1622 0 92.1941 12.2351 1128 113.226 1171.19 457.04
1623 0 96.1457 13.6252 1310 110.476 1171.18 454.929
1624 0 98.239 13.3857 1315 111.262 1171.35 454.604
1625 0 101.173 13.8377 1400 109.983 1171.07 449.99
1626 0 106.233 14.1105 1499 107.154 1171.35 452.456
1627 0 107.283 12.8631 1380 110.789 1171 448.314
1628 0 110.17 11.3915 1255 111.077 1170.41 439.044
1629 0 114.181 11.5606 1320 110.642 1170.06 440.764
1630 0 117.203 11.0407 1294 111.634 1170.05 435.912
1631 1 66.1543 10.7022 708 103.412 1171.39 468.147
1632 0 68.1373 12.24 834 104.02 1170.4 469.652
1633 0 70.2478 12.7833 898 104.033 1170.65 465.193
1634 0 73.1945 11.5036 842 106.559 1170.76 464.811
1635 0 76.1058 12.706 967 104.623 1171.15 465.185
1636 0 78.2468 11.6938 915 106.801 1171.86 464.871
1637 0 80.239 11.6901 938 107.975 1171.78 460.616
1638 0 81.3123 11.4866 934 109.625 1171.34 459.138
1639 0 84.2152 12.0525 1015 106.711 1170.59 459.105
1640 0 85.2556 12.2573 1045 108.385 1171.15 453.904
1641 0 86.2354 11.3179 976 112.809 1170.7 455.772
1642 0 91.2811 12.3246 1125 111.344 1170.56 452.588
1643 0 91.2279 12.1783 1111 112.925 1170.04 449.13
1644 0 96.4476 13.427 1295 110.092 1170.31 445.956
1645 0 98.1972 11.314 1111 115.045 1169.76 444.488
1646 0 101.194 13.6273 1379 110.26 1170.67 443.455
1647 0 105.179 11.1334 1171 114.363 1170.68 449.34
1648 1 56.0932 10.8213 607 113.183 1170.64 466.628
1649 0 57.1481 11.7239 670 111.363 1171.4 467.596
1650 0 61.1809 13.2721 812 106.298 1170.47 467.262
1651 0 61.2496 11.445 701 111.673 1170.27 466.001
1652 0 62.1262 11.7503 730 111.39 1170.85 465.452
1653 0 66.1112 12.358 817 109.269 1170.4 464.323
1654 0 68.1353 12.666 863 109.601 1170.09 463.386
1655 0 70.1138 13.7063 961 103.298 1169.9 462.606
1656 0 72.0618 11.7538 847 108.332 1169.93 462.738
1657 0 76.0506 12.3996 943 108.092 1169.45 460.782
1658 0 79.1443 12.0539 954 107.87 1169.46 458.177
1659 0 82.0959 13.74 1128 105.41 1169.61 458.528
1660 0 84.0697 13.2866 1117 107.298 1169.78 457.848
1661 0 89.1177 13.8132 1231 105.607 1169.65 454.59
1662 0 91.1179 14.1246 1287 105.567 1169.82 452.009
1663 0 93.258 14.1436 1319 106.151 1169.73 452.701
1664 0 94.1381 13.0447 1228 109.689 1170.17 449.914
1665 0 98.1516 13.1226 1288 110.711 1169.51 449.346
1666 0 103.243 13.1631 1359 111.166 1169.82 445.907
1667 0 104.304 12.7608 1331 112.183 1170.43 447.946
1668 0 107.225 12.2639 1315 114.074 1170.01 444.916
1669 1 56.0715 10.772 604 109.882 1170.06 470.429
1670 0 58.1017 11.4627 666 109.613 1170.35 467.815
1671 0 63.103 11.7902 744 99.6801 1169.99 469.349
1672 0 63.0621 11.5759 730 102.189 1170.64 466.421
1673 0 66.0336 11.3124 747 103.94 1170.76 464.936
1674 0 65.1686 10.8488 707 106.847 1170.59 464.782
1675 0 68.1004 12.555 855 104.15 1170.4 462.082
1676 0 71.1322 11.0498 786 108.524 1169.96 460.93
1677 0 75.1466 12.3625 929 105.86 1170.6 460.047
1678 0 78.0957 12.9969 1015 104.696 1170.55 461.634
1679 0 80.0783 13.4369 1076 105.764 1170.42 459.107
1680 0 82.0817 12.1586 998 109.786 1170.96 458.211
1681 0 86.0962 14.2399 1226 103.913 1170.81 459.613
1682 0 88.1481 12.8307 1131 109.285 1170.28 455.214
1683 0 90.2722 12.6395 1141 109.676 1170.26 456.264
1684 0 93.1916 11.7929 1099 112.598 1169.99 453.337
1685 0 96.0726 12.7612 1226 111.256 1169.8 449.679
1686 0 100.286 13.8105 1385 108.267 1169.73 449.957
1687 0 101.164 12.9591 1311 112.03 1170.1 449.405
1688 0 105.191 12.8148 1348 113.059 1170.33 444.624
1689 0 109.117 12.977 1416 111.878 1169.9 444.367
1690 0 112.215 13.2603 1488 110.923 1170.08 442.187
1691 0 116.195 12.9782 1508 111.692 1170.46 439.49
1692 0 121.292 14.1147 1712 108.406 1170.5 436.71
1693 1 65.0894 11.2922 735 105.912 1171.53 468.226
1694 0 67.0461 11.246 754 107.147 1170.97 463.8
1695 0 69.0158 10.5628 729 109.353 1171.58 461.469
1696 0 71.0403 12.1199 861 107.533 1172 460.691
1697 0 74.038 10.6432 788 110.523 1171.65 462.393
1698 0 74.0772 10.4486 774 111.552 1172.62 460.125
1699 0 81.1039 11.9353 968 107.289 1172.12 460.038
1700 0 81.1039 11.9106 966 137.215 1171.13 460.061
1701 0 85.1018 11.5274 981 108.708 1172.7 458.347
1702 0 88.0703 12.842 1131 106.607 1171.79 453.981
1703 0 89.0417 12.2976 1095 107.89 1171.24 453.235
1704 0 90.0466 10.5057 946 109.647 1171.32 447.804
1705 0 93.0485 10.7471 1000 107.878 1170.7 444.714
1706 0 97.1742 12.4313 1208 104.428 1170 446.427
1707 0 102.205 10.9486 1119 101.941 1170.72 451.472
1708 0 106.187 11.6304 1235 100.613 1170.48 448.045
1709 1 55.1309 10.1576 560 96.6804 1171.3 473.561
1710 0 59.0857 11.0179 651 95.3548 1171.48 473.141
1711 0 58.1002 11.0671 643 96.577 1170.72 473.002
1712 0 59.1152 10.3696 613 98.1077 1170.65 468.403
1713 0 64.124 11.4154 732 94.7937 1171.27 469.02
1714 0 66.1062 12.1622 804 92.9888 1171.12 466.748
1715 0 66.0619 11.7466 776 94.1972 1170.95 464.321
1716 0 68.1816 11.7334 800 94.8762 1171.26 463.328
1717 0 69.1494 10.9907 760 97.2145 1171.24 461.276
1718 0 73.0853 12.4238 908 94.8161 1171.03 462.077
1719 0 73.0788 11.7134 856 97.5596 1170.18 459.834
1720 0 78.077 12.2315 955 96.8963 1170.36 459.344
1721 0 80.0958 11.5487 925 98.2649 1170.97 460.452
1722 0 80.07 11.6023 929 101.103 1170.29 458.363
1723 0 86.0928 13.5668 1168 96.8818 1170.46 455.847
1724 0 88.0914 13.1 1154 98.7964 1170.61 453.412
1725 0 91.1392 13.8031 1258 98.9841 1170.42 453.871
1726 0 90.1165 12.6725 1142 104.75 1170.25 450.699
1727 0 95.0822 11.7793 1120 106.521 1170.46 449.855
1728 1 53.0652 11.043 586 102.232 1171.23 472.614
1729 0 55.1818 12.776 705 107.579 1172.03 477.488
1730 0 58.2582 13.835 806 105.6 1170.91 475.641
1731 0 60.1892 13.3246 802 106.635 1170.95 475.764
1732 0 59.3266 12.6419 750 110.777 1171.09 474.816
1733 0 62.1878 13.218 822 110.277 1171.59 474.079
1734 0 64.2226 12.4567 800 112.212 1171 473.888
1735 0 65.148 14.3673 936 110.421 1171.14 470.761
1736 0 68.1126 14.1824 966 110.799 1170.83 471.099
1737 0 72.1115 13.9506 1006 110.719 1171.4 471.307
1738 0 72.1478 13.805 996 112.896 1170.77 469.493
1739 0 75.1195 14.3105 1075 110.384 1171.52 468.984
1740 0 76.0703 13.4349 1022 114.851 1171.29 468.014
1741 0 78.1449 13.7949 1078 115.518 1171.53 464.414
1742 0 81.0685 13.9635 1132 115.292 1171.99 465.905
1743 0 82.1152 14.9546 1228 114.993 1171.63 463.134
1744 0 84.0762 13.7256 1154 119.384 1170.79 459.867
1745 0 87.1902 13.7515 1199 118.898 1170.63 462.13
1746 0 89.2464 14.107 1259 119.602 1170.98 459.441
1747 0 93.1702 14.6184 1362 118.914 1170.73 456.325
1748 0 94.1441 14.2123 1338 120.854 1170.66 456.134
1749 0 99.2 14.0524 1394 120.824 1170.84 455.769
1750 0 101.222 15.5599 1575 118.515 1170.41 452.822
1751 0 104.114 14.0999 1468 122.828 1169.64 451.07
1752 0 109.155 14.9971 1637 119.655 1170.4 447.174
1753 0 111.212 13.9733 1554 120.652 1170.39 444.535
1754 1 63.1401 10.8647 686 119.281 1169.71 464.761
1755 0 65.0943 10.9687 714 118.307 1170.28 463.819
1756 0 68.0511 10.5656 719 111.25 1169.74 465.541
1757 0 69.0884 11.232 776 110.144 1169.89 464.629
1758 0 71.1152 10.9259 777 112.158 1170 460.704
1759 0 76.1118 11.1941 852 110.048 1170 462.416
1760 0 78.0752 12.821 1001 107.092 1170.18 462.368
1761 0 81.1098 11.4906 932 110.619 1170.7 459.47
1762 0 84.0727 12.1442 1021 108.565 1170.38 457.435
1763 0 85.1692 11.2952 962 111.827 1169.73 457.45
1764 0 88.1754 11.5338 1017 111.584 1170.41 456.422
1765 0 93.1189 12.4787 1162 108.861 1170.63 455.842
1766 0 94.076 12.7875 1203 110.918 1170.29 452.629
1767 0 97.0614 12.4354 1207 112.482 1169.59 452.104
1768 0 100.057 11.9133 1192 112.897 1170.5 452.71
1769 0 102.094 12.1064 1236 114.541 1169.57 450.392
1770 0 106.135 12.55 1332 114.368 1169.91 448.072
1771 0 109.188 12.0434 1315 115.243 1170.58 448.92
1772 0 112.102 12.4797 1399 115.635 1170.69 447.629
1773 1 61.0734 10.4956 641 110.173 1170.99 473.66
1774 0 64.0762 11.7985 756 113.22 1171.69 472.407
1775 0 66.0573 12.8676 850 114.266 1171.59 470.488
1776 0 69.0982 12.6487 874 113.625 1171.98 471.945
1777 0 71.1029 14.683 1044 107.643 1172.41 470.285
1778 0 73.0744 12.8089 936 113.378 1172.48 468.078
1779 0 75.1355 12.7237 956 114.166 1172.02 468.773
1780 0 79.2194 14.2137 1126 110.933 1171.26 463.803
1781 0 78.0757 12.4623 973 116.935 1171.75 465.084
1782 0 82.1228 12.4813 1025 116.333 1172.08 464.371
1783 0 85.1577 12.3653 1053 117.635 1171.03 459.462
1784 0 88.1114 13.6645 1204 115.105 1171.18 459.763
1785 0 92.1646 13.5518 1249 114.479 1171.73 458.698
1786 0 94.2537 12.965 1222 116.858 1170.88 456.484
1787 0 98.2232 14.6401 1438 112.913 1171.07 455.956
1788 0 97.2964 13.0735 1272 118.171 1171.51 453.012
1789 0 102.108 13.2017 1348 115.605 1171.11 448.132
1790 0 103.078 13.0678 1347 115.894 1170.76 446.938
1791 0 106.167 13.5258 1436 115.902 1171.72 445.434
1792 0 108.143 13.4637 1456 116.798 1170.54 438.387
1793 0 112.172 13.4525 1509 116.664 1170.5 435.242
1794 0 117.156 13.6058 1594 116.159 1170.46 434.334
1795 1 66.0852 10.4259 689 116.225 1170.86 462.742
1796 0 67.0713 12.2854 824 117.42 1170.87 466.194
1797 0 72.1582 12.5003 902 116.659 1171.83 464.644
1798 0 71.1457 12.3128 876 118.826 1171.66 465.643
1799 0 74.2038 12.1692 903 119.105 1171.47 463.647
1800 0 79.2689 12.9181 1024 116.104 1171.56 464.663
1801 0 81.2995 13.4687 1095 115.626 1171.85 462.55
1802 0 83.2138 14.9494 1244 112.822 1171.29 459.243
1803 0 88.3389 14.6481 1294 113.389 1171.3 458.789
1804 0 89.3296 13.5901 1214 117.313 1171.11 458.409
1805 0 90.5129 13.4566 1218 118.804 1170.78 453.548
1806 0 94.3921 13.3168 1257 119.605 1170.02 451.009
1807 0 98.2834 13.8681 1363 117.844 1170.41 449.084
1808 0 101.397 13.8071 1400 118.516 1171.02 447.719
1809 0 103.36 12.887 1332 121.077 1171.25 445.429
1810 0 105.145 13.7905 1450 120.26 1171.2 442.795
1811 0 107.215 14.0932 1511 119.933 1170.83 444.267
1812 0 114.249 13.313 1521 120.801 1171.3 443.197
1813 0 116.157 13.5764 1577 120.394 1171.15 441.448
1814 0 118.244 12.7279 1505 123.466 1170.86 438.767
1815 1 67.0822 10.1815 683 121.713 1170.57 464.748
1816 0 70.1715 11.6857 820 118.26 1170.54 464.578
1817 0 70.2362 11.6891 821 119.775 1170.21 461.058
1818 0 73.202 11.68 855 118.449 1170.87 461.818
1819 0 78.2097 13.0291 1019 113.873 1170.82 460.545
1820 0 77.2558 11.1318 860 122.197 1170.59 457.705
1821 0 81.1604 12.0995 982 120.248 1170.61 456.694
1822 0 84.1915 11.3194 953 121.78 1170.34 457.399
1823 0 87.2318 11.6127 1013 122.271 1171.18 455.404
1824 0 91.2111 13.6387 1244 117.213 1170.84 453.363
1825 0 95.3538 12.8679 1227 118.496 1170.63 453.506
1826 0 97.3466 12.1627 1184 122.327 1170.43 448.914
1827 0 97.2628 12.348 1201 122.608 1170.34 448.45
1828 0 101.244 12.7118 1287 121.222 1170.26 448.812
1829 0 105.26 13.614 1433 120.639 1170.67 452.363
1830 0 109.202 13.5346 1478 116.235 1170.18 445.101
1831 0 112.27 13.5477 1521 116.737 1169.45 446.156
1832 1 59.1955 11.2508 666 116.048 1170.47 472.054
1833 0 62.2588 11.934 743 118.367 1170.74 472.825
1834 0 63.1867 13.1515 831 119.389 1170.4 471.45
1835 0 65.0532 11.775 766 116.893 1170.41 473.078
1836 0 68.0893 13.3648 910 112.842 1170.79 471.335
1837 0 69.1136 12.9931 898 114.13 1171.68 469.794
1838 0 70.0912 13.1115 919 115.184 1171.92 468.432
1839 0 73.0878 12.2182 893 116.812 1171.69 468.675
1840 0 75.0836 13.3718 1004 113.152 1171.82 469.431
1841 0 78.0768 12.8335 1002 114.455 1172.61 466.69
1842 0 80.0779 12.85 1029 115.649 1172.06 464.518
1843 0 84.1419 13.7506 1157 114.595 1171.56 462.592
1844 0 85.0362 13.3002 1131 115.79 1172.04 460.214
1845 0 89.1322 12.9695 1156 115.048 1171.96 461.343
1846 0 91.1638 12.6585 1154 118.003 1171.4 458.282
1847 0 93.1328 13.164 1226 116.082 1170.93 457.078
1848 0 98.1764 13.16 1292 114.926 1171.38 454.538
1849 0 100.196 12.206 1223 118.899 1171.14 455.025
1850 0 105.18 12.084 1271 117.593 1171.09 454.261
1851 0 108.136 12.8634 1391 118.171 1171.03 452.398
1852 0 112.129 12.8245 1438 116.823 1171.48 450.847
1853 1 62.0112 11.1432 691 115.97 1172.03 473.729
1854 0 64.083 13.1236 841 114.404 1172 473.033
1855 0 64.0657 13.3301 854 114.951 1169.72 470.847
1856 0 65.0668 11.0194 717 112.722 1171.57 472.782
1857 0 68.0836 12.1028 824 110.475 1171.9 470.012
1858 0 68.0718 11.1206 757 113.107 1172.12 469.762
1859 0 73.0797 11.8911 869 111.247 1171.6 467.4
1860 0 75.0631 11.9499 897 111.735 1171.4 466.678
1861 0 77.0835 11.5978 894 113.199 1171.65 468.035
1862 0 79.0334 11.5141 910 114.554 1171.82 463.649
1863 0 81.0606 12.7065 1030 112.128 1171.83 462.439
1864 0 85.0679 11.9669 1018 113.68 1172.05 460.81
1865 0 87.0689 12.5877 1096 112.995 1172.28 459.234
1866 0 88.1212 12.8913 1136 112.951 1171.22 456.065
1867 0 90.0963 11.3656 1024 116.912 1171.11 456.96
1868 0 95.1047 12.6072 1199 113.646 1171.71 455.778
1869 0 98.1075 12.6596 1242 114.424 1171.36 454.211
1870 0 101.142 13.5948 1375 111.899 1171.16 452.724
1871 0 101.086 10.7532 1087 119.111 1171.7 452.304
1872 0 106.109 11.328 1202 116.349 1171.58 449.047
1873 0 111.136 12.7591 1418 114.173 1171.21 448.025
1874 0 114.136 13.5277 1544 114.648 1171.12 445.292
1875 0 117.094 11.9989 1405 116.524 1171.62 444.443
1876 0 118.162 11.7212 1385 118.912 1170.89 440.601
1877 0 124.071 11.977 1486 117.194 1170.82 438.245
1878 1 71.0457 10.5988 753 114.121 1171.94 466.246
1879 0 76.1696 13.3649 1018 109.365 1171.49 464.522
1880 0 76.1108 12.2847 935 113.126 1170.52 463.624
1881 0 79.2113 13.5082 1070 108.888 1171.49 462.33
1882 0 81.0912 12.2948 997 111.485 1170.97 461.958
1883 0 83.1281 12.6431 1051 110.95 1170.99 460.023
1884 0 87.1338 13.2096 1151 110.372 1171.01 459.289
1885 0 92.1127 13.7549 1267 108.433 1171.07 457.92
1886 0 93.1383 14.6556 1365 107.458 1171.15 456.185
1887 0 97.1682 14.0272 1363 108.198 1171.23 455.868
1888 0 99.1557 13.9982 1388 109.461 1171.14 451.682
1889 0 103.101 12.9582 1336 111.401 1171.2 451.367
1890 0 105.142 12.8303 1349 111.752 1170.76 451.755
1891 0 110.117 12.9226 1423 112.569 1170.51 445.904
1892 0 114.125 12.8894 1471 112.465 1171.03 445.447
1893 0 117.229 14.0495 1647 109.633 1170.86 445.018
1894 0 121.122 13.1024 1587 111.75 1170.78 444.418
1895 0 124.181 13.4964 1676 112.185 1170.42 440.6
1896 0 125.158 11.058 1384 117.985 1170.6 437.609
1897 0 133.155 13.2402 1763 113.095 1170.58 434.995
1898 1 72.2585 12.3861 895 113.698 1170.79 462.36
1899 0 73.0763 12.2338 894 108.503 1169.97 453.513
1900 0 77.0757 14.5701 1123 101.827 1169.81 452.705
1901 0 79.0738 10.0918 798 105.927 1171.05 455.293
1902 0 81.2147 10.7123 870 105.054 1171.68 454.186
1903 0 85.0755 11.2959 961 105.547 1170.46 449.881
1904 0 89.1637 11.5518 1030 105.012 1171.04 451.379
1905 0 90.13 11.5389 1040 106.445 1170.74 450.102
1906 0 94.1855 10.3519 975 108.864 1170.8 450.898
1907 0 98.2471 11.5627 1136 108.677 1170.09 446.247
1908 0 100.128 11.1058 1112 110.344 1170.55 444.991
1909 0 102.108 11.5857 1183 109.517 1170.42 444.437
1910 0 106.152 12.972 1377 106.599 1170.45 441.73
1911 0 110.299 13.2731 1464 106.406 1170.21 442.697
1912 0 114.143 12.5719 1435 108.02 1170.84 442.009
1913 0 119.129 12.6417 1506 108.361 1170.61 438.389
1914 0 121.131 12.6392 1531 109.706 1170.49 435.084
1915 1 64.1278 11.1964 718 104.908 1171.28 464.946
1916 0 67.267 10.6293 715 105.926 1170.99 462.35
1917 0 69.315 11.4117 791 110.903 1170.7 460.115
1918 0 71.2337 11.1464 794 111.112 1170.39 460.322
1919 0 70.2582 11.3439 797 135.504 1170.38 460.125
1920 0 77.1952 10.8686 839 111.542 1171.08 457.8
1921 0 79.2896 11.9436 947 110.642 1170.87 456.775
1922 0 80.1904 11.9965 962 111.422 1170.62 453.521
1923 0 85.3035 11.1836 954 111.968 1170.92 454.12
1924 0 87.1856 12.3644 1078 110.817 1170.15 452.854
1925 0 89.1823 12.0203 1072 112.567 1169.98 451.139
1926 0 93.2439 12.1188 1130 114.546 1170.36 449.195
1927 0 96.191 13.2237 1272 112.232 1170.81 448.02
1928 0 100.163 14.4963 1452 108.786 1170.75 448.324
1929 0 99.1828 11.8569 1176 116.778 1170.43 445.806
1930 0 103.233 12.8738 1329 113.869 1170.42 446.626
1931 0 103.213 12.9247 1334 150.772 1170.41 446.608
1932 0 111.276 13.2734 1477 114.87 1170.72 448.477
1933 0 112.148 13.5624 1521 115.802 1171 445.627
1934 0 115.28 12.4827 1439 118.937 1171.44 443.704
1935 0 118.213 12.4944 1477 119.864 1170.82 438.676
1936 0 123.182 13.2406 1631 116.039 1170.89 432.433
1937 0 126.292 13.2629 1675 116.232 1170.48 432.396
1938 0 132.226 13.9685 1847 115.191 1170.58 429.411
1939 0 137.239 13.808 1895 116.159 1171.01 426.825
1940 0 141.219 14.3961 2033 116.183 1170.47 423.528
1941 0 145.248 14.4855 2104 117.277 1169.79 423.433
1942 0 148.229 13.5331 2006 121.13 1169.82 416.518
1943 0 153.279 12.7937 1961 122.642 1170.17 418.341
1944 1 82.1398 11.8213 971 120.239 1170.67 452.26
1945 0 81.2202 11.3026 918 122.142 1170.76 450.751
1946 0 86.3435 12.3345 1065 119.338 1170.98 450.774
1947 0 90.2662 12.02 1085 119.956 1171.54 451.05
1948 0 88.1818 11.7031 1032 123.011 1171.6 451.949
1949 0 94.1971 12.6649 1193 120.091 1170.97 450.764
1950 0 97.1396 12.971 1260 119.025 1170.7 451.105
1951 0 100.278 13.8814 1392 114.303 1170.99 447.8
1952 0 101.233 12.644 1280 118.309 1170.96 445.893
1953 0 103.177 12.9486 1336 120.494 1170.36 443.211
1954 0 108.245 14.2825 1546 116.239 1170.5 440.619
1955 0 110.164 13.5162 1489 118.601 1170.8 440.143
1956 0 113.15 13.4601 1523 119.105 1169.1 441.875
1957 0 115.268 13.23 1525 120.485 1170.17 437.932
1958 0 120.199 13.278 1596 120.31 1169.68 436.228
1959 0 123.338 12.8427 1584 120.762 1169.42 434.494
1960 0 129.2 13.7616 1778 118.798 1169.94 433.834
1961 0 133.163 14.2682 1900 117.479 1169.55 426.315
1962 0 140.156 15.0903 2115 114.238 1169.87 427.017
1963 0 143.369 13.8314 1983 118.563 1169.65 424.47
1964 0 150.167 14.0843 2115 117.257 1169.83 419.988
1965 0 156.238 15.118 2362 114.965 1169.95 415.721
1966 0 159.242 14.4309 2298 117.559 1169.54 411.55
1967 0 166.29 14.7333 2450 117.107 1170.19 407.121
1968 1 84.1165 10.0694 847 113.535 1170.15 452.763
1969 0 88.0817 10.5357 928 112.421 1170.59 448.052
1970 0 90.0848 11.4448 1031 106.063 1170.7 446.224
1971 0 94.1064 10.9344 1029 107.19 1170.95 445.688
1972 0 96.1731 10.793 1038 108.011 1170.61 446.688
1973 0 101.186 12.2053 1235 104.722 1170.99 442.671
1974 0 105.169 11.5433 1214 105.731 1170.99 442.423
1975 0 111.241 12.7921 1423 109.058 1170.57 446.72
1976 0 116.158 14.0843 1636 105.238 1171.05 445.632
1977 0 120.243 12.5496 1509 108.63 1170.2 438.854
1978 0 123.286 12.3696 1525 108.262 1170.32 441.2
1979 0 127.167 12.5819 1600 105.896 1170.54 432.319
1980 1 77.2026 9.28725 717 101.135 1170.82 460.643
1981 0 78.207 10.1014 790 100.444 1170.44 458.733
1982 0 83.2273 11.1141 925 96.3957 1171.25 459.355
1983 0 85.2283 11.9327 1017 96.7404 1171.41 455.992
1984 0 88.1205 10.9623 966 96.3768 1171.2 459.268
1985 0 91.1312 12.696 1157 94.2783 1171.05 456.243
1986 0 92.1644 9.84111 907 99.8214 1171.09 453.399
1987 0 95.2378 11.949 1138 97.7627 1172.24 452.989
1988 0 99.0871 11.1922 1109 99.3436 1170.08 450.071
1989 0 103.248 12.0487 1244 98.0161 1170.86 451.097
1990 0 107.187 11.8391 1269 100.094 1170.21 445.576
1991 0 109.209 10.5852 1156 102.503 1169.75 444.572
1992 0 112.193 11.3465 1273 101.874 1169.42 444.892
1993 0 116.219 11.1513 1296 102.718 1169.5 444.431
1994 0 118.178 11.5842 1369 103.993 1169.63 441.407
1995 0 125.206 11.7167 1467 102.754 1170 439
1996 0 127.218 11.83 1505 104.177 1170.24 436.807
1997 0 134.346 13.3759 1797 99.0139 1170.21 436.959
1998 1 77.0915 9.3655 722 99.8269 1169.9 467.195
1999 0 76.0664 9.54429 726 101.78 1169.97 463.763
2000 0 84.2049 12.6952 1069 94.9654 1171.48 462.287
2001 0 84.1331 12.1593 1023 97.8651 1170.66 458.364
2002 0 88.3009 11.3702 1004 99.4044 1170.86 458.885
2003 0 89.2068 11.4005 1017 101.148 1170.96 457.731
2004 0 93.189 11.8254 1102 100.057 1170.79 456.485
2005 0 95.174 11.7679 1120 101.019 1170.85 451.426
2006 0 98.1607 11.7155 1150 100.705 1171.28 455.774
2007 0 100.27 10.6513 1068 104.615 1171.22 451.013
2008 0 106.171 10.5679 1122 104.789 1171.22 450.979
2009 0 108.336 12.8212 1389 101.384 1170.87 449.553
2010 0 111.158 11.6681 1297 105.836 1170.56 445.398
2011 0 112.169 11.4203 1281 107.84 1170.94 444.193
2012 0 117.192 11.6135 1361 107.888 1170.84 445.679
2013 0 122.165 14.3576 1754 103.117 1170.61 442.857
2014 0 124.229 12.493 1552 107.827 1170.35 442.385
2015 0 127.28 13.0657 1663 107.758 1169.85 440.449
2016 1 75.0906 12.0654 906 104.087 1170.77 465.944
2017 0 77.1269 11.1505 860 107.985 1170.87 464.992
2018 0 78.0575 12.8879 1006 107.132 1171.9 462.914
2019 0 79.0724 11.3061 894 112.426 1172.05 459.602
2020 0 84.1484 13.7614 1158 106.616 1171.4 458.665
2021 0 86.2704 12.8318 1107 109.496 1171.43 456.445
2022 0 89.1052 12.4347 1108 110.504 1171.45 453.574
2023 0 93.1332 11.8969 1108 110.857 1171.53 453.99
2024 0 94.1146 12.3466 1162 110.385 1171.44 456.204
2025 0 98.138 12.7474 1251 110.749 1171.29 450.262
2026 0 102.145 13.1773 1346 107.473 1171.3 449.608
2027 0 102.103 12.2622 1252 109.53 1171.67 447.856
2028 0 108.099 12.5625 1358 107.68 1171.56 448.476
2029 0 111.124 12.4726 1386 108.472 1170.9 444.577
2030 0 114.128 13.5199 1543 105.815 1171.33 446.963
2031 1 65.1547 11.2348 732 105.496 1172.67 470.337
2032 0 64.2475 11.4401 735 110.185 1171.58 467.444
2033 0 67.2164 12.973 872 107.78 1171.56 468.768
2034 0 68.208 12.4912 852 110.46 1171.14 467.269
2035 0 68.1912 11.4091 778 107.373 1171.34 470.389
2036 0 72.2018 11.5925 837 107.996 1171.35 468.652
2037 0 74.1457 12.0439 893 108.084 1171.43 465.548
2038 0 76.1594 12.0931 921 107.673 1171.9 467.024
2039 0 80.1209 12.5435 1005 106.904 1170.81 462.878
2040 0 81.1781 12.4295 1009 109.276 1170.97 463.542
2041 0 81.2183 10.0593 817 113.709 1171.34 463.553
2042 0 87.1582 11.6111 1012 110.929 1171.23 460.972
2043 0 89.1912 12.2209 1090 109.945 1171.37 456.839
2044 0 89.1643 11.3723 1014 111.888 1171.63 454.335
2045 0 95.1381 11.4781 1092 110.735 1171.83 454.393
2046 0 97.191 10.8035 1050 112.577 1171.42 452.26
2047 0 100.099 11.5186 1153 112.425 1170.89 447.689
2048 0 104.054 11.888 1237 111.428 1171.09 447.971
2049 0 105.063 11.1171 1168 114.394 1170.87 440.077
2050 0 109.112 10.2372 1117 114.064 1170.96 442.286
2051 0 110.136 11.5584 1273 113.363 1171.65 438.195
2052 0 112.152 11.5558 1296 113.87 1170.84 434.732
2053 0 112.12 11.5769 1298 114.459 1170.99 432.512
2054 0 118.089 12.5837 1486 111.185 1170.81 433.353
2055 1 65.07 9.00568 586 111.044 1171.33 459.442
2056 0 72.0754 9.83693 709 106.55 1171.09 461.745
2057 0 69.205 9.42128 652 108.359 1170.12 460.52
2058 0 77.2312 10.1254 782 100.74 1169.84 459.568
2059 0 80.2604 9.3695 752 100.894 1169.28 458.642
2060 0 81.2134 9.4812 770 103.406 1169.39 453.26
2061 0 82.2239 10.0457 826 103.862 1169.45 452.303
2062 0 87.3844 11.0317 964 102.87 1169.59 452.21
2063 0 89.3088 10.7156 957 104.059 1169.35 452.208
2064 0 91.1781 9.4979 866 106.154 1169.75 452.118
2065 0 96.2191 10.5385 1014 104.45 1169.72 450.02
2066 0 98.2382 11.35 1115 104.883 1169.66 445.685
2067 0 100.222 11.5144 1154 104.697 1170.19 448.829
2068 0 103.611 10.7035 1109 107.209 1169.65 447.661
2069 0 108.109 12.0342 1301 105.219 1169.94 445.361
2070 0 109.15 11.1681 1219 109.204 1169.98 445.249
2071 0 113.151 12.0812 1367 108.057 1170.36 441.59
2072 0 115.263 11.1397 1284 110.683 1170.78 442.038
2073 0 121.158 11.6955 1417 109.98 1170.22 439.052
2074 1 67.0416 10.3816 696 105.223 1171.27 469.144
2075 0 68.0929 11.1759 761 104.817 1171.64 468.488
2076 0 72.0837 10.5988 764 105.788 1171.3 469.472
2077 0 75.1307 12.6047 947 102.415 1170.86 463.533
2078 0 78.0826 13.7162 1071 99.9337 1170.61 464.021
2079 0 80.1306 11.8057 946 104.942 1171 462.386
2080 0 83.2423 12.0371 1002 104.327 1171.25 462.519
2081 0 85.147 13.5765 1156 101.681 1170.34 461.223
2082 0 86.113 11.8101 1017 106.922 1170.89 457.819
2083 0 87.2014 11.8003 1029 108.262 1170.61 456.411
2084 0 91.0686 12.9902 1183 105.533 1171.32 455.444
2085 0 94.1718 12.7427 1200 106.972 1171.42 455.035
2086 0 98.0905 13.3346 1308 105.489 1171.47 453.826
2087 0 99.0932 12.1401 1203 109.332 1171.41 454.353
2088 0 103.215 12.3626 1276 109.41 1171.43 451.744
2089 0 104.204 12.6866 1322 109.877 1171.11 451.599
2090 0 106.106 13.053 1385 110.383 1169.78 448.536
2091 0 110.14 12.9653 1428 115.125 1169.31 446.763
2092 0 115.265 13.1262 1513 114.865 1169.69 446.109
2093 0 116.234 12.2684 1426 118.098 1169.32 444.671
2094 0 120.271 14.1597 1703 111.404 1169 442.065
2095 0 122.234 12.3452 1509 115.594 1169.28 443.916
2096 0 125.191 11.6143 1454 116.246 1169.63 439.875
2097 1 70.0691 11.8883 833 110.583 1169.74 469.511
2098 0 73.105 12.8992 943 110.452 1169.81 465.897
2099 0 75.1924 12.7938 962 111.661 1170.6 461.428
2100 0 80.228 13.4866 1082 110.713 1170.49 456.859
2101 0 82.2988 13.937 1147 110.382 1170.83 455.99
2102 0 84.2679 14.8099 1248 108.85 1170.58 458.897
2103 0 86.2229 14.5205 1252 109.733 1170.74 458.673
2104 0 87.223 13.0699 1140 114.389 1170.89 456.895
2105 0 92.1739 15.0585 1388 108.795 1170.93 456.026
2106 0 94.2551 13.9091 1311 111.619 1170.28 455.392
2107 0 96.1146 13.9937 1345 112.816 1170.68 454.005
2108 0 98.1357 14.0724 1381 113.76 1171.01 452.476
2109 0 98.1326 14.1645 1390 141.842 1171.03 452.504
2110 0 104.108 12.1892 1269 114.307 1170.5 452.464
2111 0 107.117 13.3405 1429 112.204 1170.79 451.35
2112 0 110.092 13.8158 1521 110.346 1170.52 451.145
2113 0 115.168 13.858 1596 109.742 1170.28 447.1
2114 1 63.1172 11.9302 753 109.886 1171.55 472.374
2115 0 64.2132 12.6142 810 107.94 1171.27 468.025
2116 0 66.162 11.6986 774 111.338 1171.21 469.567
2117 0 69.1047 12.633 873 104.718 1170.79 469.537
2118 0 70.1136 11.8094 828 107.106 1170.46 466.713
2119 0 72.1341 10.0507 725 112.143 1171.01 467.188
2120 0 76.1659 11.8688 904 108.462 1170.88 465.923
2121 0 78.1188 12.6218 986 107.77 1170.68 463.28
2122 0 82.084 13.3887 1099 106.145 1170.32 463.743
2123 0 84.0712 12.4299 1045 109.249 1170.4 462.789
2124 0 88.1267 14.2976 1260 105.519 1170.3 459.979
2125 0 87.2018 12.408 1082 111.238 1170.65 461.673
2126 0 89.1375 11.9142 1062 113.76 1170.47 459.049
2127 0 93.3123 13.4066 1251 110.58 1170.58 458.628
2128 0 96.1786 13.6205 1310 111.096 1170.21 457.214
2129 0 99.2206 14.2712 1416 111.689 1169.59 452.332
2130 0 103.287 13.9611 1442 116.182 1169.93 448.733
2131 0 105.218 14.2086 1495 116.187 1170.4 447.646
2132 0 106.193 13.4472 1428 120.488 1169.96 443.907
2133 0 110.206 14.6998 1620 116.786 1169.9 443.438
2134 0 116.187 14.2012 1650 117.457 1171.11 442.947
2135 0 116.116 13.2798 1542 120.199 1170.26 442.01
2136 1 67.1004 12.4738 837 116.719 1168.59 462.166
2137 0 69.13 12.4548 861 116.708 1168.38 462.981
2138 0 73.2079 13.3592 978 117.297 1169.36 465.72
2139 0 77.3854 13.5685 1050 116.969 1169.15 464.137
2140 0 78.4611 13.6756 1073 118.37 1169.3 464.013
2141 0 82.4573 13.1341 1083 119.333 1169.48 462.339
2142 0 82.4267 12.7143 1048 119.121 1169.89 458.364
2143 0 87.2472 12.9975 1134 113.626 1170.33 456.373
2144 0 89.1122 12.8153 1142 117.472 1170.61 453.785
2145 0 94.2206 12.7785 1204 118.826 1170.01 453.959
2146 0 95.1291 12.2886 1169 120.495 1170.63 454.962
2147 0 99.309 13.2113 1312 119.729 1170.31 452.121
2148 0 104.276 13.5794 1416 119.555 1169.76 449.208
2149 1 56.2915 11.9379 672 115.198 1170.75 473.174
2150 0 57.1325 11.1145 635 118.402 1170.88 472.331
2151 0 59.0952 12.5222 740 114.703 1171.34 472.115
2152 0 62.095 12.2071 758 115.89 1171.53 471.632
2153 0 61.1416 11.7105 716 119.02 1170.95 472.464
2154 0 62.2531 12.0315 749 119.477 1170.63 470.877
2155 0 65.0267 12.0258 782 120.33 1169.48 470.457
2156 0 68.0375 13.4632 916 115.126 1170.58 471.38
2157 0 71.055 13.3699 950 116.224 1169.57 470.136
2158 0 72.1381 13.0721 943 118.513 1170.19 468.883
2159 0 72.0772 12.667 913 120.218 1170.09 469.445
2160 0 77.0508 13.1601 1014 119.974 1170.78 465.737
2161 0 76.2607 13.1916 1006 121.72 1170.89 460.755
2162 0 82.2114 13.4531 1106 119.639 1171.47 459.833
2163 0 83.2537 13.6691 1138 119.745 1171.31 460.499
2164 0 83.14 12.9661 1078 124.263 1170.64 456.891
2165 0 87.1706 13.1811 1149 122.305 1170.94 456.46
2166 0 90.3494 13.5474 1224 121.475 1170.69 455.967
2167 0 92.2161 12.4273 1146 125.409 1170.25 454.231
2168 0 94.1709 14.1126 1329 122.521 1170.29 452.16
2169 0 97.3159 13.4305 1307 123.689 1170.35 452.428
2170 0 102.254 13.8284 1414 123.417 1170.35 450.339
2171 0 104.194 13.5517 1412 125.162 1169.7 447.797
2172 0 106.147 12.8689 1366 126.705 1169.99 449.19
2173 0 109.172 12.5307 1368 128.205 1170.9 442.7
2174 0 114.187 12.6722 1447 126.424 1170.4 444.388
2175 1 61.0809 10.0686 615 123.746 1170.62 470.533
2176 0 63.048 12.2288 771 118.244 1171.1 471.608
2177 0 64.1138 11.8227 758 114.445 1170.64 467.475
2178 0 70.1413 10.9636 769 115.365 1170.13 469.939
2179 0 70.0888 11.2857 791 114.11 1170.69 468.746
2180 0 73.079 13.0133 951 110.94 1170.66 464.415
2181 0 75.165 12.9182 971 111.361 1170.61 463.238
2182 0 78.1158 11.7774 920 113.376 1170.22 463.237
2183 0 80.229 11.8162 948 113.467 1170.12 461.866
2184 0 82.1724 11.5367 948 113.741 1170.35 462.449
2185 0 86.1757 13.0779 1127 110.299 1170.51 462.068
2186 0 88.1453 11.9235 1051 114.366 1170.28 458.062
2187 0 90.1447 12.491 1126 113.504 1170.04 455.201
2188 0 93.1489 13.0007 1211 112.992 1169.73 453.159
2189 0 96.193 13.2234 1272 112.803 1170.26 454.059
2190 0 98.1007 12.9255 1268 114.435 1170.47 451.47
2191 0 100.231 12.8803 1291 115.15 1170.58 450.694
2192 0 103.14 12.9823 1339 116.262 1170.31 449.32
2193 0 105.13 12.5559 1320 114.161 1170.01 445.536
2194 0 109.219 12.159 1328 116.359 1170.71 447.373
2195 0 110.205 12.2498 1350 117.93 1170.64 442.317
2196 0 115.105 12.5538 1445 116.914 1170.46 444.62
2197 0 120.192 12.2471 1472 117.253 1170.49 441.73
2198 1 70.1351 9.75261 684 114.26 1171.57 468.212
2199 0 73.2518 10.9076 799 113.482 1170.76 467.496
2200 0 74.1999 11.3208 840 112.331 1171.17 466.894
2201 0 77.173 11.6362 898 109.586 1170.33 466.157
2202 0 78.1861 11.0889 867 112.625 1169.16 463.902
2203 0 80.1932 11.1356 893 113.94 1169.81 461.897
2204 0 85.2658 12.0916 1031 118.139 1170.08 460.607
2205 0 88.3784 11.6544 1030 118.854 1170.26 459.679
2206 0 88.1775 11.2841 995 121.865 1169.76 456.113
2207 0 93.18 12.6422 1178 118.786 1170.07 454.585
2208 0 95.1936 11.5869 1103 122.025 1170.49 449.907
2209 0 98.2597 12.64 1242 118.131 1169.72 453.801
2210 0 100.189 12.167 1219 120.51 1169.9 450.509
2211 0 105.344 12.6443 1332 118.883 1170.51 450.321
2212 0 108.314 12.6299 1368 121.305 1170.05 446.578
2213 0 110.266 11.2546 1241 127.164 1170.07 444.424
2214 1 59.0618 8.85514 523 119.063 1170.11 472.392
2215 0 61.1318 10.5019 642 114.489 1169.95 464.4
2216 0 62.1074 10.7878 670 119.149 1170.68 469.661
2217 0 65.0699 11.2648 733 117.188 1170.72 467.663
2218 0 65.1928 10.4153 679 120.781 1169.8 468.511
2219 0 71.469 12.6069 901 115.114 1169.39 466.535
2220 0 71.2596 11.409 813 117.871 1169.43 466.708
2221 0 75.1444 12.2298 919 116.242 1169.08 464.047
2222 0 77.1649 12.7001 980 115.845 1170.11 462.959
2223 0 79.1193 11.5016 910 118.821 1169.1 463.201
2224 0 81.1134 11.2312 911 119.968 1169.64 461.2
2225 0 85.1209 12.8053 1090 114.944 1170.31 458.928
2226 0 86.1208 11.0891 955 120.428 1170.71 458.228
2227 0 88.0683 11.4684 1010 119.902 1170.3 456.265
2228 0 91.0622 11.1023 1011 121.448 1170.22 454.468
2229 0 95.046 11.0578 1051 120.317 1169.97 457.807
2230 0 96.0778 12.5419 1205 119.398 1169.9 452.726
2231 0 98.1271 10.6291 1043 124.53 1169.08 455.593
2232 0 101.202 11.7092 1185 124.155 1169.35 452.203
2233 0 103.192 11.9776 1236 124.867 1169.54 450.765
2234 0 107.191 11.82 1267 124.494 1170.03 451.122
2235 0 107.105 11.2879 1209 128.816 1169.78 446.098
2236 0 110.151 10.9668 1208 130.424 1169.86 444.81
2237 0 116.152 12.1995 1417 127.344 1169.89 442.219
2238 0 119.185 12.2583 1461 128.58 1169.9 439.724
2239 0 122.198 11.555 1412 130.2 1170.23 439.479
2240 0 127.155 11.5135 1464 129.281 1169.87 439.229
2241 1 70.0498 10.5496 739 124.25 1169.54 463.931
2242 0 76.0719 11.0553 841 119.195 1169.13 466.076
2243 0 76.0932 9.55408 727 122.788 1170.05 454.175
2244 0 81.0719 11.607 941 116.777 1169.62 455.404
2245 0 81.0719 11.5823 939 132.427 1168.62 455.289
2246 0 85.1199 11.5602 984 117.615 1169.22 455.622
2247 0 88.1215 11.5749 1020 121.189 1168.73 454.365
2248 0 94.1548 11.8103 1112 120.271 1168.7 452.432
2249 0 96.0919 11.4578 1101 123.595 1168.83 450.257
2250 0 98.1286 11.8416 1162 123.643 1169.26 448.168
2251 0 99.0901 10.0918 1000 129.744 1168.92 447.093
2252 0 105.217 11.6997 1231 124.708 1169.43 450.539
2253 0 108.112 12.4501 1346 126.175 1171.05 450.314
2254 0 112.156 12.438 1395 125.796 1171.03 451.069
2255 0 117.172 13.1345 1539 124.194 1170.78 447.481
2256 0 120.243 12.4414 1496 126.416 1170.68 446.096
2257 0 123.142 12.4409 1532 126.418 1170.58 445.375
2258 0 128.206 13.7669 1765 123.188 1170.17 443.978
2259 1 71.0757 10.7772 766 124.285 1170.99 470.795
2260 0 74.0555 11.8695 879 120.151 1171.48 471.845
2261 0 77.1532 11.9503 922 118.549 1170.44 471.914
2262 0 76.1138 11.1806 851 141.066 1169.46 470.57
2263 0 82.0634 12.8803 1057 115.125 1169.63 469.8
2264 0 82.2052 13.15 1081 117.38 1169.92 467.782
2265 0 85.0962 12.1862 1037 120.306 1169.1 468.477
2266 0 85.0962 12.198 1038 146.731 1168.08 468.289
2267 0 91.3155 12.5608 1147 117.965 1168.97 468.889
2268 0 94.2878 14.0421 1324 115.119 1168.27 468.018
2269 0 98.1747 12.4064 1218 119.373 1168.05 465.663
2270 0 99.3185 13.21 1312 117.571 1168.2 466.046
2271 0 103.204 14.3695 1483 115.657 1167.63 465.959
2272 0 106.281 13.3891 1423 118.413 1167.67 461.951
2273 0 108.267 12.8201 1388 120.3 1167.49 460.476
2274 0 113.458 14.2079 1612 116.202 1167.42 460.244
2275 0 115.251 13.605 1568 119.485 1167.42 457.026
2276 0 115.104 12.6842 1460 124.379 1167.37 450.891
2277 0 122.108 13.2997 1624 122.074 1166.74 450.86
2278 0 124.101 13.6501 1694 122.253 1166.75 447.28
2279 0 127.099 13.3125 1692 125.1 1166.21 445.44
2280 0 133.077 11.7225 1560 129.526 1165.87 443.081
2281 0 137.183 12.4068 1702 126.799 1165.67 440.184
2282 0 145.217 13.2836 1929 123.013 1165.64 440.706
2283 0 149.108 12.1254 1808 127.492 1165.03 436.51
2284 1 83.05 9.51234 790 126.325 1165.07 466.168
2285 0 84.1644 11.0379 929 124.724 1163.95 465.691
2286 0 90.2168 12.5254 1130 120.381 1163.96 462.465
2287 0 94.2429 11.2369 1059 123.578 1164.39 461.872
2288 0 97.2398 12.2172 1188 121.988 1164.11 462.675
2289 0 98.2231 11.9524 1174 122.368 1163.64 463.075
2290 0 103.268 12.4724 1288 120.876 1163.94 460.02
2291 0 105.127 12.756 1341 119.349 1164.93 458.94
2292 0 106.195 11.9592 1270 122.53 1164.98 458.547
2293 0 109.158 11.9735 1307 121.862 1163.91 458.148
2294 0 116.201 13.2099 1535 117.638 1164.31 456.074
2295 0 120.256 13.8953 1671 116.086 1164.54 454.007
2296 0 122.125 13.7564 1680 116.993 1164.74 452.793
2297 0 123.174 12.6163 1554 121.736 1164.59 448.687
2298 0 129.209 14.4107 1862 116.8 1163.45 446.483
2299 0 133.277 13.3481 1779 119.595 1163.24 443.798
2300 0 139.318 14.327 1996 116.327 1163.38 443.328
2301 0 142.337 13.7701 1960 117.049 1164.34 436.658
2302 0 147.345 13.5193 1992 118.015 1163.68 432.82
2303 1 79.1856 11.4667 908 117.293 1163.06 472.933
2304 0 80.0972 12.6222 1011 114.476 1162.57 468.962
2305 0 84.1135 12.174 1024 115.699 1163.33 467.929
2306 0 87.066 12.4963 1088 115.905 1162.64 466.275
2307 0 90.1167 13.0719 1178 113.577 1162.05 469.744
2308 0 92.0903 13.2153 1217 114.117 1162.46 468.721
2309 0 95.0605 12.045 1145 116.698 1162.28 467.722
2310 0 97.0847 10.8977 1058 119.028 1162.42 468.742
2311 0 100.126 12.1547 1217 117.149 1161.95 464.126
2312 0 102.224 11.3378 1159 118.788 1162.49 462.811
2313 0 109.156 12.7341 1390 113.263 1162.67 459.804
2314 0 110.117 13.1133 1444 113.003 1163.18 451.78
2315 0 112.07 12.6082 1413 115.74 1163.41 451.129
2316 0 116.177 12.8081 1488 114.987 1163.44 450.138
2317 0 118.171 12.7781 1510 114.536 1163.45 453.228
2318 0 121.116 12.2774 1487 113.86 1163.55 449.632
2319 0 128.212 12.7757 1638 111.529 1163.26 448.454
2320 1 74.0842 12.3643 916 109.825 1162.24 473.227
2321 0 77.0972 12.6204 973 109.076 1162.85 472.064
2322 0 79.0503 13.5736 1073 106.398 1162.77 473.502
2323 0 81.0899 12.8746 1044 109.027 1163.33 471.996
2324 0 85.1081 13.6885 1165 107.397 1162.64 469.292
2325 0 84.0416 10.7804 906 115.085 1163 468.994
2326 0 90.174 13.3963 1208 105.398 1163.29 471.688
2327 0 92.2787 13.5134 1247 105.676 1163.89 468.514
2328 0 92.2041 12.1795 1123 109.804 1163.74 466.703
2329 0 97.4239 11.6193 1132 110.618 1163.61 465.636
2330 0 100.198 13.2138 1324 107.137 1163.8 465.045
2331 0 102.144 13.5887 1388 107.053 1164.11 463.272
2332 0 106.413 12.2917 1308 111.551 1164.01 456.091
2333 0 107.472 12.822 1378 109.411 1164.54 454.303
2334 0 113.392 13.0079 1475 107.82 1164.23 456.725
2335 0 117.436 13.4115 1575 108.696 1164.07 453.319
2336 0 119.4 13.0486 1558 113.478 1164.64 454.447
2337 0 119.46 12.0041 1434 118.81 1164.82 448.318
2338 0 126.447 14.6227 1849 112.07 1164.63 448.206
2339 0 130.447 13.7987 1800 115.529 1164.95 444.128
2340 0 134.432 13.3748 1798 116.263 1165.09 441.387
2341 0 136.394 13.571 1851 118.499 1164.75 436.679
2342 0 142.431 14.1121 2010 116.626 1164.6 436.408
2343 0 146.41 14.6165 2140 116.917 1164.76 433.944
2344 0 150.435 13.6604 2055 119.438 1164.92 433.631
2345 0 154.431 12.7242 1965 122.362 1164.33 430.236
2346 0 159.362 13.9933 2230 118.539 1165.2 428.597
2347 0 165.357 13.9697 2310 119.665 1164.44 422.617
2348 0 170.337 14.6239 2491 117.338 1164.62 423.967
2349 0 174.298 13.7294 2393 120.674 1165.42 422.388
2350 0 181.243 15.1013 2737 116.383 1165.2 418.732
2351 0 181.243 15.1785 2751 156.453 1165.21 418.864
2352 1 193.219 14.362 2775 117.996 1165.61 411.227
2353 0 198.333 13.8555 2748 120.541 1166.1 409.478
2354 0 204.254 15.045 3073 117.606 1166.12 405.708
2355 0 209.277 14.1343 2958 119.214 1166.16 402.151
2356 0 215.208 12.6575 2724 124.011 1166.35 397.025
2357 0 220.205 12.7654 2811 124.362 1166.61 393.908
2358 0 230.144 13.8174 3180 120.227 1167.04 393.34
2359 0 238.139 13.3662 3183 123.307 1167.75 383.48
2360 0 246.331 12.9947 3201 124.406 1166.56 380.033
2361 1 58.1261 9.65143 561 107.604 1167 464.045
2362 0 60.1434 10.2256 615 100.941 1166.38 466.834
2363 0 59.0938 11.3041 668 96.2725 1167.3 462.394
2364 0 61.0991 10.0001 611 98.7774 1168.27 464.268
2365 0 64.173 9.05365 581 100.928 1168.35 463.898
2366 0 65.1265 9.07465 591 102.597 1168.13 461.601
2367 0 66.15 9.40288 622 103.051 1167.75 457.979
2368 0 70.1079 8.82925 619 104.473 1167.33 459.068
2369 0 72.1213 10.7181 773 102.336 1167.17 459.873
2370 0 73.2001 9.57649 701 105.133 1168.06 459.388
2371 0 78.148 10.173 795 104.863 1168.32 457.384
2372 0 80.1583 10.4917 841 105.842 1168.41 457.329
2373 0 84.1472 11.0045 926 104.374 1168.01 457.454
2374 0 85.0983 11.9626 1018 105.201 1168.39 453.638
2375 0 85.1715 10.7313 914 109.553 1167.89 454.245
2376 0 89.1387 13.4285 1197 105.092 1167.8 453.826
2377 0 92.1818 11.4556 1056 110.778 1166.79 450.643
2378 0 97.4226 12.0711 1176 111.714 1167.75 447.462
2379 0 97.2295 12.9693 1261 112.875 1168.76 458.672
2380 0 103.223 14.0956 1455 110.572 1168.2 453.957
2381 0 104.12 14.4353 1503 111.565 1168.71 447.905
2382 0 108.102 13.7925 1491 112.771 1168.02 452.28
2383 0 110.17 13.5518 1493 115.937 1167.31 444.623
2384 0 114.239 13.4367 1535 116.461 1168.2 444.202
2385 1 126.254 19.9123 2514 96.2649 1168.27 433.972
2386 0 132.239 18.9278 2503 97.3148 1168.05 429.048
2387 0 126.287 16.6208 2099 108.297 1168.76 433.283
2388 0 128.275 15.7785 2024 112.248 1168.4 431.716
2389 0 129.147 13.5891 1755 121.528 1168.48 436.728
2390 0 132.172 14.1936 1876 120.253 1168.87 436.278
2391 0 136.296 14.0209 1911 121.521 1168.74 433.808
2392 0 139.287 14.6819 2045 120.803 1168.96 432.079
2393 0 143.24 13.9836 2003 123.734 1168.37 422.895
2394 0 149.255 14.6193 2182 121.512 1168.86 422.795
2395 0 154.325 14.4565 2231 122.527 1168.34 423.752
2396 1 89.1206 10.6036 945 118.953 1169.44 458.824
2397 0 91.1175 11.9626 1090 118.518 1168.79 456.531
2398 0 92.0847 11.6849 1076 120.31 1169.73 455.098
2399 0 95.109 11.6183 1105 120.474 1169.11 453.311
2400 0 94.0391 10.8466 1020 124.997 1169.46 449.371
2401 0 100.078 12.6701 1268 119.521 1169.39 449.709
2402 0 103.093 12.7652 1316 120.162 1169.44 446.346
2403 0 106.092 13.328 1414 118.553 1169.68 446.747
2404 0 108.174 12.3043 1331 122.123 1168.98 445.036
2405 0 111.08 13.3597 1484 119.548 1169.72 442.958
2406 0 114.107 11.1562 1273 126.434 1169.52 437.91
2407 0 119.214 13.2955 1585 120.807 1169.27 438.903
2408 0 122.066 12.5178 1528 122.355 1169.45 435.418
2409 0 125.106 12.2296 1530 122.493 1169.84 436.646
2410 0 127.159 12.04 1531 117.618 1169.56 433.394
2411 0 133.266 12.1787 1623 116.893 1168.86 434.334
2412 0 138.262 12.6933 1755 121.297 1168.23 429.44
2413 0 143.242 13.0408 1868 119.174 1168.55 426.398
2414 0 147.409 11.7089 1726 118.64 1167.51 421.577
2415 1 86.3762 9.70175 838 110.487 1167.66 459.093
2416 0 89.354 9.89323 884 112.218 1168.04 453.926
2417 0 89.4012 9.35111 836 109.397 1167.15 449
2418 0 93.3306 10.2324 955 104.097 1168.74 451.024
2419 0 95.1897 9.27621 883 106.341 1168.72 449.835
2420 0 99.181 9.96158 988 105.098 1169.18 445.231
2421 0 103.156 10.1109 1043 104.813 1168.41 443.921
2422 0 105.185 8.79404 925 106.475 1168.31 445.358
2423 0 109.216 10.905 1191 102.022 1168.9 438.953
2424 0 113.165 10.1445 1148 104.775 1168.26 441.789
2425 0 113.16 9.80028 1109 106.705 1168.13 435.524
2426 0 118.195 10.7195 1267 103.276 1168.8 435.281
2427 0 121.186 10.2735 1245 103.969 1169.15 431.249
2428 0 124.127 9.07938 1127 106.563 1168.65 430.827
2429 0 131.147 10.37 1360 104.326 1167.75 429.577
2430 0 135.296 10.7246 1451 106.633 1167.84 421.469
2431 1 79.2023 8.92651 707 99.1301 1168.49 460.191
2432 0 80.252 7.78797 625 102.747 1168.49 456.611
2433 0 82.1843 8.82163 725 99.6234 1168.08 456.863
2434 0 88.3123 8.5945 759 99.9578 1167.81 455.925
2435 0 86.2164 10.5548 910 98.3484 1167.83 453.465
2436 0 92.2949 9.32879 861 101.131 1168.22 451.468
2437 0 94.1163 11.5495 1087 97.9954 1168.07 453.959
2438 0 97.2248 10.3472 1006 102.162 1168.11 447.695
2439 0 98.2176 9.74367 957 103.91 1168.72 447.827
2440 0 104.32 11.8769 1239 100.462 1168.4 444.437
2441 0 107.282 11.2321 1205 100.662 1169.04 450.329
2442 0 112.312 11.4413 1285 102.605 1169.91 443.529
2443 0 114.277 10.8334 1238 105.394 1170 443.614
2444 0 116.234 11.9845 1393 104.523 1169.95 441.113
2445 0 117.437 10.5162 1235 110.503 1169.73 438.716
2446 0 120.358 11.4325 1376 109.36 1169.61 437.831
2447 0 122.349 10.7561 1316 112.546 1169.74 434.087
2448 0 129.228 12.2497 1583 109.138 1169.65 436.084
2449 0 133.503 12.584 1680 109.37 1169 433.591
2450 0 134.3 14.2219 1910 108.061 1168.99 432.535
2451 0 139.257 13.3709 1862 110.321 1169.09 429.123
2452 0 143.418 14.2241 2040 109.858 1168.24 425.284
2453 0 147.316 13.4134 1976 112.346 1168.72 426.423
2454 0 153.32 14.01 2148 111.4 1168.86 422.841
2455 0 157.4 14.2566 2244 111.934 1169.84 419.324
2456 0 162.504 13.5074 2195 115.483 1168.97 415.595
2457 0 167.283 14.622 2446 113.87 1168.87 414
2458 0 173.256 14.0486 2434 115.966 1169.47 413.322
2459 0 178.32 13.8291 2466 117.37 1169.01 410.645
2460 0 184.251 14.6756 2704 116.808 1168.32 407.948
2461 0 189.456 13.8238 2619 120.269 1168.39 403.09
2462 0 197.267 15.6133 3080 116.615 1169.23 398.632
2463 0 203.446 14.5198 2954 120.472 1169.5 394.493
2464 0 208.355 14.2737 2974 121.618 1168.76 394.535
2465 0 213.35 14.7785 3153 121.44 1168.36 389.866
2466 0 222.339 15.5573 3459 119.791 1169.38 388.354
2467 0 227.396 13.4699 3063 125.584 1168.81 380.731
2468 1 54.0268 11.3647 614 101.656 1170.32 475.715
2469 0 56.0624 8.66891 486 97.677 1170.32 472.278
2470 0 51.0645 8.47947 433 101.395 1169.41 466.06
2471 0 56.0868 9.94887 558 97.8459 1168.36 468.52
2472 0 58.1115 9.37852 545 97.0679 1168.87 464.193
2473 0 61.0967 10.7207 655 100.024 1168.15 473.298
2474 0 62.0299 10.2692 637 101.721 1167.85 472.207
2475 0 64.104 11.5594 741 99.5074 1167.81 470.632
2476 0 67.0753 12.3443 828 97.1679 1168.14 468.97
2477 0 66.0614 11.0655 731 98.6265 1168.59 468.466
2478 0 67.0572 9.03707 606 104.525 1168.56 466.828
2479 0 72.1052 11.0533 797 100.703 1168.77 465.977
2480 0 74.1429 10.5067 779 100.615 1168.45 467.193
2481 0 74.1276 11.035 818 99.9535 1168.46 465.971
2482 0 76.0789 10.9623 834 101.012 1169.08 461.882
2483 0 77.0307 10.6191 818 101.059 1168.96 463.846
2484 0 81.0725 11.2862 915 100.448 1168.58 461.218
2485 0 84.0378 11.3758 956 99.2123 1168.99 459.355
2486 0 86.0807 11.5589 995 98.0502 1168.71 460.339
2487 0 88.0541 10.5503 929 101.295 1168.76 456.355
2488 0 101.128 14.1899 1435 89.0962 1169.04 444.978
2489 0 97.0679 13.7945 1339 94.1762 1169.09 448.302
2490 0 97.1306 10.5013 1020 102.085 1169.8 452.416
2491 0 98.0562 9.87189 968 105.296 1170.53 449.811
2492 0 100.097 9.30094 931 104.981 1170.4 450.572
2493 0 107.067 9.76955 1046 104.416 1170.08 446.38
2494 0 112.162 11.5547 1296 98.7469 1170.17 447.95
2495 1 70.0787 11.2445 788 93.3147 1170.2 468.466
2496 0 71.0922 10.7888 767 95.0613 1170.32 467.687
2497 0 72.187 11.5256 832 92.6574 1169.92 468.27
2498 0 76.1189 12.2571 933 93.7106 1169.91 465.997
2499 0 76.0985 12.2998 936 94.2767 1169.68 463.547
2500 0 79.1405 12.0292 952 95.5599 1169.76 461.2
2501 0 79.08 12.911 1021 94.2086 1169.84 460.495
2502 0 78.1382 11.4285 893 98.2172 1169.67 458.723
2503 0 83.2245 12.1719 1013 96.8756 1169.54 457.605
2504 0 86.1634 12.395 1068 96.206 1169.81 460.358
2505 0 86.0614 11.5848 997 99.2247 1169.49 456.693
2506 0 87.1114 12.8801 1122 97.9385 1169.26 453.931
2507 0 89.1042 12.9287 1152 99.0616 1168.97 454.419
2508 0 90.1195 11.0187 993 103.44 1169.66 453.828
2509 0 94.1569 12.3411 1162 101.948 1169.57 449.577
2510 0 96.1866 11.5193 1108 104.323 1169.32 452.644
2511 0 101.236 12.8808 1304 101.291 1169.53 451.2
2512 0 104.1 13.9961 1457 99.5683 1169.28 448.356
2513 0 106.155 13.1223 1393 102.981 1168.7 447.156
2514 0 107.127 13.0965 1403 104.437 1168.89 445.004
2515 0 111.216 12.6601 1408 106.038 1169.09 445.969
2516 0 114.112 12.8645 1468 106.531 1168.66 443.666
2517 0 119.195 13.3478 1591 106.18 1168.23 442.947
2518 0 122.135 13.5588 1656 107.093 1168.58 441.582
2519 0 126.385 14.3372 1812 105.193 1168.64 440.063
2520 1 72.1481 13.2228 954 103.536 1169.39 465.115
2521 0 73.1293 11.6096 849 105.139 1169.44 464.177
2522 0 75.119 13.046 980 102.351 1169.44 462.236
2523 0 76.1239 12.1381 924 105.74 1170.45 461.156
2524 0 79.1804 13.1977 1045 104.122 1169.84 460.559
2525 0 82.2157 13.1118 1078 104.223 1169.81 459.07
2526 0 85.1057 13.7359 1169 103.481 1170.13 459.447
2527 0 87.0572 14.1057 1228 102.906 1170.25 459.223
2528 0 91.1603 14.3045 1304 102.194 1170.51 457.581
2529 0 92.1206 14.0142 1291 103.47 1170.38 455.62
2530 0 96.105 13.6829 1315 104.427 1170.71 451.639
2531 0 98.1347 14.3171 1405 103.556 1169.97 449.665
2532 0 100.159 13.4386 1346 106.238 1170.34 448.66
2533 0 103.18 14.5571 1502 104.16 1170.98 446.933
2534 0 107.149 13.5233 1449 106.224 1170.26 447.17
2535 0 109.222 14.3378 1566 105.41 1169.69 443.011
2536 0 114.278 15.296 1748 102.797 1170.57 442.915
2537 0 118.21 13.3068 1573 107.965 1170.22 440.912
2538 1 69.1267 12.9038 892 104.596 1170.52 465.316
2539 0 68.2008 12.1553 829 107.8 1170.5 462.363
2540 0 71.2073 12.1898 868 107.927 1170.29 463.222
2541 0 72.1505 12.1136 874 109.475 1169.96 462.357
2542 0 75.2222 12.7356 958 107.651 1170.38 462.19
2543 0 76.1636 11.1602 850 110.428 1170.3 459.949
2544 0 80.3201 12.0518 968 108.046 1170.46 458.704
2545 0 84.1683 13.0928 1102 106.045 1170.61 458.642
2546 0 86.3066 12.3513 1066 108.519 1170.66 456.857
2547 0 89.2691 11.9302 1065 110.255 1170.52 455.956
2548 0 91.321 13.1952 1205 108.004 1170.76 453.499
2549 0 94.1336 12.2486 1153 109.814 1171.05 453.559
2550 0 97.2848 13.4862 1312 108.413 1170.69 450.341
2551 0 100.224 11.9333 1196 111.821 1170.15 448.615
2552 1 59.0766 10.1563 600 104.612 1171.13 469.708
2553 0 60.1707 11.1682 672 106.305 1170.77 469.591
2554 0 64.0395 12.6953 813 101.69 1171.09 467.769
2555 0 64.0581 11.9111 763 101.359 1170.41 465.991
2556 0 66.0973 12.6178 834 100.114 1170.66 464.936
2557 0 66.097 12.6027 833 122.447 1171.67 464.935
2558 0 70.0812 11.4296 801 101.172 1170.19 461.155
2559 0 72.0906 11.8323 853 100.573 1170.59 461.352
2560 0 75.1123 11.9155 895 101.266 1170.77 458.754
2561 0 78.1346 12.1713 951 101.555 1171.35 459.277
2562 0 79.0713 11.4074 902 102.959 1170.84 459.727
2563 0 82.1292 12.5047 1027 101.141 1170.56 459.921
2564 0 86.1994 13.0279 1123 100.297 1170.65 457.204
2565 0 87.1856 12.6856 1106 102.361 1171.18 456.525
2566 0 90.1688 12.8204 1156 103.051 1170.44 454.644
2567 0 92.1314 11.1688 1029 106.871 1170.43 453.772
2568 1 52.0538 10.6236 553 105.027 1170.88 473.58
2569 0 56.1497 11.0241 619 103.042 1170.71 473.624
2570 0 56.0342 11.6536 653 98.5881 1170.96 472.198
2571 0 57.1067 10.7168 612 101.41 1170.44 470.413
2572 0 59.1766 11.6262 688 99.0683 1170.42 466.65
2573 0 60.108 11.7455 706 99.4433 1170.94 468.112
2574 0 63.1268 12.1185 765 98.7621 1170.8 468.431
2575 0 65.1085 12.8247 835 98.7246 1170.7 466.588
2576 0 65.1168 12.2088 795 103.274 1171.23 468.594
2577 0 66.1805 10.7433 711 105.284 1171.27 465.487
2578 0 69.152 12.5954 871 102.566 1170.77 463.952
2579 0 71.0519 11.3579 807 104.243 1170.99 463.887
2580 0 75.0552 11.8047 886 103.4 1170.44 463.245
2581 0 76.1221 12.2829 935 102.765 1170.7 464.448
2582 0 79.0938 11.657 922 102.663 1169.88 453.129
2583 0 79.0934 11.6571 922 120.492 1170.91 453.228
2584 0 82.1121 12.1663 999 103.153 1170.93 452.276
2585 0 86.253 11.5474 996 103.388 1170.44 454.073
2586 0 86.253 11.4779 990 127.106 1169.46 453.957
2587 0 92.1428 11.6558 1074 104.588 1170.74 450.615
2588 0 91.1192 10.6015 966 109.122 1170.74 449.79
2589 0 95.1254 10.8699 1034 109.556 1170.38 447.21
2590 0 99.2392 11.306 1122 109.526 1170.45 446.187
2591 0 102.278 12.1043 1238 109.404 1170.28 444.216
2592 0 102.135 11.3477 1159 112.227 1169.62 443.295
2593 0 108.213 12.2628 1327 112.249 1170.5 443.483
2594 0 110.142 12.6473 1393 112.276 1169.89 441.749
2595 0 111.149 12.1369 1349 113.914 1170.3 443.158
2596 0 115.203 13.6802 1576 111.638 1169.83 439.711
2597 0 120.13 13.9598 1677 111.22 1169.81 440.165
2598 0 122.06 12.6495 1544 115.885 1169.8 437.299
2599 0 124.231 11.8408 1471 118.97 1170.24 434.277
2600 0 132.177 14.9648 1978 112.052 1170.08 435.272
2601 0 135.224 13.2964 1798 119.458 1170.97 427.372
2602 1 76.1738 10.6861 814 114.127 1170.81 460.425
2603 0 79.1893 11.7061 927 110.775 1171.07 458.784
2604 0 82.2424 11.9889 986 109.122 1170.3 460.61
2605 0 84.1657 12.9031 1086 107.471 1170.45 458.272
2606 0 87.0918 12.6533 1102 108.583 1169.97 457.799
2607 0 90.0995 12.0089 1082 109.462 1170.37 455.683
2608 0 93.0555 13.9917 1302 105.521 1170.14 453.949
2609 0 97.1402 13.218 1284 107.185 1170.67 453.166
2610 0 101.122 14.5171 1468 103.788 1170.99 450.567
2611 0 100.086 12.899 1291 108.84 1170.6 446.782
2612 0 105.196 12.9187 1359 108.392 1170.09 446.301
2613 0 107.132 11.3131 1212 112.072 1170.64 446.094
2614 0 112.227 13.2945 1492 108.207 1170.68 442.436
2615 0 115.173 11.9819 1380 111.309 1170.52 441.365
2616 0 119.267 12.5433 1496 111.491 1170.78 437.959
2617 0 124.329 13.0622 1624 110.145 1170.8 433.565
2618 0 129.196 13.8317 1787 108.034 1170.32 433.138
2619 0 131.278 12.5154 1643 112.249 1170.38 430.55
2620 0 135.412 12.9235 1750 110.579 1170.09 430.7
2621 0 140.381 13.2355 1858 109.053 1170.03 430.558
2622 1 79.1872 11.1003 879 107.215 1170.2 456.778
2623 0 82.1548 12.2817 1009 100.479 1170.59 460.141
2624 0 84.1714 12.724 1071 100.518 1170.94 458
2625 0 87.2991 12.0734 1054 101.82 1170.87 458.474
2626 0 89.1703 11.8425 1056 102.107 1170.59 457.485
2627 0 92.1428 11.3519 1046 104.364 1170.84 453.302
2628 0 95.1617 11.3491 1080 104.189 1170.76 454.43
2629 0 98.1948 12.2817 1206 102.977 1170.68 454.426
2630 0 100.285 10.9288 1096 108.189 1170.58 449.578
2631 0 105.222 11.8037 1242 106.728 1170.23 449.023
2632 0 107.166 13.3717 1433 104.867 1169.87 446.421
2633 0 113.216 11.9594 1354 107.298 1169.83 445.244
2634 0 117.287 12.3885 1453 107.434 1169.85 442.775
2635 0 120.296 12.5191 1506 107.361 1169.31 442.478
2636 1 67.1353 10.6799 717 102.105 1170.13 468.98
2637 0 69.2193 9.85275 682 102.578 1169.45 467.097
2638 0 70.2208 12.774 897 98.9777 1168.29 470.883
2639 0 74.1616 11.7716 873 99.7045 1169.3 467.97
2640 0 78.2171 13.4497 1052 97.134 1168.95 465.606
2641 0 80.1475 11.0172 883 102.294 1168.77 464.344
2642 0 83.2118 12.318 1025 98.5746 1169.61 467.14
2643 0 88.1967 12.7216 1122 98.8779 1168.64 463.717
2644 0 88.1134 12.2456 1079 102.475 1168.34 458.46
2645 0 90.1753 13.1633 1187 101.584 1168.82 457.377
2646 0 93.1781 12.2239 1139 103.996 1168.56 455.94
2647 0 96.1911 12.0697 1161 105.164 1168.74 456.109
2648 0 99.1993 13.0646 1296 104.414 1168.6 455.708
2649 0 103.167 13.1147 1353 103.546 1168.91 457.398
2650 0 105.142 11.9553 1257 107.523 1168.56 453.134
2651 0 109.174 14.0052 1529 104.335 1168.73 449.867
2652 0 112.168 12.6864 1423 107.602 1168.81 449.088
2653 0 114.206 12.241 1398 108.197 1167.94 451.401
2654 0 118.177 12.1597 1437 108.929 1168.06 448.02
2655 0 122.162 11.8122 1443 109.875 1168.68 444.768
2656 0 125.182 11.9346 1494 109.849 1167.18 440.111
2657 0 130.206 12.2806 1599 108.06 1167.07 440.959
2658 0 135.15 12.1569 1643 109.281 1167.27 436.83
2659 1 72.0801 10.5577 761 109.424 1167.15 464.995
2660 0 78.1079 11.5609 903 105.632 1168.42 464.914
2661 0 82.1537 13.9495 1146 100.541 1168.13 460.668
2662 0 84.1045 11.9375 1004 105.578 1168.69 462.967
2663 0 86.0979 12.7529 1098 104.695 1169.23 460.402
2664 0 88.1011 12.5424 1105 106.478 1168.71 459.533
2665 0 91.0375 12.9727 1181 106.401 1168.85 456.677
2666 0 94.1221 13.3231 1254 106.462 1168.71 454.469
2667 0 97.0767 12.8764 1250 108.046 1168.4 452.225
2668 0 102.144 13.6964 1399 106.009 1168.37 454.038
2669 0 103.1 12.3764 1276 109.841 1168.13 451.955
2670 0 107.201 13.5353 1451 107.86 1168.74 448.792
2671 0 109.128 14.5517 1588 107.042 1168.39 447.109
2672 0 113.148 12.9741 1468 110.375 1168.21 445.756
2673 0 117.171 12.6482 1482 111.657 1168.73 444.065
2674 0 121.173 13.65 1654 109.485 1168.23 441.336
2675 0 126.165 13.6171 1718 110.189 1168.23 440.43
2676 1 70.1468 10.9342 767 109.009 1168.61 467.048
2677 0 69.2301 10.8912 754 112.09 1168.54 465.365
2678 0 74.1598 13.0394 967 108.384 1168.42 459.641
2679 0 77.1397 13.2357 1021 108.804 1168.86 460.227
2680 0 77.1259 12.2786 947 113.191 1168.97 458.003
2681 0 80.1176 13.2181 1059 111.922 1168.8 456.511
2682 0 84.18 13.6137 1146 112.078 1168.55 454.169
2683 0 85.1441 12.0854 1029 116.665 1168.76 453.465
2684 0 89.1442 14.1568 1262 112.132 1169.11 451.963
2685 0 94.2469 14.8122 1396 110.592 1168.43 451.528
2686 0 94.0906 13.3488 1256 116.365 1168.71 449.16
2687 0 95.1342 13.8856 1321 115.365 1168.35 456.456
2688 0 98.2356 13.6814 1344 116.493 1168.51 455.472
2689 0 102.198 13.4347 1373 115.454 1168.68 453.267
2690 0 103.18 13.365 1379 117.736 1168.51 448.829
2691 0 107.331 14.022 1505 116.7 1168.3 449.47
2692 0 110.271 12.7504 1406 121.083 1168.88 448.264
2693 0 114.269 13.5644 1550 119.846 1168.57 444.41
2694 0 116.252 13.2041 1535 122.844 1168.87 443.756
2695 0 121.257 13.525 1640 121.685 1168.27 443.34
2696 0 123.26 13.6946 1688 122.855 1168.39 438.729
2697 0 128.235 13.218 1695 123.596 1169.02 437.312
2698 0 134.214 12.8824 1729 124.955 1168.77 433.294
2699 0 136.263 13.0263 1775 125.702 1169.04 431.001
2700 0 143.281 13.4491 1927 124.551 1169.02 429.806
2701 1 82.1721 11.123 914 120.391 1169.08 459.918
2702 0 84.077 11.5965 975 121.727 1168.6 456.216
2703 0 88.0795 12.7953 1127 117.18 1167.44 456.619
2704 0 90.0838 14.1535 1275 114.502 1166.83 454.96
2705 0 93.1038 13.2218 1231 116.829 1167.04 454.755
2706 0 96.133 14.4487 1389 113.718 1166.91 453.601
2707 0 99.0865 13.4428 1332 116.287 1167.11 452.163
2708 0 103.204 13.8948 1434 115.385 1166.72 450.384
2709 0 104.125 13.3494 1390 118.737 1166.86 445.81
2710 0 108.198 13.6602 1478 117.704 1166.84 445.135
2711 0 110.256 14.3122 1578 116.94 1167.35 443.431
2712 0 114.116 13.828 1578 118.361 1167.11 442.466
2713 0 116.119 14.6487 1701 117.096 1167.02 441.462
2714 0 120.324 13.5633 1632 120.468 1166.71 439.157
2715 0 122.16 13.6542 1668 120.788 1166.86 435.625
2716 0 126.206 13.4938 1703 121.353 1167.28 435.665
2717 0 132.244 13.8759 1835 119.975 1167.57 432.889
2718 0 136.218 13.8969 1893 120.132 1167.35 430.969
2719 0 139.212 12.9371 1801 122.791 1167.5 428.969
2720 0 145.264 14.1053 2049 119.476 1167.43 427.107
2721 0 148.205 13.3127 1973 121.095 1167.55 426.375
2722 0 153.344 13.4338 2060 119.935 1167.49 425.912
2723 0 159.292 14.9411 2380 116.599 1167.99 419.498
2724 0 164.387 13.8576 2278 119.752 1168.1 416.693
2725 0 167.344 13.039 2182 121.978 1168.07 413.372
2726 0 173.304 13.7562 2384 120.716 1167.95 409.564
2727 0 179.36 12.4219 2228 121.611 1167.94 407.151
2728 1 106.26 10.7473 1142 116.989 1167.95 441.664
2729 0 109.345 11.2763 1233 114.965 1167.88 445.022
2730 0 111.268 12.8968 1435 113.757 1168.86 440.042
2731 0 115.201 12.6127 1453 114.515 1169.3 438.751
2732 0 116.368 11.8761 1382 117.64 1168.46 432.442
2733 0 120.289 13.426 1615 113.84 1168.69 434.141
2734 0 124.302 13.081 1626 114.404 1168.71 434.192
2735 0 125.434 12.3252 1546 117.186 1168.39 428.406
2736 0 129.552 11.671 1512 117.946 1168.52 426.801
2737 0 136.383 14.1073 1924 110.769 1168.4 425.213
2738 0 143.393 11.9602 1715 115.917 1168.77 425.541
2739 0 146.417 13.844 2027 112.205 1168.81 422.049
2740 0 150.622 13.6102 2050 112.646 1168.65 423.182
2741 0 153.407 13.4935 2070 114.93 1168.64 415.583
2742 0 159.46 13.8655 2211 114.11 1168.3 418.257
2743 0 163.562 12.723 2081 116.562 1168.45 416.474
2744 0 168.527 12.4906 2105 119.267 1168.69 414.016
2745 1 9.00404 5.66412 51 89.7255 1171.39 492.863
2746 0 13.0049 4.45987 58 87.8966 1171.4 493.448
2747 0 13.0012 4.53806 59 89.0678 1171 494.068
2748 0 12.0096 6.07846 73 86.0959 1171.56 495.329
2749 0 13.0132 4.45703 58 87.569 1171.1 495.155
2750 0 14.0052 6.21199 87 84.092 1171.2 495.46
2751 0 16.0051 7.12275 114 84.9737 1171.81 493.789
2752 0 15.0031 4.93231 74 91.527 1172.99 492.973
2753 0 16.0005 7.06227 113 89 1172.07 492.442
2754 0 16.0064 5.68524 91 90.6044 1172.69 493.308
2755 0 15.0015 5.39944 81 89.0123 1172.49 494.914
2756 0 11.0003 3.18174 35 88.5143 1172.83 496.114
2757 0 12.0116 5.74446 69 87.5797 1172.45 494.203
2758 0 17.0034 3.29346 56 90.4107 1172.48 494.982
2759 1 270.575 12.6545 3424 118.642 1169.28 351.368
2760 1 69.2312 10.4722 725 92.5793 1169.23 467.679
2761 0 70.3124 11.264 792 94.1907 1169.58 466.915
2762 0 69.0824 9.90123 684 95.5746 1169.97 467.854
2763 0 76.3543 11.8657 906 96.7075 1169.34 466.432
2764 0 76.2197 10.3254 787 100.493 1169.03 466.243
2765 0 80.1285 9.85916 790 100.711 1169.42 464.537
2766 0 83.1816 11.2405 935 99.2973 1169.16 461.537
2767 0 85.2973 11.7471 1002 97.9262 1168.95 463.486
2768 0 86.1476 10.2847 886 100.815 1169.51 463.158
2769 0 87.2211 9.8944 863 102.664 1169.25 459.366
2770 0 89.2875 10.1134 903 103.436 1169.91 454.569
2771 0 93.3281 10.2756 959 103.406 1169.68 451.917
2772 0 98.4018 10.2742 1011 102.024 1169.41 455.5
2773 1 55.0934 10.3461 570 94.6579 1170.54 476.867
2774 0 58.029 10.4086 604 94.755 1171.2 476.52
2775 0 57.0634 9.21782 526 97.8346 1171.06 473.011
2776 0 59.2315 10.383 615 100.948 1170.36 473.096
2777 0 61.1542 10.2364 626 101.361 1170.31 472.645
2778 0 63.2341 9.86809 624 102.595 1170.17 471.854
2779 0 65.3134 11.4984 751 97.2676 1169.43 469.454
2780 0 67.2496 11.3161 761 100.02 1170.09 471.089
2781 1 78.3078 15.107 1183 85.1192 1168.77 462.708
2782 0 78.2296 14.9304 1168 87.0206 1168.88 461.963
2783 0 74.2846 14.7675 1097 92.3054 1169.07 463.992
2784 0 72.1627 11.6126 838 102.626 1168.84 466.359
2785 1 84.2562 16.3074 1374 87.0349 1168.32 459.87
2786 0 85.1888 16.7041 1423 87.9606 1168.54 458.588
2787 0 85.2399 16.26 1386 90.8687 1168.85 457.398
2788 0 85.2322 16.942 1444 92.1932 1168.58 458.528
2789 0 84.2252 12.2529 1032 105.192 1168.86 458.707
2790 0 85.155 12.3892 1055 106.067 1169.46 458.858
2791 0 86.1653 12.7662 1100 106.389 1169.05 459.645
2792 0 90.2654 12.5851 1136 107.512 1168.97 457.847
2793 0 93.3308 13.0075 1214 107.084 1168.72 457.82
2794 0 94.2824 13.2368 1248 108.216 1169.04 454.692
2795 0 98.2245 13.8967 1365 107.788 1168.7 453.719
2796 0 99.3335 13.8725 1378 109.476 1169.05 453.507
2797 0 103.392 14.2564 1474 110.134 1168.97 449.284
2798 0 104.379 13.2115 1379 112.986 1169.1 449.458
2799 0 106.23 12.9342 1374 114.511 1168.69 448.535
2800 0 112.303 14.1048 1584 111.505 1169.53 446.528
2801 0 115.437 13.5485 1564 114.047 1169.47 445.504
2802 0 118.284 13.8903 1643 113.935 1169.01 445.696
2803 0 121.171 13.9802 1694 114.71 1168.12 444.08
2804 0 126.223 12.8661 1624 118.146 1168.53 441.267
2805 0 128.248 12.2185 1567 119.742 1168.44 442.529
2806 0 133.518 13.5862 1814 117.954 1168.65 438.239
2807 0 134.231 13.4395 1804 119.343 1169.2 434.086
2808 0 140.186 13.532 1897 118.383 1168.71 434.927
2809 0 144.22 14.2629 2057 118.577 1169.03 426.256
2810 1 82.0781 12.9633 1064 112.201 1169.07 460.768
2811 0 85.2491 11.8007 1006 113.452 1168.71 462.822
2812 0 86.1303 13.0384 1123 112.386 1168.8 458.673
2813 0 89.2183 12.3181 1099 112.581 1168.95 457.752
2814 0 91.078 12.7583 1162 112.032 1168.58 456.451
2815 0 94.11 12.2304 1151 112.666 1168.77 455.485
2816 0 98.1672 12.7538 1252 112.292 1168.97 452.297
2817 0 102.135 14.1381 1444 109.26 1168.32 452.69
2818 0 102.138 13.3544 1364 111.79 1168.76 450.219
2819 0 106.199 12.8909 1369 114.292 1168.53 452.61
2820 0 109.209 12.563 1372 114.926 1168.68 449.061
2821 0 113.314 13.0257 1476 113.374 1168.5 448.686
2822 0 118.212 14.5079 1715 110.483 1168.52 443.752
2823 0 122.161 12.5162 1529 114.606 1168.27 442.87
2824 0 125.242 13.3741 1675 113.181 1168.05 439.786
2825 0 128.136 14.9918 1921 110.718 1167.46 435.243
2826 0 132.323 14.9256 1975 111.359 1168.16 435.006
2827 0 136.365 12.6792 1729 115.729 1168.14 433.282
2828 0 142.415 13.4888 1921 113.6 1168.37 431.014
2829 0 144.568 13.7859 1993 115.276 1167.93 427.977
2830 0 148.283 12.5571 1862 118.502 1167.87 427.054
2831 0 154.319 13.1351 2027 117.308 1168.28 426.572
2832 0 160.398 14.0837 2259 116.272 1167.98 422.5
2833 0 166.462 14.0632 2341 117.989 1167.58 422.383
2834 0 170.383 13.1938 2248 121.653 1168.25 416.201
2835 1 94.2436 11.5127 1085 117.149 1168.79 455.661
2836 0 97.2159 12.7448 1239 115.497 1168.32 454.789
2837 0 96.2933 13.0123 1253 120.289 1168.03 448.342
2838 0 103.425 14.3292 1482 116.353 1168.89 448.745
2839 0 106.262 14.0784 1496 118.624 1168.33 446.037
2840 0 109.24 13.2461 1447 119.237 1167.95 442.997
2841 0 112.241 13.3017 1493 120.548 1168.5 439.11
2842 0 115.322 13.484 1555 119.276 1168.67 441.729
2843 0 118.362 13.7714 1630 120.152 1168.46 440.066
2844 0 124.164 13.9091 1727 120.29 1168.51 437.579
2845 0 127.155 12.6696 1611 123.59 1168.05 432.577
2846 0 130.313 13.6133 1774 121.685 1168.25 432.969
2847 0 136.211 13.2295 1802 122.501 1167.58 429.902
2848 0 140.17 12.7916 1793 124.416 1167.26 425.219
2849 0 146.094 13.546 1979 122.471 1167.61 426.5
2850 0 151.242 14.5661 2203 120.636 1168.15 423.12
2851 0 153.197 13.7535 2107 124.421 1167.42 418.48
2852 0 160.211 14.8179 2374 121.118 1167.16 420.671
2853 0 163.281 14.423 2355 122.16 1167.63 418.2
2854 0 171.263 15.3449 2628 121.048 1168.05 411.67
2855 0 171.27 13.2072 2262 128.625 1167.52 407.325
2856 0 179.347 13.7666 2469 127.033 1167.59 405.969
2857 0 186.389 14.6307 2727 126.184 1167.85 403.302
2858 0 191.291 14.6687 2806 126.205 1167.55 403.068
2859 0 200.556 14.5047 2909 126.974 1167.48 399.227
2860 0 204.442 14.9676 3060 126.33 1167.57 396.048
2861 0 211.298 14.851 3138 127.739 1167.02 388.195
2862 0 217.44 13.4336 2921 130.983 1167.48 387.761
2863 0 226.318 14.5724 3298 127.764 1167.24 383.145
2864 0 234.664 14.182 3328 128.919 1166.91 384.708
2865 0 244.486 14.5325 3553 128.036 1166.77 376.945
2866 0 252.459 14.9212 3767 126.413 1166.51 375.209
2867 0 262.559 15.2956 4016 125.797 1167.07 368.139
2868 0 269.325 15.045 4052 127.504 1167.15 363.66
2869 0 269.436 12.4482 3354 132.615 1167.8 374.529
2870 0 271.541 11.2653 3059 134.176 1167.39 378.248
2871 0 269.481 9.86713 2659 135.177 1167.15 389.947
2872 1 247.544 14.2924 3538 128.138 1167.27 381.604
2873 0 257.502 14.8193 3816 127.343 1167.06 373.558
2874 0 264.507 13.3909 3542 131.406 1167.45 370.124
2875 0 276.362 15.3096 4231 126.638 1167.22 362.92
2876 1 72.3185 12.3896 896 115.515 1168.84 462.169
2877 0 75.2349 11.3378 853 118.682 1168.4 462.05
2878 0 78.277 13.2861 1040 119.065 1167.58 456.076
2879 0 79.2147 12.2073 967 123.824 1168.03 454.7
2880 0 83.3428 12.5026 1042 122.689 1168.28 454.213
2881 0 87.2842 12.2244 1067 123.121 1167.82 454.126
2882 0 88.3572 11.6912 1033 126.434 1168.44 450.893
2883 0 87.3564 11.3329 990 129.353 1168.26 448.28
2884 0 90.302 12.425 1122 126.008 1168.11 448.872
2885 0 95.2736 13.4875 1285 122.391 1168.02 449.382
2886 0 98.3834 13.0307 1282 123.766 1168.42 448.975
2887 0 100.285 12.5941 1263 126.18 1168.2 446.423
2888 0 103.263 12.7539 1317 125.834 1168.47 445.049
2889 0 106.279 12.5895 1338 128.172 1168.2 442.256
2890 0 109.305 12.5977 1377 127.678 1168.31 442.294
2891 0 114.331 14.2219 1626 123.262 1168.45 441.046
2892 0 117.245 14.491 1699 123.506 1168.32 437.448
2893 0 120.279 13.8678 1668 125.037 1168.15 437.028
2894 0 123.215 13.9026 1713 126.033 1168.44 433.228
2895 0 127.341 14.2923 1820 124.977 1168.28 433.336
2896 0 126.412 13.2741 1678 130.408 1168.22 427.299
2897 0 133.374 13.9307 1858 127.095 1168.3 431.31
2898 0 137.418 13.9574 1918 129.264 1167.79 424.612
2899 0 141.363 13.0515 1845 132.884 1168.11 422.63
2900 0 146.257 13.9686 2043 130.124 1168.57 422.144
2901 0 150.441 15.1289 2276 128.27 1168.37 419.588
2902 0 155.368 15.0095 2332 129.293 1168.09 416.751
2903 0 159.461 14.0661 2243 130.772 1168.74 414.408
2904 0 163.454 14.9522 2444 129.355 1167.94 410.562
2905 0 169.298 15.0622 2550 129.879 1167.57 407.87
2906 0 175.396 14.664 2572 132.025 1167.46 402.348
2907 0 179.258 15.2239 2729 131.118 1167.3 400.516
2908 0 187.233 14.1428 2648 134.146 1167.49 398.613
2909 0 192.347 15.4097 2964 130.769 1167.65 395.163
2910 1 113.161 10.0211 1134 136.588 1167.5 432.119
2911 0 116.097 11.7918 1369 132.633 1167.75 430.178
2912 0 119.323 12.2608 1463 132.003 1167.5 427.931
2913 0 121.334 10.7143 1300 138.033 1167.11 419.995
2914 0 129.194 10.6119 1371 135.902 1167.43 423.327
2915 0 133.139 12.3781 1648 130.492 1167.01 422.282
2916 0 135.204 12.4848 1688 131.326 1167.83 417.848
2917 0 140.081 12.3857 1735 132.076 1167.77 413.821
2918 0 141.221 13.44 1898 129.574 1167.54 414.587
2919 0 152.262 11.605 1767 133.123 1167.38 408.988
2920 0 154.222 11.879 1832 134.046 1168.25 406.109
2921 0 161.217 12.4304 2004 132.601 1167.44 400.595
2922 0 167.37 14.0228 2347 127.618 1168.1 398.229
2923 1 111.201 7.01434 780 120.149 1167.97 435.654
2924 0 110.264 8.77896 968 117.545 1168.38 429.949
2925 0 116.306 9.24284 1075 115.868 1167.65 432.154
2926 0 121.61 8.19015 996 119.587 1167.18 428.807
2927 0 122.551 9.4002 1152 123.148 1167.75 418.693
2928 0 125.259 10.7378 1345 118.283 1166.73 425.379
2929 0 132.306 10.9972 1455 116.361 1167.11 425.337
2930 1 27.0918 4.57703 124 93.3548 1166.18 477.871
2931 0 21.0611 4.89053 103 92.4369 1166.04 476.544
2932 0 24.1592 5.00845 121 92.0661 1166.26 478.62
2933 0 16.0356 5.9243 95 90.2947 1166.31 478.695
2934 0 19.0339 2.41674 46 94.3044 1165.72 477.065
2935 0 26.1825 5.34708 140 90.85 1166.41 476.514
2936 0 26.1493 4.742 124 90.2097 1166.72 476.774
2937 0 22.0126 1.09029 24 97.375 1165.92 473.667
2938 0 24.108 1.57624 38 96.5526 1166.68 474.447
2939 0 26.0878 6.32478 165 87.7758 1167.11 475.879
2940 0 21.0579 3.08673 65 91.4462 1166.69 474.446
2941 0 24.0571 5.11284 123 90.4309 1166.34 472.48
2942 0 24.0535 3.45064 83 91.6506 1166.16 471.253
2943 0 20.0566 3.68956 74 92.5 1165.74 469.838
2944 0 22.0767 2.35542 52 91.5962 1166.37 473.712
2945 0 24.1805 2.39863 58 91.3103 1166.69 470.879
2946 0 22.0287 3.17767 70 90.3286 1166.34 470.229
2947 0 19.028 2.20727 42 91.6429 1166.79 469.381
2948 1 0 0 0 -nan -nan -nan
2949 1 15.0129 2.19811 33 91.5758 1166.88 469.606
2950 0 23.1614 4.3607 101 86.2475 1167.48 471.05
2951 0 25.1964 3.17506 80 86.3375 1167.36 470.962
2952 0 23.0891 1.34263 31 85.6774 1168.68 479.452
2953 0 19.0597 3.04306 58 89.4828 1168.12 472.5
2954 0 17.0136 1.41063 24 90.4583 1168.33 473.833
2955 0 22.0716 5.39155 119 82.5462 1168.81 477.303
2956 0 24.0373 1.87209 45 87.4444 1168.16 475
2957 0 21.0841 3.08289 65 83.8 1169.55 478.062
2958 0 25.0285 5.83334 146 81.0206 1169.45 479.212
2959 0 27.0256 5.51329 149 81.1745 1168.81 481.376
2960 0 26.0407 4.30097 112 84.6161 1168.03 484.464
2961 0 28.1393 7.42734 209 79.8517 1170.66 482.995
2962 0 26.0183 6.87979 179 84.676 1166.5 484.883
2963 0 26.0223 6.76342 176 93.7841 1165.47 485.023
2964 0 21.0414 4.32481 91 91.2528 1167.8 489.538
2965 0 27.0478 3.95595 107 92.8878 1167.74 487.047
2966 1 143.376 9.93191 1424 110.457 1167.96 425.657
2967 0 147.342 10.3908 1531 110.344 1168.68 424.786
2968 0 151.326 10.1106 1530 112.358 1168.24 418.7
2969 0 154.372 11.6472 1798 109.56 1167.09 419.95
2970 0 158.39 10.7898 1709 113.354 1166.72 416.275
2971 0 159.387 10.7725 1717 113.319 1167.24 413.022
2972 0 157.493 9.37186 1476 116.098 1167.26 420.515
2973 1 169.298 10.8389 1835 114.777 1166.73 409.094
2974 0 174.541 10.2669 1792 116.273 1166.7 412.762
2975 0 178.554 10.9715 1959 115.216 1166.7 412.382
2976 0 180.469 10.0904 1821 117.401 1166.63 413.477
2977 0 186.383 11.6159 2165 115.845 1166.56 406.554
2978 0 191.557 10.6809 2046 117.918 1166.86 406.402
2979 0 196.464 11.3049 2221 117.662 1166.58 401.401
2980 0 203.681 12.0728 2459 114.756 1166.9 404.82
2981 0 208.598 12.5121 2610 115.956 1166.99 398.94
2982 0 217.483 13.0493 2838 114.493 1167.01 398.721
2983 0 220.686 11.2015 2472 120.561 1166.9 395.21
2984 1 175.517 10.9163 1916 118.645 1167.18 418.087
2985 0 181.501 12.4297 2256 115.631 1167.43 411.841
2986 0 182.374 11.2187 2046 119.942 1167.43 409.088
2987 0 189.47 12.3397 2338 117.117 1167.15 407.904
2988 0 192.655 12.5354 2415 117.224 1166.67 407.335
2989 0 197.515 13.0421 2576 116.678 1166.93 401.748
2990 0 203.428 15.0176 3055 111.964 1166.76 403.45
2991 0 206.443 13.5437 2796 115.89 1166.56 401.325
2992 0 211.634 13.3532 2826 117.506 1166.62 393.477
2993 0 214.532 12.6135 2706 121.128 1166.68 388.511
2994 0 222.555 12.8912 2869 119.563 1166.22 394.407
2995 0 225.432 12.9618 2922 121.878 1166.01 386.748
2996 0 234.461 14.1175 3310 118.36 1166.83 384.707
2997 0 238.537 12.4467 2969 123.836 1167.03 381.009
2998 0 244.591 13.3365 3262 122.447 1166.68 374.799
2999 0 251.629 15.1175 3804 118.313 1166.56 370.423
3000 0 257.677 14.2892 3682 120.603 1166.48 369.32
3001 0 263.613 14.1837 3739 120.336 1166.72 367.69
3002 0 269.73 13.3541 3602 124.103 1166.46 363.586
3003 0 277.577 14.3023 3970 121.33 1166.6 362.441
3004 0 283.713 14.1552 4016 121.209 1166.89 361.848
3005 0 291.597 13.6147 3970 123.538 1166.92 350.182
3006 0 300.547 14.1043 4239 121.992 1166.52 346.845
3007 0 308.639 12.7495 3935 125.53 1166.12 344.424
3008 0 320.562 16.078 5154 116.547 1166.53 324.674
3009 1 248.687 11.6975 2909 126.41 1166.44 371.825
3010 0 257.861 13.2164 3408 122.727 1166.39 367.58
3011 0 264.445 13.084 3460 122.971 1167.23 368.521
3012 0 272.821 14.2035 3875 120.176 1166.79 363.366
3013 0 275.6 13.6611 3765 124.195 1166.37 350.675
3014 0 287.742 16.8693 4854 114.713 1166.7 351.144
3015 0 293.799 16.382 4813 116.848 1166.23 341.4
3016 0 298.861 15.5022 4633 120.791 1166.29 335.384
3017 0 310.798 18.8096 5846 111.004 1166.36 340.09
3018 0 317.786 16.9265 5379 115.733 1166.73 335.793
3019 0 326.848 17.8462 5833 114.43 1166.99 326.977
3020 0 334.686 15.5997 5221 120.978 1166.35 320.405
3021 0 347.857 16.7914 5841 118.608 1165.85 314.938
3022 0 357.138 15.2238 5437 122.797 1166.76 304.429
3023 0 367.72 16.4663 6055 119.32 1166.49 304.623
3024 0 381.043 17.0322 6490 117.066 1166.98 296.364
3025 1 286.793 12.4968 3584 126.364 1166.25 351.183
3026 0 295.514 13.1161 3876 126.322 1166.23 337.132
3027 0 305.475 13.6149 4159 124.943 1166.48 334.071
3028 0 312.44 15.3373 4792 119.444 1167.37 330.836
3029 0 322.394 16.7156 5389 115.755 1166.78 321.286
3030 0 331.372 16.5614 5488 116.684 1166.71 320.868
3031 0 341.76 17.4216 5954 114.865 1167.11 313.599
3032 0 351.64 16.4458 5783 117.301 1167.43 306.548
3033 0 359.926 15.4393 5557 120.685 1167.31 303.981
3034 0 372.16 16.0495 5973 118.56 1166.59 305.21
3035 0 383.216 16.0719 6159 118.648 1166.73 291.618
3036 1 298.654 14.4883 4327 117.868 1167.06 334.197
3037 0 306.091 16.1324 4938 113.541 1166.56 333.382
3038 0 314.945 16.441 5178 113.434 1166.94 326.009
3039 0 323.151 15.5747 5033 116.656 1167.06 317.498
3040 0 333.92 16.2763 5435 115.825 1166.66 318.398
3041 0 343.027 15.4477 5299 119.243 1166.98 304.77
3042 0 353.107 15.5279 5483 119.115 1166.54 302.014
3043 0 366.227 15.7443 5766 118.083 1167.41 292.528
