time division length width area intensity CMx CMy
0 0 51.039 13.9305 711 143.546 1187.71 479.162
1 0 54.0917 14.9746 810 139.254 1188.69 478.146
2 0 56.0904 15.0293 843 137.671 1188.5 477.034
3 0 57.0682 14.544 830 139.549 1188.04 476.918
4 0 58.0296 15.0441 873 138.165 1188.59 475.879
5 0 60.0497 15.3206 920 138.422 1189.28 472.372
6 0 61.0385 15.0397 918 138.873 1188.62 470.941
7 0 61.0761 14.7685 902 141.088 1188.44 471.04
8 0 65.0952 14.8398 966 139.807 1188.73 469.47
9 0 66.0621 15.001 991 138.516 1187.96 470.933
10 0 69.0319 14.5295 1003 140.535 1188.43 468.704
11 0 71.0629 14.8038 1052 138.728 1188.43 467.582
12 0 74.1634 14.0231 1040 139.553 1188.55 468.36
13 0 76.0726 14.3679 1093 136.929 1188.82 468.962
14 0 77.0477 13.8615 1068 137.348 1187.5 471.659
15 0 82.0413 13.4932 1107 135.847 1187.65 471.304
16 0 83.1451 13.3141 1107 137.506 1188.08 469.172
17 1 46.1024 14.0557 648 132.369 1188.22 486.773
18 0 45.1142 14.1419 638 131.832 1186.83 487.445
19 0 45.1117 13.3225 601 135.248 1187.35 486.403
20 0 48.1506 13.4162 646 133.319 1186.88 486.604
21 0 50.0766 14.0984 706 132.984 1187.34 483.789
22 0 51.0808 13.9191 711 131.249 1186.41 485.73
23 0 52.0586 13.2927 692 134.626 1186.13 485.922
24 0 52.07 14.0004 729 131.325 1185.94 484.609
25 0 56.099 13.6722 767 129.017 1186.17 484.366
26 0 58.1399 14.1039 820 127.813 1186.1 483.42
27 0 60.1025 13.6101 818 130.727 1186.16 482.326
28 0 60.0621 14.3851 864 129.185 1186.16 483.198
29 0 62.0977 14.1229 877 131.287 1185.87 481.488
30 0 64.0612 13.7369 880 134.782 1185.78 480.656
31 0 69.0675 14.3338 990 130.184 1186.25 479.844
32 0 70.0847 14.8392 1040 129.669 1185.66 477.67
33 0 73.1367 14.6985 1075 129.013 1185.49 478.846
34 0 76.0528 13.9903 1064 131.486 1185.79 477.189
35 0 77.0792 14.6732 1131 131.117 1185.42 474.788
36 0 82.0825 14.9727 1229 129.745 1185.58 473.438
37 0 85.1437 15.0451 1281 127.671 1185.33 475.364
38 0 88.067 14.841 1307 129.454 1184.88 471.86
39 0 92.1187 16.3051 1502 123.65 1184.76 470.036
40 0 93.092 14.5125 1351 130.002 1185.23 468.443
41 1 48.0293 12.7839 614 136.138 1184.79 489.042
42 0 50.1146 13.3694 670 132.136 1185 487.224
43 0 51.0355 14.5585 743 129.592 1185.49 487.148
44 0 51.0335 13.7753 703 130.514 1184.59 487.504
45 0 55.0253 12.7214 700 131.181 1185.11 486.644
46 0 59.0292 13.6882 808 126.842 1184.55 485.153
47 0 59.0446 12.77 754 128.775 1184.37 485.873
48 0 60.0126 13.2972 798 129.173 1184.76 483.668
49 0 65.0683 13.1708 857 126.861 1185.47 482.655
50 0 67.0383 13.8578 929 125.545 1184.57 481.013
51 0 69.0798 13.2021 912 126.285 1185.09 479.725
52 0 74.1646 14.1982 1053 121.33 1184.38 478.893
53 0 76.0866 14.4703 1101 120.866 1184.87 478.257
54 0 79.1056 13.7538 1088 122.325 1184.91 477.866
55 0 80.0343 13.2818 1063 124.043 1184.33 474.932
56 0 84.1 13.6861 1151 121.568 1184.1 475.659
57 0 87.1403 13.9889 1219 120.111 1184.21 474.217
58 0 91.081 13.8997 1266 120.28 1183.81 471.796
59 0 93.1218 13.3803 1246 123.388 1183.67 469.409
60 0 99.2083 14.0613 1395 120.452 1184.29 466.755
61 0 101.175 14.7862 1496 118.879 1183.96 465.39
62 1 52.0592 12.0248 626 126.54 1183.2 487.935
63 0 54.1224 12.3609 669 126.115 1183.85 486.516
64 0 57.0465 13.3926 764 120.87 1183.3 485.556
65 0 60.032 13.676 821 122.734 1184.33 485.714
66 0 63.0476 14.1005 889 121.279 1184.11 485.021
67 0 64.0585 13.6282 873 123.895 1184.62 483.096
68 0 65.069 13.2014 859 125.659 1184.45 482.204
69 0 68.0749 13.6761 931 123.664 1184.6 481.55
70 0 71.09 12.871 915 125.555 1183.92 480.513
71 0 73.0636 12.6328 923 127.1 1184.73 480.351
72 0 76.0558 12.3856 942 129.102 1184.96 476.938
73 0 79.0823 13.5049 1068 124.771 1184.17 477.675
74 0 82.043 13.7733 1130 125.227 1183.94 473.721
75 0 86.0354 13.5061 1162 124.551 1184.64 472.903
76 0 88.2086 15.1686 1338 120.762 1184.5 473.304
77 0 91.0534 13.5305 1232 125.287 1184.69 470.042
78 0 95.0844 13.8193 1314 122.621 1184.64 471.132
79 0 98.0644 13.3076 1305 123.935 1183.81 466.738
80 1 52.1149 11.3787 593 121.513 1183.24 491.204
81 0 53.0183 12.7692 677 117.38 1184.43 489.281
82 0 54.0765 12.7782 691 112.323 1184.16 489.849
83 0 57.0309 13.6943 781 112.046 1184.53 486.864
84 0 59.0219 12.5886 743 114.458 1184.71 487.18
85 0 60.048 13.4559 808 112.72 1184.39 485.042
86 0 63.0452 13.2127 833 113.091 1183.77 485.212
87 0 64.0463 14.3334 918 112.415 1184.03 485.156
88 0 64.0232 12.2924 787 118.389 1184.07 484.093
89 0 68.0265 12.6274 859 116.985 1184.08 483.7
90 0 71.0341 13.3739 950 115.287 1182.63 482.666
91 0 72.0833 13.5399 976 115.03 1182.8 482.027
92 0 75.0504 13.0579 980 116.889 1183.07 478.541
93 0 77.0805 13.7908 1063 115.38 1182.98 477.806
94 0 80.0731 13.0756 1047 116.397 1182.8 476.592
95 0 83.0931 13.6834 1137 115.976 1182.96 475.274
96 0 85.134 12.0633 1027 119.445 1182.44 475.923
97 0 88.1053 13.1774 1161 116.743 1183.02 474.29
98 0 92.1071 13.2455 1220 116.113 1183.15 471.011
99 0 94.1839 12.6879 1195 118.75 1182.92 470.106
100 1 49.0767 13.2242 649 113.814 1182.79 491.689
101 0 51.0181 12.5838 642 114.441 1181.79 491.218
102 0 51.0967 12.7014 649 115.98 1182.05 489.515
103 0 51.0242 12.4255 634 117.476 1182.73 489.662
104 0 50.014 11.7767 589 113.827 1183.06 490.615
105 0 53.0578 11.9492 634 112.158 1182.96 490.56
106 0 55.0335 11.284 621 114.269 1182.76 488.422
107 0 58.0744 13.5344 786 108.784 1182.52 487.98
108 0 59.0352 12.8567 759 111.199 1182.94 485.875
109 0 61.1046 13.2232 808 110.114 1182.5 486.365
110 0 64.084 13.3262 854 109.407 1182.88 484.863
111 0 67.1068 12.7409 855 110.538 1182.83 483.927
112 0 68.1248 13.0789 891 109.678 1182.38 482.401
113 0 70.0833 13.0559 915 110.74 1182.37 481.285
114 0 72.1137 13.1459 948 109.981 1182.94 479.089
115 0 72.1137 13.1875 951 136.161 1183.93 479.108
116 0 79.1049 13.4884 1067 108.813 1182.77 476.276
117 0 81.1146 12.7597 1035 110.842 1182.44 474.246
118 0 83.1389 13.4354 1117 109.668 1182.84 473.204
119 0 87.2553 14.0393 1225 109.003 1183.22 472.846
120 1 43.1535 12.6525 546 107.874 1182.72 493.683
121 0 44.065 11.2107 494 106.648 1182.46 492.723
122 0 45.0482 12.6975 572 103.74 1182.62 490.958
123 0 46.0569 12.4411 573 106.092 1182.53 491.625
124 0 49.027 12.8501 630 103.871 1182.67 490.779
125 0 49.0236 13.0345 639 104.79 1182.02 490.98
126 0 50.0713 12.5421 628 106.771 1182.4 490.546
127 0 52.1095 13.913 725 107.593 1182.7 490.255
128 0 53.1844 12.0336 640 112.605 1183.21 488.397
129 0 54.1939 12.3815 671 113.256 1182.37 488.857
130 0 57.1227 13.3572 763 110.657 1182.92 487.616
131 0 59.1275 13.9191 823 110.44 1183.35 487.451
132 0 61.1518 11.4633 701 116.623 1182.82 486.943
133 0 63.0699 13.4295 847 114.181 1182.02 483.713
134 0 65.2687 12.7779 834 117.482 1182.13 483.134
135 0 67.0583 13.1527 882 117.138 1181.49 482.569
136 0 70.2094 13.8443 972 115.702 1182.53 482.059
137 0 73.183 14.8805 1089 114.205 1182.2 481.229
138 0 75.169 14.1681 1065 116.959 1182.37 477.815
139 0 77.2412 13.4902 1042 118.491 1182.38 478.858
140 0 79.3354 12.3652 981 121.474 1182.37 476.679
141 0 83.3289 13.6687 1139 118.653 1182.48 473.732
142 1 44.3432 10.2158 453 124.898 1182.84 487.892
143 0 47.2756 11.3378 536 118.84 1182.42 479.909
144 0 49.1126 13.2553 651 118.387 1181.87 490.639
145 0 51.0973 13.2884 679 118.613 1182.45 492.314
146 0 51.1072 12.9336 661 121.079 1182.43 491.805
147 0 52.0846 13.7661 717 121.163 1182.3 489.609
148 0 51.0605 12.1229 619 128.092 1182.37 489.32
149 0 55.1742 12.9046 712 124.163 1182.39 488.659
150 0 56.083 13.6048 763 124.472 1182.01 487.75
151 0 57.099 13.0825 747 125.519 1181.45 487.108
152 0 60.0388 13.3081 799 124.761 1182.86 486.213
153 0 61.026 13.7319 838 124.229 1182.28 486.159
154 0 63.0852 13.6958 864 126.697 1182.21 484.413
155 0 66.1044 13.6602 903 125.99 1181.41 482.722
156 0 67.0804 13.6105 913 127.547 1181.81 482.311
157 0 66.0455 13.3242 880 123.994 1182.36 481.635
158 0 70.0275 13.0806 916 124.687 1182.87 480.966
159 0 72.0692 13.4454 969 124.772 1182.22 479.142
160 0 75.101 13.1423 987 126.266 1182.81 477.081
161 0 77.1332 13.3146 1027 125.544 1181.96 477.101
162 0 81.1085 13.2908 1078 125.955 1182.26 475.404
163 0 84.1079 13.7799 1159 124.959 1182.48 473.564
164 1 44.0567 11.7349 517 122.88 1183.14 493.255
165 0 44.0617 11.6881 515 126.472 1183.24 491.769
166 0 47.0281 14.2043 668 116.192 1183.54 491.433
167 0 44.0089 10.7478 473 129.093 1183.41 493.357
168 0 49.0625 12.4331 610 122.113 1183.26 491.905
169 0 50.0227 12.8742 644 122.276 1182.54 490.189
170 0 51.0365 12.4813 637 122.35 1182.57 489.391
171 0 54.0491 12.0261 650 123.012 1182.9 488.462
172 0 56.0839 12.9984 729 120.236 1182.15 488.446
173 0 54.0792 11.5386 624 126.62 1182.58 487.558
174 0 57.0662 12.7746 729 123.219 1182.67 485.294
175 0 60.1481 13.6663 822 119.659 1182.5 484.655
176 0 62.1205 12.0894 751 123.228 1182.63 484.415
177 0 65.1559 12.6312 823 122.521 1182.78 482.162
178 0 65.0909 13.1508 856 122.014 1182.8 481.313
179 0 70.1463 13.6999 961 118.978 1182.08 479.873
180 0 70.1067 12.4239 871 123.669 1182.37 479.196
181 0 74.0877 12.7821 947 120.652 1182.56 478.763
182 0 76.127 13.1491 1001 121.158 1182.74 476.664
183 0 77.0805 12.0913 932 124.443 1182.63 474.752
184 0 82.1814 12.9591 1065 120.844 1182.55 473.81
185 0 85.1131 12.9357 1101 121.203 1182.46 472.078
186 0 86.0917 13.4275 1156 120.303 1182.8 472.599
187 1 49.0348 11.8895 583 119.557 1182.83 491.172
188 0 50.1013 11.337 568 121.417 1182.35 490.195
189 0 51.2971 11.7355 602 118.909 1183.1 487.857
190 0 51.0327 12.639 645 117.829 1183.16 488.388
191 0 55.0825 12.2725 676 116.883 1181.74 488.608
192 0 57.074 12.843 733 115.315 1182.11 486.888
193 0 58.0302 13.0966 760 114.484 1182.02 486.003
194 0 59.0607 12.157 718 117.195 1182.09 484.27
195 0 61.0384 11.9105 727 117.564 1182.35 483.502
196 0 66.0322 11.8578 783 116.487 1182.16 482.778
197 0 67.0644 12.0332 807 115.048 1182.24 483.015
198 0 69.0539 12.483 862 115.244 1182.94 481.175
199 0 69.0484 12.5854 869 126.979 1183.95 481.177
200 0 74.0702 12.0156 890 126.734 1181.24 475.358
201 0 77.1577 11.9236 920 125.39 1180.94 477.832
202 0 80.039 11.4069 913 126.2 1182.42 475.217
203 0 81.065 11.4969 932 125.015 1182.25 475.82
204 1 40.0542 10.9851 440 119.643 1183.07 493.95
205 0 41.0599 10.7404 441 119.508 1183.42 493.735
206 0 44.0291 11.2653 496 117.764 1183.9 492.911
207 0 44.0858 11.6818 515 115.534 1183.96 493.202
208 0 44.0312 12.1505 535 112.921 1183.26 492.518
209 0 48.0569 13.3592 642 107.86 1183.07 491.179
210 0 49.0786 11.6548 572 112.757 1183.12 491.753
211 0 50.0857 12.2989 616 112.459 1182.71 490.216
212 0 51.0669 11.3968 582 114.541 1182.92 488.797
213 0 53.0707 13.7175 728 107.503 1182.89 489.214
214 0 50.0408 10.0118 501 121.579 1182.44 488.132
215 0 52.069 10.7934 562 117.986 1182.7 488.132
216 0 56.0276 13.6183 763 111.473 1181.43 486.661
217 0 56.0247 10.656 597 119.511 1182.02 486.137
218 0 58.0597 10.2825 597 119.685 1182.68 485.439
219 0 61.0701 12.4938 763 113.877 1182.95 487.079
220 0 62.0784 11.9526 742 115.981 1181.89 483.016
221 0 66.0318 12.282 811 114.824 1183.11 483.307
222 0 68.0331 12.0383 819 115.078 1182.67 482.188
223 0 69.0488 10.8184 747 118.197 1181.9 483.059
224 0 73.0732 12.4396 909 114.283 1182.13 479.943
225 0 76.1469 11.8193 900 116.311 1182.27 478.884
226 0 78.1448 11.2739 881 117.425 1181.72 479.015
227 0 82.2374 12.5004 1028 115.223 1181.48 474.817
228 0 79.2559 11.9739 949 120.486 1182.6 475.995
229 1 42.031 11.4201 480 119.056 1183.62 493.342
230 0 43.0549 12.2634 528 116.814 1184.13 493.653
231 0 42.0228 11.3986 479 120.071 1183.74 493.388
232 0 43.1411 11.0336 476 121.447 1183.82 492.872
233 0 45.0296 10.9928 495 122.216 1183.89 491.095
234 0 48.0239 12.2023 586 116.787 1183.79 491.626
235 0 49.0472 12.6001 618 118.047 1183.21 491.317
236 0 49.0317 11.8087 579 121.848 1183.91 490.684
237 0 54.025 13.1976 713 116.813 1183.85 488.548
238 0 54.0561 12.8015 692 118.114 1183.67 488.955
239 0 55.0601 11.9506 658 121.368 1183.51 487.831
240 0 55.0505 12.8791 709 120.963 1183.62 486.886
241 0 59.0254 13.4857 796 118.819 1183.99 486.139
242 0 61.1311 13.97 854 117.933 1183.36 484.588
243 0 61.0444 12.5155 764 122.418 1182.92 485.285
244 0 65.0714 12.8628 837 121.299 1183.27 482.834
245 0 65.0183 12.6887 825 121.468 1183.98 484.6
246 0 68.149 11.8417 807 123.377 1183.41 481.912
247 0 70.0857 12.0852 847 122.797 1182.98 481.092
248 0 73.0985 12.8867 942 120.749 1183.06 478.943
249 0 76.1563 13.1703 1003 119.915 1182.95 477.74
250 1 37.0147 11.0767 410 123.095 1183.85 496.112
251 0 41.0418 12.134 498 119.823 1183.72 494.269
252 0 41.0483 12.8142 526 119.279 1183.61 495.084
253 0 42.028 11.7303 493 125.531 1181.06 492.016
254 0 42.0212 12.0415 506 120.96 1183.02 494.692
255 0 45.0531 12.7627 575 118.847 1183.63 493.103
256 0 44.0187 11.7904 519 120.291 1183.93 494.462
257 0 45.0453 11.9435 538 122.883 1184.35 491.4
258 0 47.0401 11.841 557 122.111 1184.02 492.221
259 0 47.0469 11.0741 521 125.265 1184.18 491.173
260 0 50.0341 11.8719 594 121.535 1183.92 491.466
261 0 52.0797 13.3641 696 119.055 1183.5 488.576
262 0 54.0553 11.8582 641 123.594 1183.34 487.437
263 0 54.097 12.9212 699 122.805 1183.89 487.166
264 0 56.0179 13.4243 752 122.275 1182.63 485.598
265 0 58.0393 13.2841 771 123.016 1182.59 485.659
266 0 61.0598 13.0692 798 123.041 1183.18 487.01
267 0 64.0133 13.669 875 122.781 1183.28 484.528
268 0 67.0567 14.2119 953 119.939 1184.14 484.318
269 0 69.0487 13.3674 923 123.624 1183.56 482.223
270 0 72.0415 14.0475 1012 122.588 1182.9 481.203
271 0 73.1147 13.6771 1000 123.936 1183.28 478.885
272 0 77.0479 13.8096 1064 121.742 1183.33 478.305
273 0 80.1396 13.9507 1118 120.556 1183.32 477.82
274 0 84.0882 14.5086 1220 118.316 1183.21 477.077
275 0 87.1402 15.5726 1357 115.416 1182.28 475.199
276 1 45.0205 12.5276 564 121.176 1181.77 495.204
277 0 44.0412 12.125 534 123.573 1182.57 493.335
278 0 47.0412 13.6901 644 115.342 1183.15 493.71
279 0 48.1007 13.1183 631 123.865 1181.94 491.677
280 0 48.0597 13.0671 628 124.336 1182.16 491.589
281 0 52.0933 13.0919 682 123.089 1182.5 490.031
282 0 53.0351 12.7463 676 124.222 1182.83 490.148
283 0 55.0879 13.542 746 122.752 1181.88 488.391
284 0 56.0678 12.9664 727 125.576 1182.45 487.802
285 0 57.1007 13.5375 773 124.316 1181.72 486.981
286 0 60.0516 13.7049 823 123.226 1182.03 486.017
287 0 63.0828 13.6012 858 122.547 1181.77 484.357
288 0 65.0927 15.4395 1005 117.9 1181.67 484.011
289 0 69.0835 13.7081 947 122.054 1182.56 481.741
290 0 68.1252 13.622 928 123.592 1182.23 481.131
291 0 72.027 13.5366 975 122.368 1181.94 479.689
292 0 75.0436 13.1257 985 123.719 1181.4 478.394
293 0 77.0858 13.1542 1014 123.375 1182.71 477.363
294 0 79.2261 13.4552 1066 122.787 1182.51 476.328
295 0 83.0885 13.1908 1096 123.371 1182.81 474.194
296 0 86.103 14.6917 1265 118.957 1182.78 472.148
297 1 46.0238 11.6027 534 122.899 1184.57 491.455
298 0 48.0439 12.6135 606 119.112 1183.89 492.089
299 0 48.0272 13.1384 631 116.803 1183.95 489.41
300 0 50.0575 12.8053 641 114.131 1184.05 489.992
301 0 51.0408 12.4606 636 115.821 1183.72 488.687
302 0 54.0429 12.9712 701 112.007 1183.52 489.104
303 0 55.0498 12.5341 690 111.858 1182.32 489.529
304 0 56.095 13.5663 761 110.046 1182.22 486.804
305 0 60.067 13.435 807 109.299 1182.67 486.97
306 0 61.133 13.2334 809 110.063 1183.03 484.724
307 0 64.0567 12.7699 818 110.268 1182.39 484.976
308 0 65.0963 14.517 945 107.044 1182.07 482.193
309 0 67.0959 13.041 875 110.631 1182.98 482.695
310 0 69.0506 13.3236 920 109.488 1181.47 478.837
311 0 73.0795 13.6427 997 107.774 1181.64 478.906
312 0 75.0507 13.3776 1004 108.481 1182.23 478.39
313 0 77.1405 13.2615 1023 109.06 1182.27 474.447
314 0 82.0501 14.089 1156 106.255 1182.57 474.864
315 0 85.106 13.1248 1117 110.124 1182.2 473.82
316 0 88.2026 13.9338 1229 107.734 1181.71 472.556
317 0 90.1377 14.1228 1273 108.529 1181.93 468.688
318 0 92.2014 11.8328 1091 114.206 1182.7 468.167
319 0 96.077 13.2914 1277 116.601 1182.61 465.282
320 0 99.1407 13.3749 1326 114.71 1182.26 463.594
321 0 104.375 12.091 1262 116.716 1182.73 461.805
322 0 107.172 11.9247 1278 118.307 1182.37 461.385
323 1 58.175 12.9609 754 110.66 1182.44 487.18
324 0 58.1686 14.3892 837 109.087 1182.86 484.944
325 0 59.2319 11.6322 689 115.438 1183.46 486.184
326 0 60.2809 13.1883 795 112.737 1183.25 483.865
327 0 61.1441 12.0208 735 115.493 1183.5 483.407
328 0 65.2364 13.4894 880 109.439 1183.13 484.178
329 0 67.1007 13.1295 881 112.565 1182.91 479.93
330 0 68.272 12.4063 847 114.346 1183.08 480.331
331 0 71.1675 13.1942 939 112.912 1182.93 479.391
332 0 76.2048 13.818 1053 110.263 1183.45 477.641
333 0 77.1837 12.8784 994 113.429 1183 475.796
334 0 81.1768 13.4644 1093 112.62 1183.3 472.933
335 0 83.3361 11.9276 994 114.451 1182.98 473.765
336 0 88.1544 11.6614 1028 111.039 1182.64 472.306
337 0 89.0495 12.0944 1077 108.65 1183.82 470.419
338 1 47.0397 11.1395 524 107.924 1184.22 492.345
339 0 50.0708 12.3825 620 105.276 1183.72 491.144
340 0 49.0347 10.2581 503 109.952 1183.36 492.59
341 0 50.0089 10.958 548 110.557 1184.02 490.464
342 0 52.0999 11.3436 591 110.24 1183.64 489.922
343 0 53.169 11.9995 638 110.024 1183.26 486.292
344 0 54.0207 12.7173 687 112.895 1184.41 486.089
345 0 57.0476 13.5501 773 109.944 1184.4 483.458
346 0 62.1412 13.8395 860 107.637 1184.61 484.931
347 0 61.1454 12.5112 765 111.745 1185.03 483.15
348 0 63.0627 13.6689 862 109.179 1184.6 481.31
349 0 67.0454 12.857 862 110.203 1185.35 482.407
350 0 68.0403 13.1687 896 110.473 1184.94 480.798
351 0 70.1214 12.3215 864 111.943 1184.87 480.068
352 0 70.1315 12.3197 864 143.933 1183.86 480.104
353 0 75.0998 14.1678 1064 107.177 1184.78 477.882
354 0 77.1626 12.7004 980 109.349 1185.28 478.787
355 0 78.0795 12.769 997 110.413 1185.36 474.388
356 0 83.1666 12.986 1080 108.183 1184.86 475.197
357 0 85.1189 13.1933 1123 108.207 1184.21 471.386
358 0 86.0714 11.2465 968 111.531 1184.17 472.403
359 0 89.1295 13.9348 1242 106.675 1185.12 469.902
360 0 93.1198 13.8961 1294 106.33 1184.43 468.481
361 0 93.0959 12.7718 1189 108.63 1184.66 467.277
362 0 97.1626 12.5357 1218 108.764 1184.51 466.559
363 0 102.214 14.0098 1432 105.136 1184.7 465.353
364 0 105.227 13.1715 1386 106.649 1184.31 462.881
365 0 107.286 10.98 1178 109.02 1183.82 463.13
366 0 112.209 12.2004 1369 107.231 1183.43 457.795
367 0 118.107 11.9891 1416 105.382 1183.36 457.003
368 1 59.0991 11.5061 680 103.332 1183.9 480.768
369 0 64.0398 13.2105 846 96.7908 1182.38 483.91
370 0 65.0486 12.9442 842 98.101 1182.48 480.722
371 0 66.1311 12.4752 825 99.097 1183.12 482.396
372 0 71.093 13.6441 970 96.1814 1183.23 480.172
373 0 71.0508 13.3566 949 98.0506 1182.64 478.08
374 0 75.1281 13.0843 983 97.7101 1182.7 477.954
375 0 78.1502 13.3845 1046 97.4302 1182.53 474.332
376 0 82.1302 14.0022 1150 96.0557 1182.48 474.673
377 0 83.0853 12.9024 1072 98.4981 1183.13 471.867
378 0 87.0702 12.4957 1088 98.8355 1182.29 470.34
379 0 89.1759 12.167 1085 99.3189 1183.36 469.669
380 1 49.1217 11.1356 547 98.34 1184.2 490.892
381 0 47.0415 10.31 485 101.794 1184.28 490.367
382 0 48.0456 11.2185 539 94.423 1185.07 489.755
383 0 53.0385 11.2748 598 92.7575 1184.99 489.998
384 0 54.0766 13.7028 741 89.5331 1185.08 489.517
385 0 55.0735 11.9295 657 92.0715 1184.51 488.443
386 0 57.0544 11.7081 668 93.3473 1184.58 486.603
387 0 58.0466 12.4211 721 94.3786 1182.75 486.63
388 0 60.0482 12.0403 723 95.6639 1183.24 486.385
389 0 62.0482 12.9093 801 95.4569 1182.62 483.315
390 0 65.0728 12.4783 812 96.9901 1182.18 483.717
391 0 67.04 11.963 802 98.2519 1182.1 484.959
392 0 69.12 13.3391 922 98.4957 1182.97 481.996
393 0 72.0627 14.2931 1030 97.7631 1182.69 480.948
394 0 75.1116 14.352 1078 98.18 1183.29 478.327
395 0 78.1714 13.9949 1094 100.344 1182.74 478.451
396 0 82.1161 15.5633 1278 98.6831 1182.59 475.287
397 0 83.1006 13.9951 1163 103.626 1182.69 475.307
398 0 86.2809 14.7889 1276 102.836 1183.39 475.071
399 0 89.2246 13.976 1247 104.577 1182.96 473.715
400 1 44.0535 11.486 506 105.273 1183.11 493.735
401 0 46.0931 11.9324 550 104.707 1182.5 492.516
402 0 47.0529 11.7315 552 106.953 1182.48 492.871
403 0 49.0658 13.1456 645 104.349 1182.41 491.857
404 0 50.0237 13.4536 673 104.178 1182.82 491.04
405 0 51.0652 14.2563 728 103.161 1182.25 491.06
406 0 52.0741 12.1174 631 107.499 1183.25 490.973
407 0 53.0609 12.5516 666 107.943 1182.75 490.126
408 0 51.0658 11.5929 592 105.008 1185.47 491.562
409 0 53.0788 11.1721 593 105.194 1185.16 491.113
410 0 57.0584 12.3032 702 101.583 1185.52 490.195
411 0 57.0786 10.687 610 105.37 1185.96 490.561
412 0 58.0552 11.0757 643 105.14 1185.11 489.465
413 0 60.1747 11.1176 669 106.233 1185.63 487.256
414 0 63.1075 12.1539 767 101.614 1184.67 488.789
415 0 64.142 11.4901 737 104.959 1184.92 484.509
416 0 68.2743 12.4205 848 103.127 1184.93 483.764
417 0 71.1074 13.0225 926 102.042 1184.64 483.267
418 0 70.0791 11.3871 798 106.279 1184.39 483.257
419 0 73.0816 12.8897 942 102.873 1185.02 483.072
420 0 76.1406 13.1861 1004 103.144 1184.25 480.615
421 0 78.1316 13.4517 1051 103.701 1184.25 477.668
422 0 81.1311 12.1532 986 107.153 1184.76 474.712
423 0 82.1358 11.5175 946 107.961 1185.3 476.465
424 0 87.1608 13.0793 1140 104.404 1184.66 475.577
425 0 89.1596 12.0009 1070 107.913 1184.07 473.304
426 0 92.2186 12.1451 1120 107.413 1185 474.438
427 0 97.1621 12.9989 1263 106.961 1184.81 470.568
428 0 100.331 13.884 1393 106.073 1184.36 467.292
429 0 104.187 14.3109 1491 105.649 1184.25 466.754
430 0 106.137 13.5673 1440 108.209 1184.67 466.702
431 0 110.273 13.0132 1435 110.729 1184.73 463.886
432 1 58.1356 11.7656 684 112.265 1185.07 487.19
433 0 62.3013 13.0174 811 114.055 1185.49 484.096
434 0 63.049 14.1319 891 113.215 1185.24 483.752
435 0 65.1671 12.3222 803 119.188 1183.88 484.752
436 0 68.1486 13.045 889 116.889 1184.63 484.306
437 0 68.2364 12.3541 843 119.923 1184.54 482.866
438 0 71.0853 14.1098 1003 116.219 1184.37 481.886
439 0 74.1506 13.1894 978 119.181 1184.16 479.994
440 0 76.2302 12.3835 944 120.469 1184.97 479.984
441 0 78.1954 12.4688 975 120.328 1184.51 478.798
442 0 80.1208 13.6045 1090 120.283 1184.47 476.7
443 0 85.2347 14.4073 1228 117.068 1184.1 476.221
444 0 85.2688 12.3023 1049 120.787 1184.19 476.31
445 0 86.233 12.5242 1080 121.242 1184.85 473.399
446 0 90.2179 13.9219 1256 117.471 1184.83 471.232
447 0 94.198 13.599 1281 117.301 1184.61 469.93
448 0 97.2552 12.4518 1211 118.808 1185.03 469.68
449 0 101.084 11.6833 1181 111.525 1185.44 466.39
450 0 102.07 11.4922 1173 114.373 1184.91 466.173
451 1 53.0812 11.0397 586 107.945 1185.23 490.589
452 0 57.0349 12.2557 699 104.262 1185.72 488.053
453 0 58.0805 12.2588 712 104.598 1183.89 485.837
454 0 59.061 12.0723 713 105.906 1183.82 484.304
455 0 62.1024 12.5277 778 105.049 1184.73 484.681
456 0 64.1035 12.043 772 105.939 1183.7 484.211
457 0 68.1076 13.0822 891 103.297 1184.51 482.378
458 0 67.059 12.1386 814 107.425 1183.92 481.727
459 0 71.1051 12.8823 916 106.227 1184.16 479.549
460 0 72.0961 12.8578 927 107.296 1184.4 477.647
461 0 76.1611 13.6684 1041 105.03 1184.65 477.725
462 0 76.0967 11.5774 881 111.062 1183.79 476.909
463 0 80.0783 13.0248 1043 108.091 1184.9 474.214
464 0 84.1218 13.2784 1117 107.743 1184.88 473.087
465 0 85.1086 12.8189 1091 107.972 1185.01 474.966
466 0 90.0946 13.0862 1179 110.856 1184.35 471.344
467 0 91.1545 13.3839 1220 109.648 1184.83 469.138
468 0 95.1681 12.1259 1154 113.527 1184.6 469.458
469 0 95.1842 12.46 1186 114.276 1185.23 466.945
470 0 100.328 12.9775 1302 112.883 1185.4 463.357
471 0 103.235 12.9316 1335 113.631 1185.12 461.168
472 1 52.1122 8.98062 468 111.545 1186.53 487.991
473 0 55.0778 10.8937 600 108.603 1185.19 485.573
474 0 57.0527 11.5682 660 106.8 1184.6 488.132
475 0 61.0626 13.0358 796 103.44 1185.4 486.43
476 0 63.2075 12.3087 778 105.465 1185.96 486.321
477 0 64.0961 13.823 886 102.967 1185.04 483.12
478 0 67.1847 13.5894 913 103.975 1185.61 482.287
479 0 69.1797 12.894 892 106.393 1185.75 483.303
480 0 70.1791 12.6248 886 114.699 1184.95 481.3
481 0 73.1587 13.0265 953 112.671 1184.34 481.961
482 0 75.171 12.7443 958 114.564 1185.23 480.268
483 0 77.1612 13.4005 1034 114.359 1184.79 479.148
484 0 81.1473 13.1736 1069 113.929 1185.05 478.383
485 0 82.2379 14.5067 1193 112.953 1185.25 475.494
486 0 84.1014 13.3173 1120 111.616 1185.59 474.744
487 0 86.0917 13.1836 1135 113.194 1185.96 473.764
488 0 87.1434 13.2884 1158 113.206 1186.12 472.934
489 0 93.0976 14.8017 1378 108.663 1185.01 470.361
490 0 95.1241 13.5612 1290 112.405 1184.5 468.366
491 0 96.1086 13.1934 1268 114.054 1184.52 468.122
492 0 101.13 13.9622 1412 111.749 1185.29 467.404
493 0 103.122 13.3628 1378 116.379 1184.79 462.941
494 0 106.16 13.6115 1445 115.575 1184.47 462.109
495 0 110.203 14.1376 1558 114.25 1184.35 460.637
496 0 113.315 13.1139 1486 115.666 1184.88 459.913
497 0 117.303 14.7482 1730 112.532 1185.34 454.461
498 0 123.183 13.3947 1650 114.635 1185.15 453.182
499 0 127.148 14.487 1842 111.755 1184.9 451.745
500 0 130.287 13.7235 1788 117.53 1185.47 447.753
501 0 137.227 14.0205 1924 118.238 1185.41 444.943
502 1 75.1947 13.4584 1012 110.232 1185.04 477.72
503 0 77.1541 13.2462 1022 112 1186.31 477.943
504 0 78.1023 12.4324 971 114.27 1185.55 476.612
505 0 83.2383 13.5755 1130 110.785 1185.49 474.498
506 0 86.1753 12.8807 1110 112.588 1186.07 473.114
507 0 88.2482 11.9096 1051 115.293 1185.8 470.002
508 0 92.1255 13.156 1212 112.618 1185.88 470.946
509 0 95.2028 11.9219 1135 115.066 1186.36 470.656
510 0 99.2917 13.415 1332 111.014 1185.17 468.822
511 0 102.357 13.2184 1353 111.741 1185.06 464.449
512 0 107.099 12.9413 1386 111.306 1185.92 463.724
513 0 110.351 12.8136 1414 111.591 1185.77 461.745
514 0 115.172 13.7099 1579 115.492 1185.48 460.42
515 0 118.146 12.1376 1434 117.137 1185.35 457.43
516 1 62.2165 11.7011 728 112.648 1185.47 482.883
517 0 63.2235 12.875 814 111.158 1185.06 481.919
518 0 66.2125 12.0068 795 111.319 1185.31 483.483
519 0 69.2668 12.9211 895 109.222 1185.57 481.37
520 0 69.2962 13.4784 934 108.665 1185.3 481.041
521 0 75.1474 15.1436 1138 103.709 1184.31 479.045
522 0 73.3691 12.0078 881 112.551 1184.85 476.304
523 0 79.1517 12.7729 1011 114.236 1184.43 476.856
524 0 84.1737 12.6762 1067 114.213 1185.01 475.041
525 0 84.1639 12.9034 1086 114.713 1185.41 473.535
526 0 87.2033 12.8091 1117 114.679 1184.52 471.624
527 0 89.2854 14.6497 1308 110.576 1184.8 469.238
528 0 93.2684 12.8339 1197 114.632 1184.58 468.613
529 1 46.0651 9.46487 436 114.422 1185.55 492.557
530 0 48.0649 11.3596 546 104.784 1185.28 490.401
531 0 50.061 12.5048 626 101.345 1185.57 490.911
532 0 52.1096 12.1667 634 102.989 1185.2 489.932
533 0 53.095 11.9785 636 104.536 1185.08 489.766
534 0 54.0699 12.4653 674 104.272 1185.36 486.03
535 0 57.0779 13.613 777 102.216 1185.2 486.942
536 0 58.0611 12.6246 733 105.723 1185.44 485.243
537 0 59.0613 13.4267 793 104.396 1185.15 483.879
538 0 63.1414 14.3012 903 102.097 1185.12 485.239
539 0 63.1287 12.1498 767 108.163 1185.35 484.348
540 0 64.0873 13.0135 834 108.513 1185.08 483.082
541 0 69.1184 14.6126 1010 103.768 1185.03 480.679
542 0 68.2138 12.109 826 111.446 1185.08 481.461
543 0 72.1461 13.9855 1009 107.59 1185.03 480.634
544 0 75.1635 14.0228 1054 107.943 1184.93 480.117
545 0 76.1634 12.4469 948 113.772 1184.61 477.978
546 0 79.2242 14.2633 1130 110.042 1184.21 474.892
547 0 80.227 13.4867 1082 114.525 1184.89 473.612
548 0 82.2315 13.158 1082 115.863 1184.68 474.5
549 0 87.1214 13.8542 1207 114.237 1185.08 471.437
550 0 88.191 12.1668 1073 119.628 1185.75 472.726
551 0 92.1475 13.6629 1259 116.465 1185.63 468.644
552 1 49.1222 10.6266 522 119.943 1185.82 488.056
553 0 51.1821 11.8596 607 115.231 1184.24 488.102
554 0 53.0429 11.8206 627 117.01 1183.37 486.718
555 0 53.028 12.2577 650 119.595 1182.91 488.315
556 0 57.0211 12.4691 711 118.97 1182.65 488.335
557 0 58.0271 12.2874 713 119.879 1182.76 487.072
558 0 59.0957 12.8267 758 117.657 1182.51 488.228
559 0 63.0444 13.4984 851 116.769 1183.14 485.273
560 0 66.0457 13.9298 920 114.965 1182.84 483.673
561 0 66.0504 13.1112 866 118.008 1183.15 484.319
562 0 69.0367 12.4137 857 118.485 1182.66 483.728
563 0 72.0315 12.6334 910 119.092 1182.78 480.471
564 0 74.0747 12.5819 932 120.432 1183.45 479.651
565 0 76.0467 12.9131 982 118.464 1183.47 481.97
566 0 79.0275 13.489 1066 117.611 1182.86 477.249
567 0 80.0533 13.5535 1085 119.549 1182.83 475.455
568 0 85.0374 13.6763 1163 119.505 1182.82 474.727
569 1 168.256 13.2179 2224 128.048 1183.68 436.445
570 1 88.079 12.5569 1106 124.294 1182.94 472.134
571 0 93.1606 13.4284 1251 122.221 1183.3 471.142
572 1 50.0292 12.3528 618 116.942 1182.95 491.809
573 0 51.0799 11.7071 598 120.855 1182.97 491.311
574 0 52.0964 12.2273 637 119.995 1182.95 490.578
575 0 54.0459 12.7854 691 119.498 1182.75 489.656
576 0 59.1256 14.0886 833 114.161 1182.4 489.671
577 0 57.1164 12.5533 717 121.116 1183.18 487.232
578 0 61.0648 13.281 811 117.851 1183.41 487.873
579 0 62.1422 13.0024 808 119.488 1183.15 486.775
580 0 63.1495 13.3334 842 119.533 1183.12 482.821
581 0 67.2346 14.1148 949 115.953 1183.52 482.403
582 0 66.1132 11.6164 768 122.473 1183.48 482.496
583 0 71.1391 12.9886 924 117.761 1183.47 481.753
584 0 74.2162 14.7138 1092 113.004 1184.07 480.665
585 0 75.3164 11.8965 896 121.081 1183.8 479.165
586 0 75.1777 12.65 951 119.829 1184.26 477.118
587 0 82.2638 13.3108 1095 117.51 1184.22 474.499
588 0 82.3023 12.8793 1060 117.741 1184.82 475.305
589 0 86.276 13.6191 1175 116.425 1184.78 470.726
590 0 89.431 13.0044 1163 117.52 1184.98 468.993
591 0 91.3461 12.3049 1124 118.71 1184.87 468.335
592 0 94.4875 12.9541 1224 117.288 1184.38 464.633
593 1 49.2661 12.1382 598 115.602 1184.12 487.943
594 0 50.1565 11.8429 594 115.46 1183.65 489.074
595 0 52.05 11.0086 573 112.471 1183.73 489.175
596 0 54.0519 11.4705 620 103.806 1183.67 490.163
597 0 56.1031 11.461 643 103.742 1183.62 488.188
598 0 56.0241 11.9948 672 102.662 1183.96 488.484
599 0 61.1454 12.364 756 101.205 1183.81 486.517
600 0 62.2071 11.092 690 104.636 1183.55 484.517
601 0 64.0771 11.9856 768 102.372 1183.84 485.764
602 0 64.1286 10.2918 660 106.873 1183.74 483.056
603 0 68.0611 12.4447 847 102.251 1183.68 481.142
604 0 70.0781 13.0283 913 101.423 1183.42 482.586
605 0 73.1258 11.8426 866 104.833 1183.69 479.155
606 0 75.0459 12.5257 940 103.853 1184.13 478.098
607 0 78.0852 12.2815 959 104.385 1183.65 479.471
608 0 82.0543 12.8451 1054 104.036 1184.5 477.32
609 0 84.0919 12.0582 1014 105.928 1184.67 476.05
610 0 87.1472 12.2781 1070 106.242 1184.3 474.782
611 0 90.1012 12.4194 1119 106.777 1183.54 470.894
612 0 93.1127 12.1358 1130 107.527 1184.37 471.379
613 0 95.1314 12.1201 1153 109.47 1184.19 468.432
614 1 51.0896 10.8633 555 108.858 1184.22 491.595
615 0 54.1547 12.0765 654 105.706 1184.19 491.641
616 0 56.2303 11.9509 672 107.629 1183.45 487.927
617 0 57.3022 12.8965 739 107.521 1183.46 485.812
618 0 58.1172 11.5456 671 109.996 1183.2 488.471
619 0 60.1146 11.0955 667 112.271 1183.78 488.352
620 0 63.1359 13.0987 827 107.437 1184.01 486.507
621 0 62.1361 11.3139 703 113.286 1183.81 486.519
622 0 68.1025 12.2462 834 109.938 1183.85 486.107
623 0 70.1521 13.2141 927 109.14 1184.16 483.328
624 0 70.2157 12.7322 894 110.902 1183.45 483.204
625 0 73.1715 12.4912 914 112.418 1183.62 481.793
626 0 75.1857 12.529 942 114.04 1183.28 479.479
627 0 75.0955 13.9023 1044 113.252 1182.65 479.235
628 0 79.1225 12.8156 1014 115.848 1182.42 478.445
629 0 84.0588 13.9307 1171 113.55 1183.57 475.955
630 0 85.1088 12.4194 1057 117.897 1182.51 476.332
631 0 89.0703 13.944 1242 114.793 1183.26 474.742
632 0 91.0836 12.7465 1161 119.283 1183.41 471.925
633 0 95.1555 12.716 1210 120.143 1183.69 471.759
634 0 95.1376 13.1599 1252 120.55 1184.21 470.331
635 0 100.084 13.9183 1393 118.122 1183.5 467.503
636 0 102.15 12.6677 1294 123.129 1183.22 465.867
637 0 102.135 12.6989 1297 143.272 1183.24 465.971
638 1 53.0367 10.389 551 121.819 1183.45 492.152
639 0 54.0545 11.6734 631 122.884 1185.57 489.463
640 0 56.0738 13.1969 740 122.946 1184.38 489.218
641 0 58.0654 13.1576 764 117.984 1184.98 489.976
642 0 59.0882 13.5052 798 117.787 1184.13 489.353
643 0 59.0639 13.1383 776 121.415 1184.66 486.226
644 0 64.0864 13.7003 878 117.678 1184.61 486.596
645 0 64.0621 12.7376 816 120.434 1184.95 486.702
646 0 67.0589 13.2421 888 119.628 1184.9 483.218
647 0 69.192 13.9611 966 119.922 1185.39 482.598
648 0 69.134 12.3962 857 123.596 1184.79 482.533
649 0 75.061 13.1093 984 119.815 1184.49 482.283
650 0 77.218 12.2122 943 121.476 1184.25 480.72
651 0 79.134 12.7379 1008 121.251 1184.47 478.544
652 0 82.1401 12.3813 1017 120.998 1184.4 477.569
653 0 84.2168 11.7316 988 122.706 1183.48 476.705
654 0 85.2193 11.2064 955 124.934 1184.22 475.49
655 0 90.1641 12.0558 1087 122.49 1184.22 471.539
656 0 91.1067 11.7664 1072 123.371 1184.22 470.96
657 1 51.0185 12.1916 622 118.288 1184.8 491.018
658 0 53.0384 12.6135 669 114.03 1184.01 491.565
659 0 54.0235 12.2169 660 113.674 1183.88 490.873
660 0 53.0554 11.3655 603 116.887 1184.55 491.262
661 0 57.0604 10.6203 606 118.13 1184.96 489.361
662 0 59.143 12.0048 710 112.649 1184.02 489.062
663 0 59.1046 10.9636 648 115.338 1184.68 488.392
664 0 62.202 12.2022 759 111.349 1184.44 485.299
665 0 64.1175 11.4633 735 109.309 1184.63 486.535
666 0 68.129 11.8745 809 108.47 1185.03 486.522
667 0 71.0756 12.0857 859 108.253 1185.26 484.626
668 0 72.1296 12.0062 866 109.271 1184.78 483.196
669 0 73.0944 10.6438 778 112.928 1185.05 479.635
670 0 75.0704 11.1895 840 112.381 1185.07 478.52
671 0 78.1873 10.6027 829 116.262 1184.34 478.1
672 0 82.1988 12.19 1002 111.832 1183.29 475.301
673 0 85.1144 12.5008 1064 111.999 1184.83 475.199
674 0 86.152 11.4217 984 116.04 1183.51 470.667
675 1 46.0905 9.67661 446 115.749 1183.05 493.011
676 0 48.1457 11.486 553 112.955 1182.42 488.465
677 0 47.1229 11.5867 546 108.353 1183.72 478.066
678 0 53.2063 12.5173 666 111.062 1183.74 484.423
679 0 49.049 10.989 539 113.748 1185.53 492.707
680 0 53.0656 11.6837 620 110.076 1182.34 490.897
681 0 55.0313 11.7024 644 109.843 1181.73 490.764
682 0 56.074 10.504 589 113.947 1182.52 488.913
683 0 58.0319 11.2007 650 112.338 1182.59 490.129
684 0 59.0227 11.521 680 113.368 1183.31 487.001
685 0 63.1048 11.0451 697 113.307 1185.09 486.419
686 0 65.1131 12.6088 821 110.884 1184.66 484.9
687 0 67.0882 12.0438 808 112.36 1185.03 482.812
688 0 71.1763 11.4645 816 112.51 1184.93 482.473
689 0 73.0554 13.4008 979 109.215 1184.03 479.295
690 0 76.0884 12.6695 964 109.523 1184.1 480.511
691 0 80.0981 12.4472 997 109.682 1184.14 476.275
692 0 83.1458 11.5219 958 110.539 1184.43 477.716
693 1 45.0203 11.9946 540 107.017 1184.78 496.048
694 0 45.0384 12.6559 570 106.37 1183.55 495.325
695 0 47.081 12.9776 611 103.962 1181.89 494.003
696 0 46.0349 11.7737 542 107.649 1181.74 494.613
697 0 49.0327 12.094 593 106.067 1182.33 493.064
698 0 50.0431 11.9697 599 107.277 1182.28 493.376
699 0 52.0356 12.9911 676 105.302 1182.38 490.905
700 0 53.0143 12.657 671 107.03 1183.24 490.595
701 0 54.0624 11.1908 605 110.777 1183.78 491.185
702 0 57.0916 13.3295 761 106.164 1182.45 488.612
703 0 59.0153 12.8272 757 106.518 1182.84 488.209
704 0 61.0593 12.9874 793 106.741 1182.77 484.917
705 0 62.0751 12.7748 793 107.947 1182.22 484.153
706 0 66.0306 13.4029 885 105.664 1182.91 483.536
707 0 68.0712 12.6485 861 108.852 1182.55 481.959
708 0 71.0431 14.4842 1029 104.669 1183.4 482.362
709 0 73.0529 13.6613 998 106.327 1182.92 479.486
710 0 73.0983 11.9428 873 111.299 1183.41 478.096
711 0 78.066 13.1811 1029 107.014 1182.82 477.25
712 0 82.0589 14.0509 1153 104.387 1183.32 474.213
713 0 83.0999 13.5018 1122 106.683 1182.85 474.537
714 0 86.0809 12.6857 1092 109.54 1182.79 473.968
715 0 90.1594 14.2193 1282 106.326 1182.83 471.092
716 1 47.0279 10.8659 511 114.237 1182.48 492.886
717 0 49.3535 12.7245 628 112.514 1184.61 489.092
718 0 51.0476 12.4981 638 104.933 1184.17 492.572
719 0 52.0159 13.6305 709 102.299 1183.32 492.614
720 0 54.0372 12.806 692 104.981 1183.68 491.779
721 0 54.0724 12.9826 702 105.52 1183.46 490.819
722 0 56.079 12.2684 688 106.837 1183.16 489.414
723 0 57.1474 13.5264 773 104.445 1182.82 487.217
724 0 61.0451 13.6129 831 102.748 1183.07 488.282
725 0 60.0444 13.3235 800 105.928 1183.42 485.402
726 0 63.0692 13.62 859 104.566 1183.24 486.083
727 0 65.0616 12.3729 805 106.677 1183.63 486.862
728 0 68.1117 13.1989 899 105.79 1184.25 483.086
729 0 71.1188 13.4985 960 105.14 1184.55 481.053
730 0 72.1016 12.7875 922 105.872 1184.49 481.069
731 0 77.1701 12.3105 950 106.061 1185.15 479.367
732 0 79.1238 13.7127 1085 104.895 1185.42 478.311
733 1 40.193 10.574 425 109.122 1183.72 496.892
734 0 43.0651 13.4448 579 99.9551 1184.81 495.123
735 0 43.0819 12.8592 554 101.309 1182.15 496.834
736 0 45.146 13.268 599 101.362 1182.38 495.649
737 0 46.0489 13.0296 600 102.882 1182.32 495.008
738 0 47.0791 12.086 569 104.483 1181.65 494.831
739 0 47.0793 10.9815 517 108.619 1182 493.822
740 0 49.0751 13.9786 686 101.305 1182.28 492.754
741 0 50.0571 13.4247 672 103.388 1182.56 492.927
742 0 51.0361 12.6185 644 106.365 1182.41 493.031
743 0 53.0715 13.1521 698 104.702 1182.83 492.832
744 0 54.0457 12.4709 674 107.226 1182.75 491.3
745 0 55.0325 13.1377 723 106.415 1182.78 490.88
746 0 56.0375 11.8314 663 110.002 1182.23 490.608
747 0 60.0211 12.5622 754 107.154 1182.77 489.707
748 0 59.0474 12.2952 726 110.138 1182.26 488.712
749 0 61.0898 13.7994 843 106.501 1182.69 488.463
750 0 63.0431 12.2615 773 110.256 1182.78 488.541
751 0 66.1396 12.8063 847 109.355 1182.49 486.469
752 0 66.0369 12.0842 798 112.102 1183.12 484.613
753 0 70.0318 12.8227 898 111.249 1183.3 483.207
754 0 72.1416 13.1408 948 110.596 1182.57 482.903
755 0 75.0542 12.3378 926 112.77 1182.79 481.243
756 0 77.1607 12.4027 957 113.101 1182.57 481.224
757 1 40.0394 11.6885 468 115.472 1182.74 496.385
758 0 43.1582 13.2304 571 109.888 1183.22 497.634
759 0 43.3281 11.6783 506 116.249 1184.31 490.593
760 0 46.0364 12.2077 562 115.044 1182.39 495.114
761 0 46.059 12.2669 565 115.888 1182.04 495.166
762 0 48.0247 14.0553 675 112.319 1182.03 494.516
763 0 51.0195 13.093 668 113.659 1182.27 493.723
764 0 50.0425 13.4486 673 116.345 1182.74 491.461
765 0 52.0759 13.7684 717 114.98 1182.03 490.925
766 0 52.0464 13.3342 694 116.872 1182.69 491.754
767 0 55.0359 13.2641 730 117.195 1182.43 491.475
768 0 57.0278 14.3263 817 115.14 1182.84 490.433
769 0 57.1037 13.817 789 118.161 1182.4 490.332
770 0 61.0588 15.3295 936 112.327 1182.65 489.585
771 0 61.0814 14.3415 876 118.209 1183.15 487.5
772 0 64.1098 13.4145 860 120.479 1182.45 486.502
773 0 66.0478 15.1557 1001 116.326 1182.5 486.393
774 0 67.078 14.4906 972 118.882 1182.77 485.996
775 0 69.0505 14.3953 994 119.612 1182.54 484.096
776 0 72.0905 14.2876 1030 119.374 1182.91 483.853
777 0 73.0689 14.9311 1091 118.797 1182.66 483.825
778 0 77.0881 15.3461 1183 118.262 1183.71 482.158
779 0 79.1252 15.5071 1227 118.986 1183.05 478.894
780 0 81.0789 15.6638 1270 118.469 1183.28 478.459
781 0 82.0829 13.5473 1112 124.619 1183.78 478.683
782 1 44.1611 11.5033 508 125.327 1183.82 497.677
783 0 44.0896 13.155 580 119.129 1184.74 496.024
784 0 47.1747 13.5242 638 113.893 1183.11 493.455
785 0 46.0614 13.6557 629 116.773 1184.8 496.315
786 0 49.1289 13.373 657 115.849 1185.26 495.798
787 0 48.1992 13.7139 661 117.281 1184.67 495.18
788 0 52.0316 13.069 680 117.624 1184.69 493.849
789 0 53.0681 12.4557 661 119.828 1184.55 493.53
790 0 55.0451 14.2974 787 115.295 1184.64 490.779
791 0 57.1396 13.0207 744 118.384 1184.14 491.446
792 0 59.122 13.9204 823 116.688 1183.95 490.572
793 0 61.1041 15.2036 929 113.928 1184.42 489.27
794 0 62.1277 13.601 845 118.025 1184.04 488.943
795 0 63.118 13.0074 821 122.294 1183.46 487.104
796 0 67.0345 14.3061 959 117.635 1183.95 487.199
797 0 68.0779 13.6461 929 121.89 1184.03 483.453
798 0 72.0912 14.6481 1056 118.702 1183.49 483.809
799 0 72.1717 13.6342 984 121.962 1183.98 482.022
800 0 77.1539 15.2163 1174 118.963 1183.91 480.033
801 0 79.0965 14.8426 1174 121.036 1183.91 477.077
802 0 81.2541 13.6855 1112 124.539 1183.65 477.01
803 0 85.2 14.4249 1229 121.653 1183.7 474.661
804 0 88.4681 14.0277 1241 122.678 1183.53 471.956
805 1 45.1684 11.3575 513 128.713 1183.68 490.045
806 0 48.1077 12.3889 596 125.529 1183.38 487.05
807 0 50.081 13.618 682 121.965 1182.54 482.29
808 0 52.1881 13.7579 718 124.825 1184.04 493.528
809 0 53.1669 12.5642 668 128.28 1184.34 493.734
810 0 55.141 13.674 754 126.145 1184.61 490.374
811 0 58.1235 13.8326 804 122.735 1184.17 492.255
812 0 58.2736 13.4366 783 126.701 1183.69 489.263
813 0 58.3534 13.4354 784 153.997 1182.69 489.318
814 0 63.2784 14.049 889 124.993 1183.78 485.873
815 0 65.1659 13.3045 867 124.235 1184.09 487.836
816 0 65.1021 13.379 871 125.571 1183.65 484.552
817 0 70.0939 13.4249 941 124.162 1183.24 482.582
818 0 73.0574 13.4141 980 117.705 1182.81 483.679
819 0 74.0515 12.3023 911 121.503 1182.76 482.026
820 0 75.1168 13.2727 997 121.722 1183.27 480.105
821 0 78.1089 12.7002 992 122.724 1183.59 479.454
822 0 81.0376 12.0191 974 125.023 1183.5 477.031
823 0 85.0684 13.8242 1176 120.413 1182.84 473.425
824 1 44.1257 10.7647 475 121.558 1183.5 494.328
825 0 47.0392 12.9041 607 116.45 1182.78 492.315
826 0 47.0327 12.6933 597 120.749 1183.36 492.633
827 0 48.1375 14.417 694 116.169 1184.62 493.772
828 0 49.053 12.619 619 119.48 1184.63 494.047
829 0 50.1177 13.8474 694 116.88 1183.85 492.513
830 0 52.1822 11.6898 610 120.169 1184.46 493.07
831 0 55.1058 12.8662 709 116.828 1184.23 491.405
832 0 57.155 14.2245 813 112.711 1183.92 489.892
833 0 61.2265 13.4909 826 124.396 1184.13 488.556
834 0 61.2697 13.0244 798 127.038 1183.74 486.935
835 0 64.1118 13.2737 851 125.206 1183.11 486.957
836 0 65.1708 14.3623 936 121.09 1183.91 487.427
837 0 69.2158 14.3609 994 119.472 1183.67 485.104
838 0 70.3722 13.7981 971 121.349 1184.19 484.273
839 0 71.1768 13.3049 947 122.385 1183.73 483.779
840 0 74.1512 13.2432 982 122.572 1183.66 480.575
841 0 77.2439 12.7518 985 122.052 1183.9 481.15
842 0 79.2455 12.3162 976 122.456 1184.15 479.578
843 0 84.3055 13.8307 1166 118.37 1183.53 478.543
844 0 84.2221 13.1082 1104 120.293 1183.59 474.644
845 0 86.1087 12.5191 1078 118.729 1183.71 477.063
846 0 91.2041 12.4885 1139 120.416 1184.36 473.946
847 0 94.2188 12.5771 1185 115.752 1184.23 472.734
848 0 95.2125 13.076 1245 111.184 1183.45 469.844
849 1 51.0758 13.1373 671 113.067 1184.85 492.288
850 0 53.0538 12.5345 665 112.42 1183.32 491.737
851 0 54.1689 12.5718 681 116.703 1184.01 489.756
852 0 57.2408 12.1766 697 118.871 1183.69 491.486
853 0 58.2727 12.8362 748 118.922 1183.8 490.139
854 0 61.1723 13.5028 826 117.609 1184.01 486.981
855 0 61.126 13.235 809 119.122 1183.32 486.706
856 0 65.0835 13.8284 900 116.552 1182.4 485.417
857 0 66.2533 13.4484 891 118.101 1183.54 484.773
858 0 68.1831 12.6718 864 120.796 1183.54 482.278
859 0 72.1887 13.8941 1003 117.121 1182.97 483.147
860 0 75.1575 14.2767 1073 116.96 1183.18 480.872
861 0 78.3014 14.1377 1107 118.949 1183.64 478.842
862 0 78.2548 12.9704 1015 122.688 1183.34 479.53
863 0 82.1578 13.8149 1135 120.974 1182.57 476.132
864 0 86.3088 14.6567 1265 118.88 1182.83 475.681
865 0 85.1636 14.0318 1195 122.661 1183.15 471.902
866 0 89.1415 13.114 1169 120.215 1183.51 472.256
867 0 93.1502 13.9667 1301 117.044 1183.75 470.852
868 1 47.0376 11.2889 531 116.71 1184.45 492.802
869 0 51.0273 12.8951 658 110.292 1183.5 490.43
870 0 52.0251 11.1292 579 112.363 1184.15 492.368
871 0 54.0407 13.1938 713 108.457 1184.45 490.024
872 0 55.1369 11.6256 641 113.103 1183.5 489.769
873 0 59.1487 13.4238 794 109.174 1183.16 488.118
874 0 61.1944 12.3214 754 111.744 1183.69 487.467
875 0 61.1944 12.3541 756 128.692 1184.67 487.497
876 0 65.0783 13.1073 853 111.295 1183.15 486.526
877 0 66.2331 12.9542 858 112.559 1183.19 483.935
878 0 68.1152 11.5246 785 117.308 1182.34 483.117
879 0 73.1086 12.926 945 119.571 1182.86 483.648
880 0 73.115 13.1574 962 116.042 1183.46 481.064
881 0 77.1194 13.2262 1020 115.188 1182.22 479.289
882 0 80.045 13.38 1071 116.921 1182.2 478.803
883 0 82.0522 13.5158 1109 118.665 1182.57 477.425
884 0 84.1951 12.3404 1039 121.462 1183.01 475.575
885 0 88.2346 13.1354 1159 120.19 1182.97 471.411
886 0 91.2675 12.6113 1151 122.728 1182.81 470.663
887 1 46.0623 12.3963 571 115.552 1182.47 493.76
888 0 48.017 12.8288 616 114.987 1183.25 492.44
889 0 48.0217 11.1824 537 119.592 1182.85 493.52
890 0 51.0266 12.4641 636 116.36 1184.9 491.925
891 0 54.058 13.3375 721 114.251 1184.36 490.835
892 0 56.0524 12.7202 713 116.122 1184.28 489.485
893 0 57.0794 13.2622 757 115.18 1184.68 488.659
894 0 59.0882 13.1668 778 115.144 1184.05 488.293
895 0 61.1698 13.8467 847 113.535 1183.78 487.283
896 0 63.0649 12.3206 777 117.358 1184.02 486.912
897 0 64.155 13.2024 847 115.038 1183.91 485.391
898 0 68.0626 15.3535 1045 109.259 1184.15 481.998
899 0 69.0758 13.2753 917 113.98 1184.02 483.058
900 0 71.1195 13.2312 941 113.844 1183.79 481.259
901 0 74.1522 13.8904 1030 112.076 1183.94 479.595
902 0 77.111 13.3574 1030 113.21 1184.47 479.565
903 0 80.1019 13.0459 1045 113.698 1183.63 478.113
904 0 83.0924 13.2985 1105 112.473 1183.56 475.798
905 0 88.1414 13.1493 1159 111.007 1183.62 474.958
906 1 46.0996 10.6509 491 116.621 1184.09 494.607
907 0 46.1275 12.292 567 113.459 1183.8 493.951
908 0 47.1719 12.1047 571 113.984 1184.07 492.736
909 0 49.0164 12.6692 621 111.58 1182.57 492.346
910 0 52.047 13.3533 695 108.796 1182.59 491.636
911 0 54.0229 13.5313 731 107.691 1182.53 490.482
912 0 53.0503 11.9132 632 113.035 1182.75 489.97
913 0 57.0849 13.8916 793 106.536 1182.15 488.348
914 0 57.0507 12.6203 720 112.076 1182.36 488.25
915 0 57.0802 11.6503 665 114.144 1182.93 488.352
916 0 61.0702 13.5418 827 109.358 1182.19 485.966
917 0 63.0683 11.8126 745 112.221 1182.16 487.207
918 0 64.0974 12.2626 786 112.165 1182.19 485.824
919 0 67.0654 11.7646 789 112.409 1182.42 485.158
920 0 69.0742 11.5383 797 113.128 1182.81 483.271
921 0 72.0714 12.5154 902 110.926 1182.97 481.619
922 0 74.1795 11.8631 880 112.686 1182.57 480.245
923 0 79.2843 12.9155 1024 108.832 1182.03 478.095
924 0 81.2021 13.3494 1084 108.515 1182.57 474.329
925 0 87.6126 13.5939 1191 110.176 1182.53 468.783
926 0 89.4023 12.0914 1081 113.49 1182.62 470.166
927 1 46.2154 10.9055 504 112.879 1182.19 491.288
928 0 48.1769 11.5408 556 113.732 1181.5 491.306
929 0 50.221 11.1308 559 114.655 1182.51 489.154
930 0 53.2332 13.037 694 110.073 1183.26 490.082
931 0 53.2632 11.9407 636 113.031 1183.08 490.261
932 0 56.1339 12.5771 706 111.184 1183.08 489.987
933 0 56.1795 12.1219 681 113.844 1183.38 487.932
934 0 60.1493 11.9702 720 113.204 1182.35 487.297
935 0 62.2136 13.6465 849 109.809 1183.03 486.345
936 0 65.1498 13.5994 886 109.236 1182.14 485.734
937 0 68.041 13.1244 893 108.869 1183.03 484.446
938 0 67.3065 12.2425 824 113.754 1182.75 483.11
939 0 70.3047 13.0717 919 112.897 1182.8 480.795
940 0 72.1078 13.8126 996 112.139 1182.9 479.276
941 0 76.1817 13.4941 1028 112.629 1182.03 479.338
942 0 77.3134 13.3612 1033 114.355 1182.3 478.102
943 0 82.2526 12.9722 1067 113.684 1182.58 476.568
944 1 40.0292 11.5166 461 104.681 1182.58 497.341
945 0 41.0684 11.1521 458 105.991 1182.35 497.95
946 0 41.1852 12.5531 517 105.896 1185.04 491.141
947 0 43.088 12.4165 535 104.981 1185.15 490.402
948 0 45.0865 11.6665 526 116.424 1182.9 495.521
949 0 47.1452 12.5782 593 116.282 1183.4 494.491
950 0 48.2944 11.8854 574 118.315 1183.61 494.167
951 0 50.1251 13.566 680 114.504 1183.13 492.026
952 0 52.3376 13.6613 715 113.961 1183.59 492.72
953 0 55.1335 14.5647 803 111.869 1184.05 491.036
954 0 56.2124 14.4096 810 112.672 1184.23 489.888
955 0 57.3135 13.3651 766 115.901 1183.25 489.614
956 0 58.2551 14.0932 821 115.488 1183.13 488.218
957 0 60.2714 15.0818 909 113.04 1183.99 488.977
958 0 61.2181 13.3947 820 118.833 1183.03 486.855
959 0 64.2609 15.0169 965 113.736 1183.03 486.193
960 0 66.2718 12.9165 856 120.904 1183.34 485.048
961 0 69.3 14.026 972 118.56 1182.92 482.266
962 0 71.285 14.1965 1012 118.209 1183.09 482.765
963 0 73.2877 13.9178 1020 120.018 1183.09 480.994
964 0 76.3218 13.5348 1033 121.048 1183.43 479.823
965 0 78.3875 13.8032 1082 121.071 1183.48 478.248
966 0 81.5334 15.2453 1243 118.22 1182.9 476.753
967 0 83.2731 15.3231 1276 118.586 1182.17 475.937
968 0 84.3936 14.4561 1220 121.409 1182.72 476.041
969 0 90.1534 14.3311 1292 121.061 1182.76 472.526
970 0 92.3372 13.4724 1244 125.462 1182.25 472.934
971 0 95.3023 13.0637 1245 126.92 1183.04 470.684
972 0 98.2947 12.8491 1263 124.323 1183.42 469.783
973 0 104.253 13.6975 1428 125.911 1183.6 467.728
974 0 103.137 13.4578 1388 126.913 1183.6 465.5
975 0 106.359 12.1946 1297 130.114 1183.76 466.651
976 1 56.1543 13.2314 743 123.983 1183.91 490.151
977 0 58.1887 12.6829 738 125.779 1183.58 488.308
978 0 60.0692 12.9351 777 125.858 1183.07 487.306
979 0 62.1909 13.2978 827 122.873 1183.55 487.139
980 0 65.1528 15.0876 983 118.423 1183.23 484.656
981 0 66.1367 12.9429 856 123.394 1182.7 484.704
982 0 69.0891 13.8806 959 120.948 1183.03 482.871
983 0 71.1402 13.1993 939 123.375 1183.29 482.17
984 0 74.1322 13.0712 969 123.018 1183.12 479.749
985 0 76.2034 14.3038 1090 119.587 1183.03 479.171
986 0 78.3319 11.9236 934 126.005 1183.27 477.438
987 0 83.4342 13.2679 1107 121.18 1183.35 476.835
988 1 44.2381 12.0937 535 121.054 1184.62 493.09
989 0 46.0467 11.901 548 110.474 1185.34 493.547
990 0 47.14 12.728 600 109.052 1184.05 492.293
991 0 48.0235 11.8692 570 110.884 1185.11 491.639
992 0 51.0241 12.0727 616 110.057 1185.26 490.325
993 0 53.0182 12.5806 667 107.958 1184.49 491.151
994 0 55.0334 12.6832 698 108.287 1185.47 489.895
995 0 55.0233 13.2671 730 108.156 1185.57 488.929
996 0 58.1581 12.2769 714 109.148 1185.03 489.688
997 0 58.1581 12.2769 714 136.458 1183.03 489.688
998 0 63.0586 12.5915 794 106.681 1185.09 486.146
999 0 63.0823 12.2697 774 108.291 1184.95 484.888
1000 0 63.0812 12.3333 778 129.542 1184.97 484.897
1001 0 69.0509 12.8166 885 105.428 1184.37 483.018
1002 0 68.0957 12.3062 838 108.049 1184.65 483.359
1003 0 73.0686 12.5225 915 105.723 1184.93 481.251
1004 0 73.0403 12.5821 919 106.815 1184.67 480.771
1005 0 77.0455 13.5245 1042 104.24 1184.75 478.589
1006 0 80.2729 12.8686 1033 104.2 1184.47 474.978
1007 0 81.1703 12.4923 1014 104.999 1184.68 475.564
1008 0 87.1598 13.1597 1147 102.343 1184.61 473.337
1009 0 91.3579 14.0546 1284 100.232 1184 470.643
1010 0 93.1965 12.0713 1125 109.07 1182.86 467.611
1011 0 97.2861 11.0807 1078 110.875 1183.16 467.512
1012 0 101.23 11.9629 1211 108.474 1183.6 463.678
1013 1 52.2059 12.7763 667 102.24 1182.94 488.652
1014 0 52.183 13.8359 722 100.42 1183.22 489.51
1015 0 54.0878 14.2546 771 99.5629 1183.25 488.241
1016 0 56.0712 12.6625 710 102.627 1183.16 488.106
1017 0 58.1053 12.4257 722 103.543 1183.19 487.028
1018 0 58.0944 12.3592 718 104.163 1182.99 487.049
1019 0 62.0745 13.6771 849 100.317 1183.13 484.839
1020 0 63.1216 12.6423 798 104.013 1182.94 483.234
1021 0 64.0932 12.6222 809 103.627 1182.45 482.015
1022 0 67.1032 13.0098 873 101.743 1182.59 482.923
1023 0 68.101 14.5519 991 99.7629 1183.26 482.821
1024 0 73.0894 12.9294 945 102.368 1183.02 480.729
1025 0 74.1023 12.8741 954 102.806 1183.17 478.286
1026 0 77.1327 12.4202 958 104.033 1182.63 478.242
1027 0 79.0966 13.2749 1050 102.242 1182.76 477.412
1028 0 82.189 12.8119 1053 103.587 1182.27 473.975
1029 0 86.1874 13.5983 1172 101.664 1182.93 472.91
1030 0 89.1083 15.4643 1378 98.0733 1182.88 469.905
1031 0 91.125 14.0247 1278 102.542 1182.78 471.016
1032 0 97.1703 13.9755 1358 102.049 1183.27 468.946
1033 1 49.0083 11.6715 572 107.264 1183.06 491.259
1034 0 52.3539 11.0211 577 106.787 1184.17 486.487
1035 0 54.0367 11.6772 631 107.908 1183.19 488.429
1036 0 57.0648 11.6709 666 106.853 1183.27 487.557
1037 0 60.07 12.2857 738 105.598 1183.11 486.34
1038 0 62.0951 10.9348 679 107.853 1183.06 486.295
1039 0 66.0365 12.2962 812 104.472 1182.19 482.82
1040 0 67.0488 12.2746 823 105.469 1182.23 481.248
1041 0 70.026 11.8242 828 106.585 1181.59 481.489
1042 0 72.0424 12.2706 884 106.471 1181.68 479.834
1043 0 72.0353 11.7998 850 108.289 1181.67 479.584
1044 0 75.0687 11.6693 876 109.253 1181.82 477.966
1045 0 78.0801 12.833 1002 107.156 1182.05 478.637
1046 0 79.0563 13.4967 1067 107.109 1182.45 476.336
1047 0 85.1017 14.042 1195 105.429 1182.42 474.563
1048 0 88.0719 13.2846 1170 107.51 1182.45 473.115
1049 0 91.128 14.0242 1278 105.979 1181.84 472.045
1050 0 93.1621 11.6571 1086 111.387 1182.11 470.614
1051 0 96.1681 12.9981 1250 108.428 1182.27 468.741
1052 0 99.0593 12.4673 1235 110.723 1182.79 467.883
1053 1 53.0806 12.2832 652 109.1 1182.48 488.218
1054 0 54.1311 12.5251 678 108.58 1182.62 488.845
1055 0 56.0987 12.8523 721 107.964 1183.12 489.499
1056 0 59.2491 13.958 827 105.175 1183.71 487.342
1057 0 58.2671 12.1853 710 109.962 1183.8 486.852
1058 0 61.144 11.6937 715 110.606 1183.56 486.561
1059 0 64.1554 13.2335 849 107.265 1182.69 484.424
1060 0 66.2541 11.3653 753 111.025 1183.73 483.891
1061 0 68.1849 12.9941 886 107.668 1183.41 483.098
1062 0 72.2664 13.3534 965 106.813 1183.52 480.906
1063 0 74.2838 12.8426 954 108.627 1183.68 480.07
1064 0 77.2583 12.8012 989 109.247 1184.06 477.968
1065 0 80.2494 13.0468 1047 109.193 1184.25 477.467
1066 0 81.3212 12.7273 1035 111.129 1183.84 475.981
1067 0 86.3323 14.2241 1228 107.226 1184.67 474.662
1068 0 87.2377 12.231 1067 112.531 1184.49 475.654
1069 0 87.2454 12.2413 1068 157.861 1183.49 475.598
1070 0 87.2418 12.2762 1071 157.328 1182.48 475.437
1071 1 48.2232 11.5919 559 113.326 1183.73 492.594
1072 0 49.0617 12.2499 601 113.905 1184.85 493.265
1073 0 52.019 12.2071 635 113.22 1185.13 492.324
1074 0 52.0645 13.1952 687 112.77 1185.23 491.325
1075 0 55.0501 12.5522 691 113.595 1185.04 491.644
1076 0 55.0708 11.8211 651 118.041 1184.31 490.559
1077 0 60.0439 13.7399 825 110.554 1185.73 488.722
1078 0 61.0278 13.3218 813 113.277 1185.42 489.022
1079 0 61.0532 12.7266 777 115.644 1184.67 489.115
1080 0 63.0424 12.6423 797 116.299 1184.93 488.301
1081 0 64.0414 12.5075 801 118.437 1184.94 486.327
1082 0 66.0633 13.2449 875 118.065 1184.7 485.307
1083 0 70.1042 12.6811 889 119.921 1184.28 484.726
1084 0 73.0302 13.8299 1010 117.087 1184.93 483.328
1085 0 75.1336 13.4693 1012 118.556 1183.67 482.75
1086 0 75.1179 13.6186 1023 120.697 1184.68 481.384
1087 0 79.1499 13.7587 1089 119.983 1184.43 479.397
1088 0 82.1926 13.298 1093 121.096 1183.95 478.634
1089 0 86.2245 14.3463 1237 118.116 1184.12 477.671
1090 0 85.1981 13.9205 1186 120.987 1183.72 475.891
1091 0 89.1776 14.0394 1252 121.507 1184.18 472.515
1092 0 94.1099 14.2174 1338 120.281 1184.12 471.254
1093 0 97.1531 13.103 1273 123.769 1183.75 471.545
1094 1 48.0589 11.1114 534 120.152 1185.15 496.245
1095 0 49.059 12.3321 605 118.734 1184.4 493.17
1096 0 49.0267 12.483 612 119.711 1183.84 493.938
1097 0 52.0842 12.787 666 117.821 1183.88 491.776
1098 0 55.0848 13.5609 747 114.877 1184.31 491.428
1099 0 56.0901 13.8171 775 114.756 1184.23 491.375
1100 0 56.0545 14.1291 792 114.753 1183.88 490.895
1101 0 59.0729 14.9138 881 113.031 1183.52 488.577
1102 0 60.0725 13.3672 803 118.178 1184.07 489.184
1103 0 62.0968 12.9797 806 119.019 1183.52 488.055
1104 0 65.0854 13.5668 883 117.06 1183.92 487.074
1105 0 68.1229 15.3252 1044 112.642 1183.93 484.321
1106 0 70.0963 13.781 966 116.646 1184.69 485.939
1107 0 73.1365 13.8098 1010 117.444 1183.97 483.842
1108 0 75.1837 15.1229 1137 114.853 1184.43 482.221
1109 0 77.2371 13.1025 1012 120.577 1184.6 481.814
1110 0 78.1521 13.4353 1050 120.302 1183.77 481.821
1111 0 83.1293 13.9542 1160 118.315 1184.08 478.889
1112 1 41.0517 11.6682 479 129.061 1184.45 497.877
1113 0 43.1388 12.68 547 122.567 1183.7 498.04
1114 0 44.0309 12.9682 571 118.567 1182.54 495.725
1115 0 44.0364 13.0347 574 139.376 1182.55 495.796
1116 0 48.0367 12.8235 616 117.627 1183.63 495.823
1117 0 48.0838 12.7694 614 118.37 1183.81 495.933
1118 0 50.1367 12.7053 637 115.67 1183.28 494.444
1119 0 51.1254 12.8899 659 114.781 1182.92 492.912
1120 0 52.1016 12.8787 671 115.708 1183.18 489.82
1121 0 53.1851 12.8231 682 116.89 1183.53 492.21
1122 0 56.1005 14.1888 796 112.789 1182.66 489.165
1123 0 57.1836 13.2556 758 115.604 1182.4 490.131
1124 0 60.1305 13.7202 825 114.845 1182.54 486.879
1125 0 60.1178 13.3405 802 117.08 1183.01 488.052
1126 0 64.0812 13.5609 869 115.679 1183.21 486.157
1127 0 66.0996 13.0863 865 117.706 1183.07 485.457
1128 0 67.0757 13.8947 932 117.431 1183.06 483.396
1129 0 68.1 13.5683 924 120.097 1183.29 482.808
1130 0 70.0383 13.7639 964 120.51 1183.13 481.725
1131 0 74.0921 13.7666 1020 120.277 1183.86 481.162
1132 0 76.1895 14.0702 1072 120.264 1183.72 479.884
1133 0 80.1581 13.8601 1111 120.726 1183.69 478.854
1134 0 83.1831 14.2577 1186 120.827 1183.56 477.632
1135 0 85.1006 12.9494 1102 124.447 1183.27 478.206
1136 0 87.1887 13.6141 1187 123.164 1183.51 476.053
1137 1 43.0511 12.2645 528 126.705 1182.96 496.614
1138 0 43.0548 12.0776 520 128.05 1182.95 495.506
1139 0 48.0908 13.6617 657 121.778 1183.07 493.74
1140 0 48.0753 13.0629 628 126.135 1183.34 494.314
1141 0 48.0969 13.4936 649 123.73 1182.65 494.153
1142 0 52.0967 14.761 769 119.103 1182.21 493.229
1143 0 52.0839 14.7071 766 147.82 1182.2 493.189
1144 0 55.1685 14.9179 823 119.645 1182.76 492.356
1145 0 57.0651 13.5459 773 123.256 1182.55 489.768
1146 0 59.0647 13.9 821 122.13 1182.36 490.026
1147 0 62.1213 14.5361 903 119.942 1181.9 488.175
1148 0 63.079 13.5544 855 122.415 1181.99 489.612
1149 0 66.0722 14.3933 951 119.744 1181.44 488.345
1150 0 64.1663 13.8235 887 124.171 1180.92 486.047
1151 0 69.1081 14.3399 991 120.979 1181.9 485.165
1152 0 72.1863 15.7925 1140 116.665 1181.76 482.218
1153 0 74.1273 14.9203 1106 118.484 1181.82 482.414
1154 0 76.0829 14.0242 1067 120.741 1181.73 482.503
1155 0 79.1276 14.2049 1124 121.4 1182.43 478.312
1156 0 83.1124 13.6442 1134 120.81 1181.56 479.601
1157 0 83.2415 13.7552 1145 122.238 1181.83 476.366
1158 0 87.0838 14.2392 1240 119.302 1182.69 477.144
1159 1 43.1072 12.4805 538 121.151 1182.39 496.732
1160 0 44.0562 12.2571 540 121.883 1181.74 496.817
1161 0 47.0141 13.379 629 126.679 1181.81 493.952
1162 0 49.0231 13.1979 647 129.087 1182.07 494.094
1163 0 49.0822 13.4468 660 129.161 1181.07 493.764
1164 0 50.0495 12.7274 637 131.359 1180.81 491.63
1165 0 53.0668 13.662 725 127.025 1181.13 490.636
1166 0 53.0348 12.275 651 131.103 1181.51 491.017
1167 0 56.0484 13.0245 730 128.011 1182.14 488.633
1168 0 58.0552 12.8498 746 127.869 1181.91 487.641
1169 0 61.0263 14.0759 859 123.335 1180.61 487.143
1170 0 63.0832 13.284 838 125.35 1181.87 486.946
1171 0 63.0815 13.3161 840 126.681 1181.71 484.437
1172 0 67.1634 13.3257 895 125.365 1182.33 484.43
1173 0 70.0629 14.2586 999 123.226 1182.05 483.914
1174 0 70.0715 14 981 126.134 1182.35 480.981
1175 0 74.0786 14.4981 1074 121.487 1182.01 482.493
1176 0 75.1081 12.8348 964 128.496 1182.41 479.209
1177 0 78.0479 13.5045 1054 125.611 1181.8 478.297
1178 0 81.0698 13.6549 1107 125.462 1181.84 477.367
1179 0 83.1156 13.6076 1131 126.172 1181.73 475.805
1180 0 87.2668 13.8999 1213 125.273 1181.92 473.698
1181 1 42.1262 12.059 508 120.911 1182.18 495.494
1182 0 42.1785 12.3048 519 116.871 1183.35 492.17
1183 0 43.2332 12.7217 550 117.205 1182.7 490.216
1184 0 46.0445 12.6182 581 124.864 1181.43 493.251
1185 0 49.0476 13.2728 651 122.412 1182.14 492.791
1186 0 50.1108 12.5522 629 124.647 1182.11 491.154
1187 0 51.1122 13.6171 696 121.72 1182.44 491.191
1188 0 54.0662 12.6697 685 122.873 1182.13 491.574
1189 0 53.0232 12.8246 680 123.637 1181.34 490.103
1190 0 55.0421 13.2444 729 121.032 1181.38 489.979
1191 0 58.0982 13.1157 762 121.512 1182.03 487.196
1192 0 61.0516 12.5304 765 120.982 1182 486.501
1193 0 64.0323 13.4776 863 117.811 1182.8 485.638
1194 0 65.0312 12.717 827 118.209 1182.37 485.008
1195 0 66.0571 12.5346 828 119.376 1182.07 481.886
1196 0 70.1084 12.3238 864 113.883 1183.59 483.929
1197 0 71.0724 12.4521 885 115.427 1183.31 481.937
1198 0 73.1236 12.3626 904 117.399 1183.61 481.754
1199 0 76.0631 12.4765 949 115.561 1183.37 480.758
1200 0 78.1001 11.6645 911 118.934 1183.17 475.447
1201 1 39.1154 10.5329 412 112.323 1182.98 496.765
1202 0 39.0115 10.3559 404 112.351 1182.05 496.238
1203 0 42.0384 12.8454 540 114.181 1181.92 495.669
1204 0 44.1239 13.6207 601 117.496 1182.17 494.13
1205 0 44.1624 12.9975 574 119.493 1181.91 495.066
1206 0 44.1517 12.14 536 123.836 1182.6 494.3
1207 0 47.1161 12.9467 610 121.22 1182.59 493.143
1208 0 48.2316 13.6425 658 120.655 1182.67 492.071
1209 0 47.299 13.7846 652 121.847 1182.87 490.471
1210 0 50.1206 12.6495 634 122.281 1181.91 492.784
1211 0 52.07 13.8083 719 121.085 1182.07 489.206
1212 0 52.056 12.6787 660 124.189 1182.32 488.994
1213 0 56.1937 12.3679 695 123.715 1182.67 489.168
1214 0 58.0819 13.3088 773 121.598 1182.5 487.229
1215 0 58.2175 12.3502 719 125.214 1182.56 486.871
1216 0 59.1734 12.607 746 123.461 1182.76 486.338
1217 0 63.2339 13.2998 841 119.878 1183.04 485.095
1218 0 66.0922 14.2377 941 117.113 1182.62 483.756
1219 0 67.2223 13.8793 933 117.494 1182.26 483.138
1220 0 68.1313 11.8448 807 123.833 1182.42 482.219
1221 0 70.121 14.5035 1017 117.859 1182.95 478.746
1222 0 73.1011 13.0504 954 115.251 1182.22 480.14
1223 0 77.1391 12.7173 981 115.067 1181.59 479.718
1224 0 76.0698 12.3308 938 119.168 1182.25 476.565
1225 0 81.1755 13.8465 1124 115.996 1182.87 475.648
1226 0 86.1359 13.2813 1144 117.977 1182.82 475.076
1227 0 88.1641 13.1913 1163 117.617 1182.76 472.207
1228 1 47.0168 11.3364 533 116.447 1183.2 493.762
1229 0 48.0313 12.3461 593 113.583 1183.8 492.073
1230 0 48.02 11.7035 562 118.441 1183.65 490.286
1231 0 54.0251 13.5307 731 117.466 1183.84 489.867
1232 0 54.095 12.8478 695 120.007 1183.93 489.197
1233 0 57.1734 12.8731 736 119.75 1184.37 489.186
1234 0 59.0428 13.2954 785 118.462 1183.82 486.682
1235 0 58.1326 12.8671 748 121.511 1183.56 486.126
1236 0 63.1337 13.1784 832 118.767 1183.99 484.632
1237 0 64.0524 13.5046 865 119.177 1182.58 484.965
1238 0 68.1006 12.8927 878 119.73 1180.9 482.852
1239 0 67.1004 13.6661 917 120.626 1181.32 481.192
1240 0 69.1251 12.3833 856 123.902 1181.69 480.891
1241 0 72.1966 12.8122 925 123.254 1183.23 479.621
1242 0 75.1035 12.6625 951 123.473 1183.11 477.481
1243 0 79.1069 13.9811 1106 119.031 1182.27 477.728
1244 0 80.1575 11.6521 934 126.357 1182.79 476.658
1245 0 82.2251 14.1319 1162 122.238 1181.5 471.392
1246 0 84.3642 13.098 1105 124.722 1181.32 470.929
1247 0 88.1366 13.2068 1164 115.673 1182.23 471.113
1248 0 91.167 12.9542 1181 115.08 1181.75 472.437
1249 1 50.0616 11.4659 574 112.465 1183.08 491.397
1250 0 53.0845 12.9605 688 108.583 1183.82 487.823
1251 0 52.0787 11.8283 616 118.641 1180.38 489.101
1252 0 55.0267 12.0123 661 117.52 1180.24 490.2
1253 0 56.0459 11.9188 668 118.118 1180.34 489.039
1254 0 58.017 12.7894 742 116.031 1181.27 488.183
1255 0 59.0325 12.1797 719 118.821 1181.53 485.885
1256 0 61.021 12.3072 751 119.108 1181.4 485.051
1257 0 64.1074 12.1671 780 119.068 1180.91 482.462
1258 0 66.0445 12.0222 794 120.368 1181.56 481.878
1259 0 69.0301 12.864 888 118.351 1180.57 479.56
1260 0 72.0995 11.7199 845 120.508 1181.17 481.602
1261 0 73.0726 11.8649 867 121.054 1180.52 480.306
1262 0 77.0466 13.2777 1023 117.799 1180.65 476.533
1263 0 81.0354 12.9326 1048 117.705 1180.66 476.479
1264 0 83.0616 12.2439 1017 120.403 1180.14 474.682
1265 1 44.0224 10.9717 483 117.493 1180.18 492.089
1266 0 46.062 12.1575 560 113.432 1183.62 492.548
1267 0 49.1492 12.4926 614 111.086 1183.58 494.769
1268 0 48.0215 11.8905 571 116.496 1184.12 492.574
1269 0 49.1706 11.1652 549 119.556 1183.99 491.769
1270 0 50.0298 11.693 585 119.407 1183.58 491
1271 0 50.1015 11.5166 577 121.487 1183.53 490.412
1272 0 56.0264 11.6552 653 118.862 1183.5 490.274
1273 0 56.0264 11.6374 652 149.055 1182.5 490.235
1274 0 57.0871 11.9466 682 120.431 1184.46 488.636
1275 0 60.0419 12.2081 733 119 1184.83 487.746
1276 0 60.0538 12.239 735 119.261 1184.23 486.88
1277 0 63.0507 13.1799 831 115.285 1184.37 487.397
1278 0 63.0567 10.8791 686 122.971 1184.99 485.238
1279 0 67.0143 12.7137 852 118.318 1184.8 483.333
1280 0 69.0527 12.628 872 118.568 1185.07 482.679
1281 0 68.0443 10.9194 743 124.875 1185.56 481.428
1282 0 72.0584 11.8376 853 120.9 1185.47 479.856
1283 0 74.0709 12.1505 900 120.914 1185.13 478.662
1284 0 76.1038 10.5514 803 125.43 1185.36 479.706
1285 0 79.1239 12.8027 1013 121.015 1183.33 476.959
1286 0 82.0633 11.6008 952 122.672 1184.16 477.095
1287 0 88.1115 13.8234 1218 116.586 1184.38 475.317
1288 0 89.0928 12.2008 1087 122.302 1184.57 471.057
1289 0 89.0516 11.8808 1058 123.694 1184.16 472.43
1290 1 46.0763 10.895 502 119.291 1185.31 493.544
1291 0 46.0187 11.2346 517 118.764 1184.74 491.731
1292 0 46.0732 11.8507 546 118.901 1184.51 491.932
1293 0 48.0716 11.5661 556 121.052 1185.83 492.437
1294 0 50.0812 11.3416 568 122.665 1184.96 491.66
1295 0 49.1032 11.6897 574 124.267 1184.51 490.19
1296 0 53.1146 11.4846 610 122.689 1184.95 490.133
1297 0 55.093 13.9219 767 96.558 1184.65 487.314
1298 0 55.1076 12.521 690 120.443 1184.34 488.228
1299 0 55.1828 12.2502 676 121.293 1184.38 486.416
1300 0 57.0619 12.1272 692 119.566 1184.58 487.566
1301 0 59.063 12.8676 760 117.783 1183.26 487.467
1302 0 59.0329 11.2649 665 122.883 1184.1 485.761
1303 0 63.136 12.7978 808 117.566 1184.75 484.842
1304 0 63.2137 13.2883 840 116.364 1183.75 483.644
1305 0 67.0961 13.9799 938 113.547 1183.29 482.953
1306 0 68.1598 13.8351 943 113.998 1183.78 481.689
1307 0 68.1598 13.9525 951 136.956 1183.76 481.647
1308 0 74.0666 13.7444 1018 113.873 1183.32 479.728
1309 0 74.2013 13.4095 995 115.236 1184.04 479.245
1310 0 78.2806 14.1414 1107 113.2 1182.82 477.101
1311 0 79.1736 14.2724 1130 113.408 1183.55 474.542
1312 0 82.2345 14.7505 1213 111.613 1183.32 474.094
1313 0 83.3623 12.6316 1053 115.558 1183.57 475.336
1314 0 87.3548 13.0502 1140 114.484 1182.5 472.931
1315 0 91.192 13.9925 1276 112.166 1182.69 472.476
1316 0 95.4542 14.7086 1404 110.119 1183.3 469.53
1317 1 54.2754 11.6812 634 111.486 1182.25 488.574
1318 0 54.2754 11.6259 631 134.629 1182.24 488.601
1319 0 54.1143 9.86801 534 111.054 1182.88 488.478
1320 0 58.1094 12.769 742 103.415 1181.92 486.218
1321 0 58.0494 11.8692 689 106.57 1182.94 488.405
1322 0 60.1656 12.4988 752 105.714 1182.63 486.573
1323 0 63.1034 13.8978 877 101.934 1182.77 485.538
1324 0 67.2131 13.9556 938 101.325 1181.87 483.568
1325 0 66.2809 12.0548 799 107.896 1183.13 484.11
1326 0 71.2015 13.2862 946 104.893 1183.56 482.987
1327 0 73.1322 13.8516 1013 104.783 1183.29 481.935
1328 0 77.2523 14.4462 1116 103.204 1183.72 481.529
1329 0 79.1816 13.7532 1089 105.549 1183.12 479.788
1330 0 80.1279 13.6407 1093 106.46 1182.82 478.344
1331 0 82.2661 14.21 1169 106.203 1183.42 476.896
1332 0 87.1368 15.0683 1313 105.158 1183.16 475.794
1333 0 88.191 14.3552 1266 107.702 1183.06 474.206
1334 0 90.2155 13.9 1254 109.666 1183.18 471.686
1335 0 93.1758 13.3618 1245 112.139 1183.61 473.518
1336 0 95.1449 12.9487 1232 114.157 1183.59 472.981
1337 1 52.2946 10.613 555 113.667 1183.28 487.016
1338 0 56.168 12.1243 681 107.157 1184.25 478.333
1339 0 55.245 10.1186 559 105.005 1182.45 490.911
1340 0 57.0679 10.5488 602 107.161 1181.97 492.477
1341 0 58.0566 11.1443 647 107.549 1182.11 489.889
1342 0 61.1494 9.64849 590 106.547 1182.12 488.005
1343 0 65.1591 10.4206 679 104.27 1182.68 485.39
1344 0 64.1485 11.1772 717 104.218 1182.68 486.257
1345 0 69.1164 11.5457 798 105.024 1182.6 482.343
1346 0 71.1324 10.8389 771 104.651 1182.55 483.462
1347 0 71.0446 9.90926 704 106.399 1182.2 482.328
1348 0 78.0878 11.1029 867 102.642 1182.31 480.755
1349 0 79.1101 10.9973 870 103.803 1182.59 478.63
1350 0 82.3479 12.7872 1053 101.243 1183.3 475.637
1351 0 84.2834 11.2478 948 104.187 1183.25 476.493
1352 1 44.1433 11.6439 514 102.92 1182.6 494.827
1353 0 47.1385 11.7314 553 102.237 1182.7 495.344
1354 0 50.0482 12.5279 627 98.933 1182.23 493.022
1355 0 52.1236 13.0075 678 97.1785 1181.47 493.77
1356 0 51.0378 11.658 595 102.079 1181.84 491.961
1357 0 53.1512 12.361 657 99.8311 1182.41 491.493
1358 0 55.0702 12.3479 680 99.7603 1182.63 490.053
1359 0 57.1214 12.9023 737 98.7069 1182.42 489.402
1360 0 59.1466 13.7117 811 96.9951 1183.33 488.126
1361 0 60.1113 12.061 725 99.7752 1182.32 488.575
1362 0 62.1968 13.2643 825 97.7976 1182.47 486.692
1363 0 64.1266 12.4441 798 98.5789 1182.51 487.917
1364 0 65.1622 12.5379 817 98.2215 1182.05 485.142
1365 0 67.0877 12.506 839 98.1716 1183.15 484.436
1366 0 71.1412 13.3678 951 95.9506 1182.53 482.016
1367 0 73.134 13.0309 953 95.999 1182.68 481.044
1368 0 76.1633 12.5914 959 97.4901 1182.7 479.893
1369 0 78.2435 13.8286 1082 96.3207 1182.85 477.483
1370 0 80.1171 12.332 988 99.5 1182.33 478.803
1371 0 83.1148 13.9325 1158 97.8273 1183.04 477.516
1372 0 85.1295 13.8965 1183 100.162 1183.64 475.725
1373 0 87.17 11.9078 1038 104.758 1183.4 476.61
1374 1 45.2063 12.2771 555 102.157 1181.76 493.299
1375 0 49.2287 12.2287 602 100.098 1182.21 492.872
1376 0 49.1141 11.2391 552 104.859 1181.94 494.322
1377 0 52.2142 11.9891 626 103.781 1182.19 492.099
1378 0 52.1215 11.972 624 105.194 1182.35 491.516
1379 0 54.1286 12.8583 696 103.71 1182.97 489.815
1380 0 56.1009 11.9606 671 106.058 1182.87 489.876
1381 0 58.1548 11.9509 695 105.622 1182.95 489.164
1382 0 60.0615 13.4029 805 103.773 1182.96 488.117
1383 0 60.1488 12.2696 738 107.327 1182.89 486.31
1384 0 64.1272 12.7247 816 105.354 1182.07 485.811
1385 0 68.1374 14.5882 994 100.538 1182.08 483.556
1386 0 69.0271 12.8645 888 104.794 1182.29 483.788
1387 0 74.0692 14.0949 1044 101.309 1182.56 481.764
1388 0 76.0351 14.6511 1114 99.6436 1182.19 480.432
1389 0 78.0725 13.5131 1055 103.76 1182.29 478.55
1390 0 79.0237 12.4267 982 107.377 1183.18 478.616
1391 0 84.0489 13.4564 1131 104.451 1182.48 478.037
1392 0 82.0458 12.7246 1044 144.625 1182.44 476.604
1393 1 46.1427 10.6192 490 105.771 1182.43 496.12
1394 0 47.1019 11.4008 537 106.443 1182.67 495.11
1395 0 49.2574 12.526 617 105.598 1181.88 489.887
1396 0 52.0879 11.0966 578 105.381 1181.78 491.232
1397 0 52.1161 12.664 660 104.908 1182.17 492.791
1398 0 53.1831 12.1467 646 106.012 1182.53 490.859
1399 0 56.2395 12.3223 693 104.948 1181.97 489.957
1400 0 56.1661 11.6262 653 107.882 1182.21 488.577
1401 0 60.134 12.073 726 105.486 1182.65 487.303
1402 0 63.1901 11.5524 730 105.455 1183.05 485.696
1403 0 66.1569 11.5937 767 104.516 1183.16 485.814
1404 0 67.1638 11.7027 786 105.651 1183.09 483.692
1405 0 70.1346 13.246 929 102.368 1182.58 482.508
1406 0 71.2031 12.1624 866 105.71 1182.74 480.712
1407 0 73.2153 12.0057 879 105.995 1182.87 479.677
1408 0 78.15 12.0026 938 106.374 1182.48 477.672
1409 0 78.1428 11.7093 915 108.102 1181.94 476.545
1410 0 81.1187 11.477 931 108.284 1181.89 477.024
1411 0 84.1544 12.2038 1027 110.182 1182.51 473.491
1412 0 86.1718 11.1173 958 111.822 1182.22 475.121
1413 0 89.2282 11.6555 1040 111.518 1182.61 472.277
1414 0 92.2405 12.0554 1112 112.698 1183.62 468.129
1415 1 48.2201 11.883 573 106.927 1183.82 487.916
1416 0 50.2887 12.0305 605 107.344 1183.31 486.243
1417 0 51.3375 12.5639 645 106.403 1184.09 485.561
1418 0 52.084 11.6735 608 107.715 1184.18 487.581
1419 0 53.0238 11.8626 629 108.126 1183.12 487.7
1420 0 53.0238 11.938 633 144.682 1182.09 487.686
1421 0 58.0714 11.6753 678 108.249 1183.49 485.768
1422 0 61.1048 13.4523 822 104.865 1183.69 484.438
1423 0 62.2157 11.9263 742 108.123 1183.65 484.363
1424 0 63.0685 11.765 742 107.794 1183.62 483.601
1425 0 65.1017 12.4574 811 107.122 1183.88 482.043
1426 0 68.1229 12.6683 863 106.261 1185.48 483.476
1427 0 71.1838 12.826 913 106.16 1185.23 480.877
1428 0 71.146 11.6099 826 109.903 1184.82 479.145
1429 0 73.2666 13.9081 1019 105.97 1184.87 476.116
1430 0 78.0999 14.6095 1141 103.229 1184.22 476.784
1431 0 80.2047 12.9793 1041 108.544 1183.73 474.837
1432 0 84.1675 13.687 1152 105.896 1183.82 474.571
1433 0 84.2236 13.1911 1111 107.869 1183.65 472.685
1434 0 89.1695 13.7154 1223 106.313 1183.41 470.948
1435 1 46.0203 11.0603 509 113.715 1184.15 492.02
1436 0 47.0183 12.4632 586 112.471 1184.35 489.353
1437 0 48.0234 12.2024 586 111.957 1183.67 489.324
1438 0 50.1573 13.0988 657 110.957 1180.61 485.688
1439 0 49.293 12.1112 597 116.34 1181.77 487.127
1440 0 53.2569 13.632 726 111.273 1181.85 485.314
1441 0 55.1844 13.7176 757 111.555 1181.71 486.135
1442 0 54.18 13.3629 724 114.709 1181.92 485.688
1443 0 53.1508 11.8531 630 120.706 1182.21 486.116
1444 0 57.0804 13.3321 761 116.616 1182.16 484.829
1445 0 59.1199 12.4662 737 119.938 1182.21 484.631
1446 0 60.1213 11.9092 716 121.553 1182.63 484.567
1447 0 63.138 12.5598 793 120.605 1182.11 484.243
1448 0 65.1259 12.3453 804 121.552 1182.56 481.888
1449 0 68.1302 14.1053 961 116.812 1183.13 482.87
1450 0 71.2164 14.7157 1048 115.366 1183.19 480.685
1451 0 72.1362 14.0567 1014 118.84 1182.61 479.986
1452 0 74.2014 12.3178 914 124.109 1182.91 478.817
1453 0 78.1068 13.4175 1048 120.443 1182.91 478.158
1454 0 78.1983 13.0693 1022 122.141 1181.96 476.488
1455 0 82.1347 13.1369 1079 121.715 1182.12 473.783
1456 0 86.1119 13.8889 1196 119.034 1182.13 474.003
1457 1 43.1936 11.4369 494 128.516 1181.75 492.427
1458 0 46.0845 11.8478 546 129.238 1182.53 491.385
1459 0 48.0291 12.9921 624 124.189 1182.29 492.131
1460 0 49.0531 13.6995 672 119.577 1184.19 486.189
1461 0 49.0531 13.7402 674 141.346 1184.19 486.191
1462 0 51.0982 13.3664 683 121.485 1184.69 484.922
1463 0 53.0902 13.9762 742 119.379 1184.61 484.83
1464 0 53.0879 13.7508 730 120.322 1184.49 485.295
1465 0 56.1229 14.6464 822 116.439 1183.39 486.086
1466 0 57.1219 13.1998 754 119.244 1183.09 485.873
1467 0 59.2342 13.1849 781 114.828 1183.63 484.825
1468 0 61.1825 12.8958 789 114.989 1183.71 485.825
1469 0 63.1169 13.7839 870 112.532 1183.63 483.631
1470 0 67.1786 13.9181 935 110.584 1183.72 483.379
1471 0 69.144 13.7973 954 111.077 1184.02 481.586
1472 0 71.2011 14.4661 1030 109.078 1183.16 481.632
1473 0 74.1181 14.3959 1067 108.782 1182.99 480.513
1474 0 75.1421 12.656 951 113.443 1183.34 479.358
1475 0 79.0532 13.1684 1041 111.458 1183.24 476.848
1476 0 82.1105 14.7484 1211 107.095 1183.64 476.528
1477 0 83.0882 13.8166 1148 109.726 1183.49 475.939
1478 0 88.0672 14.2732 1257 107.792 1183.58 473.919
1479 0 90.0558 14.6798 1322 107.61 1184.05 471.309
1480 0 92.0965 13.4316 1237 110.524 1183.78 470.647
1481 0 97.0827 13.4215 1303 109.534 1183.27 467.764
1482 1 50.0369 11.5915 580 109.588 1183.21 491.484
1483 0 51.0396 11.9319 609 112.811 1183.28 489.81
1484 0 53.3186 11.7595 627 111.818 1183.61 489.029
1485 0 56.021 12.888 722 108.565 1183.62 488.058
1486 0 57.0369 12.4481 710 109.934 1184.07 487.993
1487 0 58.0817 12.5685 730 110.159 1183.6 487.814
1488 0 58.0817 12.4996 726 139.233 1184.62 487.821
1489 0 63.1209 12.8008 808 108.406 1184.03 484.839
1490 0 65.0694 13.9082 905 106.743 1184.51 483.842
1491 0 66.1296 12.8838 852 108.719 1184.42 482.927
1492 0 70.1835 12.9518 909 108.781 1183.02 482.13
1493 0 73.1345 14.822 1084 105.008 1183.34 482.047
1494 0 76.2005 14.7768 1126 105.857 1183.51 480.719
1495 0 78.1718 13.4064 1048 109.759 1182.74 479.526
1496 0 80.1243 13.3293 1068 110.053 1182.41 475.754
1497 0 85.1485 14.187 1208 107.101 1183.26 476.597
1498 0 88.2283 13.2724 1171 109.296 1183.12 476.401
1499 0 92.1211 13.0698 1204 110.132 1183.12 473.03
1500 0 94.2944 11.5701 1091 113.838 1182.9 472.442
1501 1 46.0578 11.225 517 117.456 1183.64 492.05
1502 0 50.0821 11.7807 590 114.976 1183.52 489.939
1503 0 55.111 13.1008 722 103.813 1183.68 490.87
1504 0 53.1105 12.3516 656 104.825 1183.85 489.223
1505 0 54.0937 13.4396 727 104.391 1184.1 489.845
1506 0 53.0589 13.2306 702 110.668 1183.29 489.397
1507 0 52.0484 12.277 639 115.491 1184.21 488.092
1508 0 55.1265 12.4441 686 113.289 1184.29 489.347
1509 0 55.2693 12.1768 673 115.84 1183.8 488.906
1510 0 56.211 13.5917 764 111.648 1183.39 488.696
1511 0 60.1714 12.6971 764 111.062 1183.29 486.306
1512 0 62.1666 12.4826 776 110.71 1183.49 487.076
1513 0 65.0793 12.9688 844 108.162 1183.33 485.352
1514 0 66.1481 13.243 876 106.614 1183.3 483.664
1515 0 69.151 12.7547 882 106.524 1183.12 482.838
1516 0 71.1402 11.7093 833 108.717 1182.81 482.546
1517 0 73.1584 12.4798 913 106.536 1182.55 479.818
1518 0 75.1735 13.5154 1016 105.422 1182.34 479.148
1519 0 77.2379 11.8077 912 110.701 1182.9 478.034
1520 0 78.2579 12.4333 973 110.628 1182.99 477.453
1521 0 82.1968 11.6185 955 112.368 1182.39 477.847
1522 1 44.019 10.3364 455 118.295 1183.62 495.495
1523 0 47.0776 11.874 559 115.504 1183.07 494.343
1524 0 48.1867 12.3063 593 116.514 1182.04 493.737
1525 0 48.2474 11.7312 566 119.572 1182.92 494.599
1526 0 48.2372 11.3605 548 123.272 1183.35 491.471
1527 0 50.307 12.7219 640 120.417 1183.35 490.82
1528 0 51.3417 12.7966 657 120.828 1182.15 491.44
1529 0 54.3315 13.4544 731 119.016 1181.94 490.629
1530 0 54.2982 13.1128 712 121.84 1182.94 490.48
1531 0 56.3318 12.4264 700 124.459 1183.09 490.207
1532 0 57.2892 12.114 694 126.829 1182.73 489.49
1533 0 60.1674 14.5095 873 121.179 1182.04 488.845
1534 0 63.2188 13.0657 826 125.295 1182.61 488.59
1535 0 61.3631 12.1734 747 131.311 1182.88 487.383
1536 0 65.2856 13.2648 866 128.491 1181.73 484.888
1537 0 66.367 12.6117 837 130.447 1181.13 484.541
1538 0 69.2641 13.1092 908 128.979 1181.63 484.349
1539 0 71.3633 14.3771 1026 126.421 1181.5 484.697
1540 0 74.4008 14.5563 1083 125.191 1181.49 484.417
1541 0 74.2032 13.2609 984 132.161 1181.39 481.284
1542 0 80.2853 13.7261 1102 128.179 1181.57 481.013
1543 0 79.2377 13.0367 1033 131.807 1181.84 479.418
1544 0 84.2997 13.5944 1146 129.195 1181.18 479.271
1545 0 87.2087 13.783 1202 128.785 1181.28 477.26
1546 0 89.2788 13.4858 1204 130.424 1181.26 474.11
1547 1 47.1078 11.6966 551 130.241 1182.65 496.154
1548 0 47.1227 11.7353 553 130.852 1182.51 496.184
1549 0 48.086 11.8122 568 132.22 1182.38 494.935
1550 0 50.0715 13.1612 659 127.886 1182.49 492.527
1551 0 52.0219 12.0526 627 130.475 1182.38 491.295
1552 0 53.0188 12.8068 679 127.922 1181.88 492.439
1553 0 54.0347 13.2693 717 126.965 1182.59 491.074
1554 0 57.0378 12.9738 740 127.419 1181.93 489.823
1555 0 59.0225 12.6054 744 128.581 1180.8 489.227
1556 0 61.0456 13.5472 827 126.539 1181.38 487.696
1557 0 62.0546 13.1819 818 127.631 1181.37 487.594
1558 0 66.0418 13.7034 905 125.09 1181.4 484.897
1559 0 67.0601 13.3164 893 125.903 1182.04 484.09
1560 0 71.0522 13.8349 983 123.209 1181.64 482.995
1561 0 71.099 13.7414 977 124.686 1182.29 481.735
1562 0 73.0258 13.5979 993 124.997 1182.24 479.041
1563 0 77.1432 13.8703 1070 123.032 1182.35 478.189
1564 0 78.1372 13.8218 1080 124.803 1181.97 478.117
1565 0 79.1848 13.399 1061 126.763 1182.09 476.038
1566 0 85.1506 14.9147 1270 120.431 1182.36 476.835
1567 0 86.1491 13.5231 1165 125.657 1182.13 472.644
1568 1 45.0721 10.8493 489 126.401 1182.37 494.677
1569 0 48.1488 11.7552 566 122.549 1182.05 494.694
1570 0 49.1582 12.1648 598 123.358 1180.31 494.059
1571 0 48.0441 12.5718 604 124.354 1182.67 492.493
1572 0 52.0596 11.8134 615 124.18 1182.57 491.797
1573 0 52.0604 11.6019 604 125.275 1182.39 490.369
1574 0 53.0403 12.3302 654 124.979 1181.85 488.749
1575 0 56.0417 12.7584 715 121.691 1182.69 490.715
1576 0 59.0917 12.3198 728 122.732 1182.82 488.685
1577 0 59.1035 13.1464 777 121.759 1182.23 487.562
1578 0 62.1922 13.3779 832 120.492 1182.1 486.085
1579 0 62.1284 12.5547 780 123.95 1181.54 485.062
1580 0 64.1172 12.5707 806 124.139 1181.92 483.34
1581 0 66.0726 13.1371 868 121.783 1182.32 483.503
1582 0 70.1947 13.9612 980 118.505 1182.43 482.162
1583 0 70.1213 12.0078 842 124.24 1182.18 482.888
1584 0 73.1565 13.724 1004 119.79 1181.01 479.26
1585 0 75.1246 13.1382 987 121.12 1180.11 480.514
1586 0 78.1277 13.158 1028 121.124 1180.18 479.685
1587 0 81.2071 12.7082 1032 121.146 1180.22 479.375
1588 0 84.2141 12.5632 1058 121.68 1179.66 478.106
1589 0 86.202 12.8767 1110 122.291 1180.44 474.672
1590 0 88.3381 13.2106 1167 120.659 1180.3 475.42
1591 1 45.1222 11.7015 528 120.083 1179.36 493.803
1592 0 48.0631 11.9218 573 118.298 1179.23 493.393
1593 0 49.2275 12.7774 629 116.137 1180.4 491.8
1594 0 51.3469 11.841 608 113.839 1181.71 489.928
1595 0 53.1651 13.7872 733 110.113 1180.95 491.372
1596 0 53.0685 12.4744 662 115.148 1179.81 491.057
1597 0 58.0581 13.3487 775 110.588 1181.36 491.019
1598 0 55.1444 13.3105 734 111.743 1181.84 489.452
1599 0 55.0852 10.8378 597 114.476 1182.02 488.961
1600 0 58.0943 11.7051 680 111.646 1181.67 486.934
1601 0 61.0849 12.9819 793 108.106 1181.63 487.28
1602 0 63.0753 12.9369 816 108.613 1181.75 486.555
1603 0 66.1341 13.2005 873 107.9 1181.76 482.467
1604 0 67.1105 12.3528 829 110.612 1181.48 484.444
1605 0 70.163 14.6373 1027 106.032 1181.15 481.447
1606 0 72.2931 12.5323 906 111.14 1181.9 481.723
1607 0 74.149 12.4075 920 112.526 1182.05 479.179
1608 0 77.1284 13.3673 1031 110.625 1182.28 477.389
1609 0 79.1079 12.6789 1003 112.037 1182.24 475.056
1610 0 83.2083 13.0636 1087 110.688 1182.11 475.293
1611 0 83.2201 11.6919 973 115.287 1182.07 473.51
1612 0 89.1978 13.1954 1177 110.947 1181.3 469.186
1613 1 46.0317 10.8404 499 117.285 1182.49 490.667
1614 0 50.023 11.5547 578 114.133 1182.73 491.168
1615 0 52.0722 10.7351 559 100.193 1183 489.345
1616 0 52.0331 12.5497 653 115.753 1182.53 490.375
1617 0 55.0756 11.5841 638 117.749 1182.79 489.39
1618 0 59.0589 10.9721 648 117.605 1182.38 488.082
1619 0 57.0732 10.6004 605 120.22 1181.56 487.089
1620 0 58.175 10.7263 624 120.627 1182.41 485.383
1621 0 60.0298 12.0607 724 117.046 1182.05 483.231
1622 0 63.0723 13.0802 825 113.342 1182.48 482.679
1623 0 63.037 12.5958 794 115.904 1182.03 482.662
1624 0 66.02 11.754 776 115.925 1181.21 483.07
1625 0 68.0464 11.7273 798 115.97 1181.34 482
1626 0 70.1272 12.8481 901 114.281 1181.66 479.158
1627 0 74.1424 11.9635 887 115.614 1182.04 477.202
1628 0 77.1064 13.1118 1011 112.342 1181.93 476.12
1629 0 77.0713 13.001 1002 113.999 1181.9 473.984
1630 0 79.1142 13.1835 1043 114.276 1181.69 473.872
1631 0 83.1158 13.6677 1136 113.073 1181.9 472.314
1632 0 84.0269 14.424 1212 111.665 1181.63 471.167
1633 0 85.1183 11.8071 1005 116.625 1181.32 473.232
1634 0 85.1614 11.1553 950 119.118 1182.09 474.192
1635 0 91.2132 12.4653 1137 115.68 1181.88 472.077
1636 0 93.1102 12.8772 1199 116.068 1181.62 468.188
1637 0 99.1488 11.8509 1175 117.471 1181.66 470.538
1638 0 100.199 12.1857 1221 118.655 1180.73 464.423
1639 0 102.18 12.0572 1232 118.769 1180.55 463.562
1640 0 107.136 13.0581 1399 118.055 1181.32 461.323
1641 1 58.0753 9.22939 536 118.888 1181.4 484.761
1642 0 58.2515 10.4032 606 111.449 1181.18 474.913
1643 0 61.1201 10.0785 616 110.487 1180.95 476.052
1644 0 65.1697 9.85121 642 103.981 1180.54 475.983
1645 0 67.1261 10.8304 727 106.964 1178.76 481.106
1646 0 71.1042 12.4606 886 102.503 1179.66 478.175
1647 0 71.1468 12.0877 860 103.877 1179.74 478.238
1648 0 75.1517 11.9758 900 104.19 1179.88 477.784
1649 0 76.1884 12.0491 918 105.366 1179.69 477.739
1650 0 82.1603 13.0842 1075 100.793 1180.65 476.256
1651 0 83.2294 12.5436 1044 102.446 1179.49 473.569
1652 0 88.2178 12.7072 1121 101.306 1180.14 471.161
1653 0 89.3667 12.3983 1108 102.178 1179.41 470.602
1654 0 93.29 13.3669 1247 100.302 1179.55 470.979
1655 0 96.1173 12.0894 1162 103.688 1179.91 467.84
1656 0 101.187 12.9463 1310 100.911 1180.2 467.332
1657 0 103.168 13.1436 1356 100.053 1179.99 463.124
1658 0 105.144 13.1439 1382 99.2438 1179.03 465.117
1659 0 111.216 13.5952 1512 96.7758 1179.13 459.977
1660 0 114.406 12.8926 1475 97.5586 1179.97 458.243
1661 0 119.281 13.4976 1610 95.9385 1180.1 454.717
1662 0 123.191 13.272 1635 96.5327 1180.67 452.724
1663 1 64.1159 12.0875 775 97.0619 1180.38 479.844
1664 0 65.1285 10.8401 706 100.422 1179.52 485.354
1665 0 67.1488 12.2266 821 100.312 1179.8 483.205
1666 0 68.1156 12.7137 866 100.139 1179.58 481.26
1667 0 72.178 12.0812 872 101.255 1180.08 478
1668 0 72.1076 11.9127 859 103.099 1180.15 480.476
1669 0 77.1598 12.1566 938 103.01 1180.09 479.459
1670 0 79.2771 12.7275 1009 103.174 1180.23 477.677
1671 0 80.1611 13.0487 1046 102.603 1180.19 478.032
1672 0 82.1324 11.4328 939 107.239 1179.78 476.019
1673 0 86.1026 11.3237 975 107.602 1179.89 475.89
1674 0 89.1421 12.5754 1121 106.527 1180.1 472.072
1675 0 92.2015 13.1017 1208 105.656 1180.29 470.478
1676 0 95.1114 12.9637 1233 106.06 1180.27 470.589
1677 0 98.1824 14.4323 1417 104.11 1180.09 466.418
1678 0 100.118 12.5452 1256 109.146 1179.73 465.747
1679 0 102.131 12.484 1275 110.46 1180.41 464.404
1680 0 108.335 12.969 1405 110.183 1180.61 463.789
1681 0 110.145 14.1268 1556 109.23 1180.81 461.544
1682 0 114.127 14.4225 1646 108.537 1180.61 460.408
1683 0 118.211 12.3677 1462 114.492 1181.3 455.5
1684 0 121.249 12.561 1523 114.216 1181.66 451.917
1685 1 65.0367 10.5633 687 110.574 1182.03 484.194
1686 0 66.0368 12.2507 809 107.634 1181.33 483.376
1687 0 67.2418 13.2209 889 106.245 1179.72 480.938
1688 0 71.0686 12.6216 897 105.65 1180.15 480.77
1689 0 75.1006 13.4886 1013 102.224 1180.08 477.63
1690 0 76.0735 13.6447 1038 101.17 1179.53 478.18
1691 0 80.1441 12.9891 1041 101.959 1179.36 477.928
1692 0 81.1039 12.4162 1007 105.061 1180.14 473.533
1693 0 84.1414 13.3585 1124 101.342 1180.35 474.68
1694 0 87.1954 13.0167 1135 101.784 1179.74 472.398
1695 0 89.177 11.6846 1042 104.593 1179.66 472.287
1696 0 92.1476 11.0692 1020 105.688 1179.95 470.682
1697 0 95.0965 12.3348 1173 102.885 1180.3 469.44
1698 0 97.1025 11.9564 1161 104.102 1180.15 466.335
1699 0 102.184 12.6048 1288 102.409 1179.76 464.754
1700 1 54.0304 11.0123 595 103.355 1179.18 488.899
1701 0 55.036 11.1927 616 103.208 1179.1 489.857
1702 0 58.0822 11.0017 639 99.2191 1179.38 485.994
1703 0 58.0822 11.0361 641 124.081 1178.38 486.02
1704 0 61.0416 12.4014 757 95.0343 1178.63 485.431
1705 0 60.0699 9.10605 547 101.548 1178.44 486.415
1706 0 65.0711 11.449 745 96.404 1178.77 484.807
1707 0 68.0722 12.4574 848 93.6356 1178.89 483.235
1708 0 69.1005 12.1417 839 96.4362 1178.68 480.461
1709 0 70.1041 11.4544 803 98.0423 1178.86 480.585
1710 0 74.0839 11.8514 878 97.0558 1179.19 478.182
1711 0 76.0947 11.8142 899 96.7709 1179.05 478.333
1712 0 76.1049 11.7469 894 127.643 1179.05 478.414
1713 0 80.088 12.3489 989 98.0738 1179.02 474.519
1714 0 84.1081 12.1391 1021 97.8746 1179.2 473.437
1715 0 87.0849 12.6428 1101 95.792 1179 470.558
1716 0 87.0849 12.6428 1101 120.106 1179 470.558
1717 1 45.0327 10.4369 470 100.894 1178.06 493.681
1718 0 45.0357 11.4354 515 98.3359 1177.68 492.276
1719 0 46.132 11.9006 549 97.1384 1177.85 493.047
1720 0 49.0951 10.8972 535 98.3439 1178.63 492.998
1721 0 51.0666 12.0235 614 97.2769 1178.82 490.466
1722 0 51.0217 12.0929 617 98.6191 1178.32 489.656
1723 0 53.0378 12.1611 645 98.7209 1179.22 488.34
1724 0 50.0259 10.8744 544 104.208 1179.7 490.438
1725 0 54.1055 10.2947 557 104.411 1179.24 489.354
1726 0 54.0397 11.399 616 103.308 1178.97 486.44
1727 0 56.0288 10.9051 611 104.45 1179.06 487.075
1728 0 60.0725 11.353 682 103.045 1179.3 486.981
1729 0 62.0543 9.7173 603 105.163 1179.47 488.167
1730 0 61.1345 10.0925 617 105.331 1180.08 487.126
1731 0 64.1126 11.0899 711 104.989 1179.79 482.006
1732 0 67.2075 11.8142 794 103.739 1178.84 482.312
1733 0 68.2499 10.5495 720 106.286 1179.51 483.543
1734 0 72.2362 10.7979 780 106.231 1179.81 482.501
1735 0 76.3702 12.3608 944 103.671 1180.17 479.394
1736 0 77.1426 11.5241 889 106.702 1179.66 476.151
1737 1 43.051 11.7767 507 108.089 1179.15 493.961
1738 0 46.018 11.2565 518 108.496 1178.98 492.392
1739 0 47.1702 13.3347 629 105.34 1180.25 490.879
1740 0 49.0472 11.9681 587 108.542 1181 493.14
1741 0 50.044 11.8696 594 110.606 1181.75 490.699
1742 0 50.0785 11.5618 579 112.629 1181.73 490.741
1743 0 52.1173 12.4335 648 111.505 1182.29 489.043
1744 0 52.0915 12.1133 631 113.655 1181.85 487.277
1745 0 56.0469 13.7563 771 109.2 1182.08 486.707
1746 0 56.0637 12.4145 696 113.411 1181.32 486.537
1747 0 56.1077 12.7968 718 115.011 1181.25 485.409
1748 0 59.1313 12.7344 753 114.653 1181.09 485.053
1749 0 63.1851 14.4496 913 109.087 1181.61 485.803
1750 0 64.1798 13.1817 846 113.95 1181.47 482.201
1751 0 64.1639 13.3876 859 114.82 1181.16 483.002
1752 0 65.1387 12.7267 829 118.445 1181.53 481.597
1753 0 70.0898 13.6824 959 115.594 1181.36 481.854
1754 0 70.0588 13.2175 926 119.706 1180.48 478.65
1755 0 74.0805 14.1603 1049 116.662 1181.37 480.754
1756 0 74.11 12.5894 933 122.236 1181.82 478.502
1757 0 80.0986 14.3698 1151 116.627 1181.05 477.653
1758 0 80.1666 13.9834 1121 120.37 1180.92 476.335
1759 0 85.1376 14.5177 1236 117.987 1181 477.224
1760 0 88.1684 14.495 1278 120.037 1180.5 473.459
1761 0 88.1796 13.3137 1174 125.281 1180.91 473.187
1762 0 92.2002 13.7418 1267 123.406 1180.47 472.656
1763 1 47.0655 11.4734 540 124.507 1181.87 493.163
1764 0 50.0773 12.4607 624 120.306 1181.54 494.296
1765 0 50.0946 12.137 608 123.14 1181.78 492.377
1766 0 51.0742 12.4721 637 124.168 1181.46 491.322
1767 0 53.0226 12.5795 667 124.12 1182.05 490.282
1768 0 53.0226 12.6361 670 124.657 1182.23 491.042
1769 0 55.0309 13.5924 748 122.845 1182.04 489.025
1770 0 57.0393 12.9384 738 122.519 1181.68 488.43
1771 0 59.0515 14.2588 842 118.635 1182 487.79
1772 0 59.0514 12.4298 734 124.409 1182.36 485.871
1773 0 63.1046 12.2337 772 122.908 1182.47 485.237
1774 0 65.056 13.1886 858 120.763 1182.51 483.885
1775 0 66.0342 13.705 905 120.193 1182.56 482.425
1776 0 69.1668 13.3301 922 119.547 1181.51 483.804
1777 0 69.064 12.3364 852 124.097 1181.59 481.682
1778 0 71.0298 12.9101 917 122.967 1181.55 479.889
1779 0 73.06 11.6753 853 125.497 1181.22 480.952
1780 0 76.0857 13.5505 1031 121.6 1180.96 478.197
1781 0 78.0819 13.0888 1022 122.712 1180.53 479.075
1782 0 79.1428 12.8376 1016 125.574 1181.16 477.393
1783 0 83.1879 13.1389 1093 124.759 1181.09 475.571
1784 0 82.0984 11.8882 976 129.114 1180.7 476.14
1785 0 87.2591 14.1189 1232 123.447 1180.18 471.088
1786 0 92.2286 14.8435 1369 120.406 1180.6 469.422
1787 0 95.1991 14.3804 1369 122.175 1179.96 466.934
1788 0 96.3163 13.1338 1265 126.245 1180.29 466.428
1789 1 53.2819 11.6174 619 124.664 1181.15 486.33
1790 0 54.1894 11.7182 635 125.057 1180.37 485.369
1791 0 54.1285 11.5835 627 122.284 1180.76 476.689
1792 0 57.1556 12.3522 706 125.173 1179.66 482.212
1793 0 59.1491 12.4093 734 126.315 1179.53 485.144
1794 0 61.1512 12.4446 761 125.361 1179.41 485.666
1795 0 65.1218 13.9124 906 123.16 1178.91 484.626
1796 0 68.2327 14.8609 1014 120.144 1179.59 483.45
1797 0 70.1402 14.5423 1020 122.174 1179.77 481.851
1798 0 71.1691 14.4164 1026 122.322 1179.3 482.778
1799 0 73.149 14.4636 1058 122.452 1179.25 480.685
1800 0 73.2235 13.1379 962 127.753 1179.61 478.418
1801 0 78.184 13.7112 1072 125.589 1179.98 477.998
1802 0 82.2633 14.5751 1199 121.372 1179.51 478.912
1803 0 82.1439 13.7685 1131 126.595 1180.21 475.53
1804 0 85.1546 14.5852 1242 120.441 1179.78 476.503
1805 0 86.0376 13.8312 1190 124.472 1179.53 473.461
1806 0 91.1874 15.1227 1379 119.827 1179.94 472.521
1807 0 92.0878 13.9975 1289 124.572 1179.41 468.365
1808 0 94.0635 12.9274 1216 126.711 1180.14 469.636
1809 1 53.0247 11.8624 629 121.948 1179.52 489.486
1810 0 54.0658 12.5773 680 121.388 1179.74 487.931
1811 0 54.0295 12.9929 702 121.799 1179.85 484.211
1812 0 57.0325 14.255 813 121.418 1179.6 486.978
1813 0 59.1917 13.7181 812 121.781 1179.33 486.947
1814 0 60.0643 13.6187 818 122.84 1179.49 485.468
1815 0 62.0439 13.3776 830 123.049 1179.07 485.642
1816 0 63.0814 13.8234 872 122.628 1179.3 482.737
1817 0 65.1473 13.0934 853 122.889 1179.34 484.393
1818 0 67.0373 12.7839 857 124.778 1179.4 482.653
1819 0 71.1006 13.9099 989 121.572 1179.77 479.717
1820 0 72.0855 14.4273 1040 120.326 1179.17 480.876
1821 0 75.1126 14.3385 1077 120.775 1178.87 480.02
1822 0 78.0683 14.8972 1163 119.06 1179.08 478.288
1823 0 79.0649 13.7861 1090 122.092 1179.51 477.829
1824 0 82.0616 14.4769 1188 120.965 1179.44 474.348
1825 0 84.0965 13.865 1166 123.349 1179.78 473.882
1826 0 87.1006 15.1205 1317 120.023 1179.67 473.412
1827 0 90.1479 14.454 1303 122.749 1179.92 470.445
1828 0 92.1489 13.7061 1263 124.462 1179.78 470.558
1829 0 95.1888 15.3379 1460 120.242 1179.73 467.625
1830 0 98.2268 13.2041 1297 126.243 1179.58 467.234
1831 0 104.181 16.097 1677 116.649 1179.98 464.369
1832 1 54.1499 12.2992 666 124.719 1180.14 487.734
1833 0 56.0414 13.0082 729 123.418 1179.81 487.484
1834 0 56.0483 12.6855 711 124.91 1179.31 486.634
1835 0 59.0679 13.3914 791 123.789 1179.23 485.086
1836 0 61.0465 13.0884 799 124.493 1178.97 484.814
1837 0 62.1465 13.9992 870 123.844 1179.31 483.049
1838 0 65.0847 12.6143 821 126.618 1179.53 483.298
1839 0 67.0863 13.4156 900 125.949 1178.98 480.84
1840 0 69.0897 13.5621 937 125.094 1179.19 481.701
1841 0 73.1243 14.742 1078 122.587 1178.67 477.561
1842 0 75.1299 14.5614 1094 124.069 1179.6 477.953
1843 0 76.2877 13.3836 1021 107.086 1180.38 479.781
1844 0 81.2518 14.9289 1213 121.082 1179.27 476.768
1845 0 83.2356 13.9363 1160 124.535 1179.38 476.248
1846 0 86.2118 14.8704 1282 122.3 1180.02 474.091
1847 0 89.2883 14.2236 1270 123.777 1180.12 471.253
1848 0 92.3094 14.6139 1349 123.471 1180.01 469.223
1849 0 95.211 14.7042 1400 122.549 1179.96 468.599
1850 0 99.2879 13.5666 1347 124.74 1179.78 467.935
1851 1 54.0433 13.1376 710 116.992 1179.46 491.276
1852 0 55.0595 12.7135 700 121.366 1179.17 488.867
1853 0 58.0779 13.8435 804 118.504 1179.9 488.281
1854 0 59.0679 13.5607 801 120.129 1181.27 488.404
1855 0 61.1121 13.3361 815 120.326 1181.98 487.894
1856 0 62.1212 13.0873 813 124.066 1181.72 484.919
1857 0 65.1679 13.3348 869 122.636 1181.04 485.392
1858 0 66.1199 12.9008 853 126.477 1182.01 482.603
1859 0 70.1957 13.7188 963 123.676 1181.65 480.927
1860 0 73.1036 14.0212 1025 124.314 1181.72 480.075
1861 0 75.1406 13.6943 1029 126.445 1181.75 478.082
1862 0 77.1103 14.6025 1126 125.665 1181.26 479.195
1863 0 80.0886 13.8222 1107 128.187 1181.62 478.462
1864 0 83.0999 14.0794 1170 128.244 1181.21 474.437
1865 0 87.1649 14.3865 1254 126.815 1181.63 473.155
1866 0 91.1119 14.9157 1359 125.04 1181.41 470.588
1867 0 93.2144 14.4291 1345 125.284 1181.22 470.306
1868 1 51.0553 11.8107 603 127.109 1181.83 491.605
1869 0 51.1518 11.8276 605 125.415 1181.53 493.278
1870 0 55.2103 14.001 773 119.882 1181.23 488.358
1871 0 56.1384 13.1461 738 130.786 1180.53 488.249
1872 0 59.3331 13.2641 787 127.887 1180.63 486.722
1873 0 60.3093 13.9448 841 127.102 1180.49 485.043
1874 0 61.2762 12.8761 789 130.17 1180.13 485.086
1875 0 64.2153 14.685 943 124.461 1180.55 484.497
1876 0 67.1186 13.573 911 126.411 1179.99 485.076
1877 0 68.3019 14.3041 977 125.393 1180.96 481.484
1878 0 69.1998 14.5376 1006 126.083 1180.89 480.166
1879 0 73.2062 14.2884 1046 123.756 1180.71 482.083
1880 0 76.2081 14.1586 1079 124.456 1180.72 480.339
1881 0 76.25 13.6131 1038 127.228 1180.3 477.966
1882 0 81.252 13.932 1132 125.081 1180.15 477.509
1883 0 83.2184 14.8765 1238 123.189 1180.1 476.83
1884 0 84.2767 14.9152 1257 124.366 1180.22 473.22
1885 0 87.155 13.9636 1217 127.109 1179.92 472.448
1886 0 91.2415 14.8288 1353 124.625 1180.41 470.321
1887 0 94.2362 15.1534 1428 123.378 1180.52 469.559
1888 0 96.2736 13.0565 1257 120.796 1180.24 471.88
1889 0 96.2736 13.0669 1258 158.927 1180.24 471.84
1890 1 52.0196 12.8605 669 123.142 1182.16 491.502
1891 0 52.0845 15.4556 805 109.243 1180.4 474.913
1892 0 53.066 12.6069 669 118.963 1181.1 478.302
1893 0 53.1065 11.9948 637 121.491 1181.15 478.165
1894 0 56.12 12.9722 728 116.907 1181.12 476.265
1895 0 59.1436 12.7994 757 120.374 1181.11 480.522
1896 0 58.1729 13.1333 764 123.366 1181.1 484.139
1897 0 62.1093 14.3779 893 121.744 1180.74 486.4
1898 0 63.0602 13.8598 874 124.493 1182 484.688
1899 0 67.1079 14.3798 965 121.395 1181.69 485.431
1900 0 68.1196 14.225 969 122.58 1182.26 484.278
1901 0 69.0888 13.7794 952 124.361 1182.19 482.931
1902 0 72.1335 14.7643 1065 121.128 1181.78 482.386
1903 0 74.1161 13.8297 1025 124.287 1181.44 479.48
1904 0 77.085 14.0494 1083 123.264 1181.54 478.028
1905 0 78.1944 14.4 1126 123.036 1180.86 476.459
1906 0 83.123 13.8469 1151 122.904 1180.92 476.467
1907 0 83.1317 14.9161 1240 121.819 1180.43 473.183
1908 0 85.1622 13.8442 1179 124.26 1180.93 472.446
1909 0 89.1524 14.3462 1279 120.911 1180.94 471.478
1910 1 47.0189 12.6758 596 116.669 1180.99 493.332
1911 0 49.0648 12.7994 628 111.968 1179.74 491.995
1912 0 49.1768 11.4281 562 115.916 1179.85 491.528
1913 0 51.1848 13.8127 707 111.177 1180.24 491.713
1914 0 54.2596 12.0716 655 110.884 1180.35 487.919
1915 0 54.044 13.0264 704 113.804 1180.17 489.386
1916 0 56.0458 12.3292 691 114.343 1180.76 488.133
1917 0 58.1253 13.2817 772 109.177 1179.92 487.926
1918 0 61.1605 13.3093 814 108.92 1179.96 486.071
1919 0 64.1331 14.8597 953 104.886 1179.48 484.899
1920 0 64.1072 12.7287 816 110.949 1180.19 483.098
1921 0 68.1335 13.1653 897 109.696 1179.92 481.807
1922 0 68.2443 12.5725 858 112.503 1179.59 481.497
1923 0 71.2184 13.8166 984 109.541 1179.43 479.974
1924 0 75.1799 15.137 1138 105.187 1179.52 480.112
1925 0 77.1632 13.4909 1041 110.315 1180.38 477.571
1926 0 80.2924 13.8992 1116 109.754 1179.4 475.396
1927 0 83.2476 13.658 1137 110.206 1179.87 474.721
1928 1 47.0938 11.6151 547 114.415 1179.73 492.428
1929 0 49.1763 12.9127 635 111.586 1180.02 491.836
1930 0 51.2073 12.4006 635 108.706 1180.43 486.849
1931 0 52.0362 14.1632 737 111.071 1180.11 490.84
1932 0 54.0503 13.3764 723 114.978 1179.78 491.068
1933 0 55.1128 12.5924 694 117.942 1179.72 490.504
1934 0 57.1145 12.9739 741 117.65 1180.16 488.455
1935 0 57.0712 13.6146 777 117.722 1180.29 488.439
1936 0 61.1402 13.0847 800 118.254 1179.79 486.865
1937 0 61.0687 13.0836 799 120.531 1180.25 486.786
1938 0 63.0802 13.0152 821 121.397 1179.77 484.916
1939 0 67.1136 13.4697 904 119.022 1179.96 485.713
1940 0 67.1191 13.6325 915 122.051 1179.67 483.352
1941 0 70.0779 13.8988 974 123.232 1180.04 480.316
1942 0 73.0875 13.737 1004 124.642 1180.15 481.204
1943 0 76.1301 13.9629 1063 124.61 1179.79 479.626
1944 0 77.0845 13.1025 1010 128.622 1179.96 477.018
1945 0 82.0869 14.3019 1174 123.561 1179.78 476.358
1946 1 43.1774 11.997 518 122.438 1179.59 490.494
1947 0 44.1796 12.3586 546 130.245 1179.75 492.623
1948 0 48.2538 13.429 648 119.443 1180.29 489.211
1949 0 48.1267 13.0489 628 122.642 1179.75 488.734
1950 0 50.0892 13.1366 658 129.202 1179.66 491.12
1951 0 52.133 13.7916 719 124.638 1179.73 487.668
1952 0 53.1835 13.3312 709 125.231 1179.6 486.216
1953 0 57.0789 12.8068 731 126.137 1179.82 485.15
1954 0 56.164 12.7484 716 129.687 1179.97 482.986
1955 0 60.0701 13.8172 830 126.934 1180.08 485.431
1956 0 62.1271 14.1806 881 125.573 1180.33 484.644
1957 0 64.0601 14.3771 921 128.385 1181.19 488.024
1958 0 66.0657 14.5613 962 128.778 1181.44 485.446
1959 0 66.1264 14.0035 926 132.666 1181.43 483.873
1960 0 69.1569 13.0717 904 133.581 1180.65 483.614
1961 0 71.2205 15.1923 1082 128.139 1180.48 480.856
1962 0 75.1962 15.3864 1157 125.921 1180.45 478.617
1963 0 78.0769 14.3448 1120 128.921 1180.9 478.881
1964 0 79.2137 14.2021 1125 125.778 1180.13 474.692
1965 0 84.2533 14.6344 1233 122.691 1180.18 473.477
1966 0 85.221 14.4331 1230 124.996 1179.96 472.119
1967 1 47.0551 11.5609 544 126.618 1180.05 494.195
1968 0 48.0648 12.0878 581 126.196 1180.22 494.246
1969 0 50.0787 12.7599 639 125.202 1180.29 491.13
1970 0 52.126 12.8918 672 123.693 1179.69 491.469
1971 0 53.0912 13.0153 691 123.619 1181.72 490.77
1972 0 54.0946 14.1973 768 121.75 1181.5 488.462
1973 0 55.0446 13.7888 759 122.302 1181.37 489.538
1974 0 56.0958 12.3539 693 126.442 1180.97 487.869
1975 0 58.0901 12.9454 752 124.783 1181.16 485.278
1976 0 61.1081 14.4334 882 119.993 1181.64 485.486
1977 0 63.1856 13.215 835 123.284 1181.12 484.447
1978 0 66.2021 14.3198 948 120.802 1181.16 481.643
1979 0 69.0312 12.6899 876 125.983 1180 482.586
1980 0 70.2616 13.8483 973 122.439 1180.32 480.852
1981 0 72.2607 13.5343 978 124.111 1180.18 477.953
1982 0 76.0998 13.9422 1061 123.427 1180.34 477.654
1983 0 77.0767 12.6238 973 127.431 1180.43 478.316
1984 0 83.1693 13.8513 1152 121.135 1179.87 476.752
1985 0 83.0873 14.5028 1205 121.908 1180.46 474.799
1986 0 86.0391 13.8658 1193 124.288 1180.17 472.128
1987 0 89.0763 13.988 1246 123.335 1179.34 472.345
1988 0 95.0701 14.8838 1415 120.522 1179.02 470.968
1989 1 49.0695 11.9015 584 122.384 1178.77 493.089
1990 0 50.0516 11.3083 566 126.915 1178.98 491.108
1991 0 53.0753 13.0569 693 126.144 1179.48 490.286
1992 0 55.0467 12.335 679 120.436 1178.88 490.596
1993 0 56.0647 13.9125 780 120.331 1180.99 488.04
1994 0 58.0609 13.6408 792 120.218 1180.79 487.495
1995 0 58.0705 11.4172 663 126.546 1180.95 489
1996 0 62.1472 12.9531 805 122.378 1181.53 487.314
1997 0 63.1329 12.9885 820 123.661 1181.18 484.078
1998 0 65.1062 12.8406 836 122.714 1180.9 484.705
1999 0 70.0197 13.4105 939 119.755 1181.45 484.161
2000 0 70.121 13.2913 932 122.244 1181.39 481.011
2001 0 72.1525 12.7369 919 122.84 1180.77 480.946
2002 0 73.1582 12.7395 932 148.44 1179.76 481.132
2003 0 78.1626 12.8194 1002 123.23 1180.82 476.255
2004 0 80.0976 13.3212 1067 122.194 1180.8 477.24
2005 0 85.1121 12.6421 1076 125.476 1180.69 474.754
2006 0 86.0796 12.5814 1083 125.889 1180.66 473.217
2007 1 50.0428 11.8499 593 124.779 1181.71 490.369
2008 0 50.1618 11.8616 595 125.207 1181 489.331
2009 0 53.433 12.3893 662 124.98 1181.04 487.734
2010 0 55.2201 12.1876 673 125.905 1180.92 487.831
2011 0 57.2694 12.8341 735 124.201 1180.76 486.346
2012 0 58.2469 12.9106 752 124.733 1180.78 485.463
2013 0 59.1703 12.6246 747 126.324 1181.09 484.142
2014 0 60.1025 12.0128 722 126.835 1181.23 485.636
2015 0 63.0851 12.6337 797 126.849 1181.48 482.297
2016 0 64.0985 11.4823 736 130.213 1180.63 479.719
2017 0 68.1027 11.8498 807 128.291 1181.58 480.492
2018 0 69.139 11.3829 787 130.357 1181.67 479.496
2019 0 72.1517 13.0281 940 125.929 1181.49 478.024
2020 0 76.1143 12.652 963 125.295 1181.63 477.388
2021 0 78.1089 13.1611 1028 124.597 1181.94 476.214
2022 0 81.1414 13.2978 1079 124.356 1181.45 473.563
2023 0 83.172 11.4462 952 128.965 1181.51 475.028
2024 0 84.201 11.6507 981 129.66 1181.35 471.27
2025 1 46.0502 11.3572 523 122.564 1182.77 489.973
2026 0 47.0475 11.244 529 120.546 1181.25 489.195
2027 0 46.1543 10.3349 477 118.329 1180.65 481.665
2028 0 52.013 12.4392 647 119.692 1182.2 488.023
2029 0 53.0214 10.6938 567 124.136 1182.57 489.106
2030 0 54.0324 10.9379 591 125.242 1182.14 486.78
2031 0 56.0545 12.9695 727 118.934 1182.28 486.715
2032 0 56.0381 11.6528 653 123.744 1182.13 486.937
2033 0 57.0255 11.6088 662 124.642 1182.11 485.281
2034 0 58.0176 11.824 686 124.36 1182 484.765
2035 0 63.0196 12.6945 800 120.626 1180.92 484.768
2036 0 66.0397 12.1139 800 122.101 1181.35 482.036
2037 0 68.0472 12.1827 829 121.554 1181.32 482.957
2038 0 69.0431 11.7897 814 124 1181.73 480.978
2039 0 72.0892 13.5665 978 119.786 1181.99 478.776
2040 0 74.0998 12.6991 941 122.711 1181.77 478.936
2041 0 75.1122 12.1152 910 125.29 1182.44 479.487
2042 0 78.0356 12.8531 1003 124.035 1182.41 479.248
2043 0 82.062 12.5027 1026 124.87 1181.6 476.474
2044 0 84.1709 13.3775 1126 123.341 1181.73 475.38
2045 0 84.2939 11.6734 984 127.487 1180.87 475.203
2046 0 90.1323 13.4802 1215 122.51 1181.38 472.515
2047 1 50.0506 10.3695 519 128.249 1181.76 490.116
2048 0 51.0343 11.4237 583 121.935 1180.83 490.48
2049 0 55.1977 12.7179 702 119.201 1180.27 488.86
2050 0 54.047 11.194 605 117.174 1178.58 475.453
2051 0 58.0658 12.5375 728 120.89 1178.41 485.913
2052 0 57.0703 11.8801 678 123.019 1178.04 485.395
2053 0 62.0609 13.2773 824 118.256 1177.98 483.919
2054 0 64.0507 13.1771 844 118.323 1178.65 482.695
2055 0 65.1209 12.5459 817 121.296 1178.82 482.022
2056 0 66.0735 13.4093 886 120.459 1179.12 481.728
2057 0 67.0659 12.9127 866 122.575 1177.84 481.031
2058 0 70.1668 13.3681 938 120.72 1178.23 479.917
2059 0 71.1187 13.7938 981 120.051 1178.72 479.107
2060 0 75.1102 13.6333 1024 119.844 1177.95 477.332
2061 0 78.1795 13.5585 1060 120.592 1178.6 473.968
2062 0 82.0913 14.5935 1198 118.001 1178.81 472.029
2063 0 86.2061 13.9317 1201 118.863 1179.36 472.026
2064 0 88.1917 14.6612 1293 116.953 1179.2 471.841
2065 0 88.167 13.6105 1200 121.647 1179.47 470.342
2066 0 93.3327 14.3465 1339 118.888 1179.84 471.044
2067 0 96.4219 13.8143 1332 119.486 1180.37 468.384
2068 1 49.2194 11.8043 581 118.683 1180.9 487.188
2069 0 52.1456 10.4899 547 115.168 1180.24 481.324
2070 0 52.1664 11.2333 586 115.43 1179.78 477.834
2071 0 57.211 12.183 697 104.327 1179.24 485.792
2072 0 58.1829 12.9935 756 107.153 1179.54 487.056
2073 0 60.1758 12.4469 749 108.242 1179.73 486.965
2074 0 61.0834 13.7844 842 107.004 1179.36 486.937
2075 0 65.1753 13.2412 863 107.915 1179.08 485.227
2076 0 65.1116 12.7473 830 110.28 1179.52 482.994
2077 0 69.1456 13.4643 931 108.004 1179.53 482.719
2078 0 69.1904 13.2822 919 109.547 1179.38 482.164
2079 0 69.2353 13.1436 910 111.377 1179.14 481.047
2080 0 72.2267 12.8761 930 111.986 1178.97 479.97
2081 0 77.142 14.8428 1145 106.783 1178.9 478.69
2082 0 77.1072 12.8522 991 113.274 1178.91 477.018
2083 0 80.0739 13.8747 1111 111.417 1178.89 476.775
2084 0 81.0725 12.8897 1045 114.705 1178.35 476.927
2085 0 84.1917 13.208 1112 114.579 1178.45 472.482
2086 0 85.1968 13.3573 1138 114.749 1178.44 472.773
2087 0 90.181 14.0052 1263 113.01 1178.87 472.01
2088 0 91.2181 13.7802 1257 114.767 1178.98 467.912
2089 0 94.2488 13.3689 1260 115.433 1178.67 468.735
2090 0 96.1886 13.723 1320 115.52 1178.86 470.039
2091 0 100.217 13.6903 1372 117.32 1178.76 467.486
2092 0 102.219 12.2776 1255 124.092 1178.44 463.195
2093 0 107.196 14.5527 1560 118.81 1178.71 463.677
2094 0 111.301 14.0969 1569 120.002 1179.42 461.782
2095 0 114.448 12.2938 1407 126.352 1179.28 460.253
2096 1 60.0949 11.8479 712 119.483 1179.1 486.544
2097 0 62.1299 13.0372 810 117.253 1179.15 485.564
2098 0 66.1458 12.669 838 118.385 1179.22 482.499
2099 0 67.1373 12.5415 842 119.816 1179.11 482.017
2100 0 69.1982 12.6448 875 119.054 1178.68 482.353
2101 0 72.2296 13.6232 984 116.877 1178.9 479.529
2102 0 74.1123 12.7779 947 119.854 1179.11 478.423
2103 0 78.1882 13.5187 1057 117.319 1179.57 476.019
2104 0 79.1658 13.1117 1038 119.268 1179.06 473.888
2105 0 81.0801 11.8155 958 123.469 1179.11 474.002
2106 0 85.0785 13.2231 1125 119.207 1179.41 473.178
2107 0 88.0838 12.1021 1066 121.734 1179.13 470.963
2108 0 92.1129 13.7657 1268 116.793 1178.93 468.797
2109 0 94.1075 12.7407 1199 120.451 1179.62 467.766
2110 0 96.0769 13.5412 1301 119.192 1179.55 467.362
2111 0 101.249 14.2322 1441 116.5 1179.3 464.842
2112 0 102.058 12.2675 1252 122.556 1178.71 462.757
2113 0 108.116 11.9687 1294 121.614 1178.82 462.85
2114 0 111.158 13.1165 1458 119.46 1179.26 460.064
2115 0 115.24 13.2766 1530 118.969 1179.26 457.289
2116 1 62.0527 10.4105 646 116.385 1178.16 480.345
2117 0 65.0838 11.1395 725 118.063 1178.03 480.513
2118 0 66.121 11.9327 789 114.054 1178.05 479.139
2119 0 71.2248 12.7062 905 110.829 1178.03 479.392
2120 0 71.1724 10.2427 729 118.195 1178.59 477.165
2121 0 75.2819 12.1942 918 112.867 1178.96 475.083
2122 0 77.2132 11.397 880 115.411 1178.61 473.72
2123 0 81.305 12.2748 998 113.373 1178.96 474.577
2124 0 83.22 12.7253 1059 112.369 1179 472.199
2125 0 87.2332 12.1857 1063 113.988 1178.78 469.475
2126 0 90.1626 12.4331 1121 113.442 1178.17 467.971
2127 0 90.3074 11.2948 1020 116.491 1178.96 466.164
2128 0 94.2152 11.7815 1110 115.607 1178.91 464.579
2129 0 97.2632 11.6899 1137 115.982 1179.49 466.738
2130 0 100.24 11.5124 1154 113.918 1179.98 466.185
2131 0 107.271 12.9392 1388 111.079 1179.26 463.967
2132 0 107.39 11.435 1228 115.397 1178.63 464.017
2133 1 61.2079 11.8122 723 110.64 1178.11 484.718
2134 0 63.2401 12.6818 802 111.914 1178.38 482.409
2135 0 64.1582 13.0615 838 111.808 1177.53 482.533
2136 0 65.1315 13.0198 848 113.39 1177.04 482.037
2137 0 68.0182 12.9818 883 113.207 1177.63 480.898
2138 0 70.1602 12.3432 866 113.445 1177.46 480.51
2139 0 72.1754 13.3979 967 110.393 1177.61 479.4
2140 0 77.1395 13.4302 1036 109.105 1177.87 476.455
2141 0 78.0907 13.3819 1045 109.624 1177.84 475.344
2142 0 80.0973 12.5098 1002 111.486 1177.75 473.588
2143 0 83.1512 13.6258 1133 108.164 1177.97 473.682
2144 0 85.2443 13.5728 1157 108.764 1178.34 470.544
2145 0 91.2121 14.0771 1284 105.879 1178.77 469.91
2146 0 91.1351 13.683 1247 107.601 1177.94 467.766
2147 0 97.3558 13.3942 1304 106.436 1178.26 466.2
2148 0 98.3103 13.2336 1301 107.676 1178.46 463.265
2149 0 102.333 13.5146 1383 106.658 1178.41 460.071
2150 0 105.222 13.1912 1388 105.151 1178 459.775
2151 1 57.2839 10.6836 612 104.412 1179.38 481.51
2152 0 59.2912 9.66416 573 105.726 1179.04 472.234
2153 0 60.102 11.3806 684 103.175 1178.44 468.304
2154 0 60.0211 11.2294 674 107.746 1176.98 467.838
2155 0 65.0483 11.6529 758 107.487 1176.87 480.161
2156 0 67.0673 12.48 837 106.069 1177.84 478.704
2157 0 70.0598 12.4893 875 104.933 1178.32 475.686
2158 0 71.164 11.8599 844 107.123 1178.07 475.331
2159 0 75.0845 11.4671 861 106.276 1177.83 474.835
2160 0 74.0839 11.3115 838 107.635 1177.88 470.461
2161 0 79.3781 12.5727 998 107.536 1179.05 471.648
2162 0 83.3973 11.667 973 108.403 1179.78 473.863
2163 0 85.5009 12.0233 1028 108.413 1179.68 472.105
2164 0 88.5798 13.4229 1189 105.878 1179.48 466.163
2165 0 91.6557 10.9431 1003 107.407 1179.76 467.914
2166 0 96.446 10.6381 1026 105.406 1179.67 467.286
2167 0 97.1778 10.4036 1011 103.068 1180.93 464.241
2168 0 102.246 11.2279 1148 101.256 1180.49 466.258
2169 1 51.1013 10.1954 521 100.196 1181.18 488.457
2170 0 53.0357 10.3327 548 100.358 1180.87 488.94
2171 0 54.1 11.0351 597 99.191 1181.31 488.06
2172 0 56.0669 13.3234 747 94.9813 1180.58 485.537
2173 0 56.0802 11.3052 634 100.183 1180.93 482.972
2174 0 57.2914 12.2182 700 98.8271 1178.34 485.44
2175 0 60.2328 11.9204 718 98.9944 1178.65 486.226
2176 0 61.1769 11.6384 712 100.163 1179.42 484.02
2177 0 63.3165 11.4346 724 100.747 1179.1 484.616
2178 0 66.1463 13.1376 869 96.985 1179.39 482.046
2179 0 68.2052 11.8173 806 99.8424 1179.51 478.634
2180 0 71.1812 11.843 843 99.7189 1179.69 481.052
2181 0 73.1142 12.6104 922 98.4089 1179.14 478.961
2182 0 77.3162 13.0374 1008 97.7688 1178.83 478.525
2183 0 75.2539 11.9196 897 101.434 1179.16 477.331
2184 0 81.2454 12.7269 1034 98.5397 1179.1 475.871
2185 0 83.2002 13.3173 1108 97.6092 1179.63 474.183
2186 0 87.1154 13.4879 1175 96.674 1179.65 475.13
2187 0 89.2173 13.6072 1214 97.187 1179.37 473.962
2188 0 91.2285 11.8274 1079 101.048 1178.74 472.324
2189 0 94.2796 11.7629 1109 101.946 1179.15 472.209
2190 0 97.352 12.4188 1209 102.801 1180.05 467.921
2191 0 100.385 12.4919 1254 102.739 1179.94 465.845
2192 1 56.3111 10.2467 577 108.861 1178.65 486.09
2193 0 58.1744 12.1875 709 104.43 1178.5 484.711
2194 0 59.2144 11.0277 653 106.568 1180.44 484.98
2195 0 62.3902 13.1591 821 104.424 1179.24 479.469
2196 0 65.3315 13.7759 900 103.29 1178.92 479.043
2197 0 66.5115 13.1406 874 105.716 1178.93 478.534
2198 0 66.8218 12.4211 830 108.657 1178.66 476.325
2199 0 71.5323 13.4764 964 106.038 1178.7 476.367
2200 0 72.3491 12.6885 918 109.218 1179.73 477.603
2201 0 75.3225 13.1966 994 108.728 1178.66 474.597
2202 0 73.5084 12.3931 911 113.063 1178.33 474.705
2203 0 78.3909 12.8076 1004 112.05 1179.26 474.898
2204 0 80.3226 12.288 987 113.961 1179.35 472.829
2205 0 82.3987 13.1434 1083 113.447 1179.46 472.708
2206 0 88.3019 14.0994 1245 110.249 1180.14 471.929
2207 0 88.4956 14.2154 1258 111.781 1180.08 468.762
2208 0 92.6134 14.0369 1300 111.715 1180.21 469.081
2209 1 50.3732 10.5612 532 117.541 1180.07 485.936
2210 0 52.4042 10.3236 541 115.355 1179.46 481.791
2211 0 55.3796 10.9788 608 113.645 1179.42 476.26
2212 0 58.2463 12.8249 747 113.873 1179.26 484.511
2213 0 57.076 12.5096 714 115.803 1178.4 486.315
2214 0 59.1111 12.4004 733 115.729 1178.37 486.143
2215 0 62.1102 14.3455 891 110.203 1177.43 485.402
2216 0 64.1331 14.0801 903 110.658 1177.14 485.599
2217 0 64.1478 12.4712 800 116.322 1177.68 483.356
2218 0 67.1312 13.63 915 112.456 1178.41 482.211
2219 0 70.1217 13.9187 976 111.799 1177.66 480.488
2220 0 69.0727 11.886 821 117.917 1178.32 480.354
2221 0 74.1073 14.8299 1099 109.448 1178.89 478.659
2222 0 74.2022 12.3851 919 116.141 1179.06 478.097
2223 0 77.1773 12.5555 969 116.212 1178.64 477.862
2224 0 78.1441 13.5903 1062 151.005 1178.65 476.657
2225 0 83.1721 14.0191 1166 112.786 1179.26 474.13
2226 0 86.1473 14.6029 1258 110.648 1179.52 474.619
2227 0 88.2361 13.4526 1187 113.835 1179.63 472.073
2228 0 90.2143 12.1488 1096 117.39 1179.26 470.435
2229 0 93.2002 13.5515 1263 113.568 1178.98 469.222
2230 0 96.3614 14.072 1356 112.711 1179.23 467.409
2231 0 97.3739 13.6792 1332 115.305 1179.7 464.181
2232 1 55.1261 10.9567 604 113.803 1178.79 489.636
2233 0 56.0666 11.4863 644 113.402 1177.99 487.253
2234 0 58.0245 12.6671 735 110.796 1178.44 487.756
2235 0 59.0288 12.4854 737 105.901 1179.02 487.033
2236 0 62.0661 12.9056 801 105.436 1178.2 486.072
2237 0 63.075 12.7626 805 106.078 1177.8 485.322
2238 0 63.1035 11.4891 725 110.276 1177.52 484.048
2239 0 66.0463 13.0817 864 106.84 1177.83 481.76
2240 0 68.1862 12.9792 885 106.85 1177.29 482.508
2241 0 70.0665 11.9601 838 111.652 1177.55 477.626
2242 0 71.0905 12.3082 875 110.413 1177.93 479.567
2243 0 73.0897 12.6967 928 111.054 1177.53 476.439
2244 0 77.1046 13.8513 1068 107.507 1177.91 475.472
2245 0 78.0836 12.461 973 111.168 1178.08 476.737
2246 0 82.1106 12.4832 1025 110.601 1178.2 477.272
2247 0 85.1014 13.7483 1170 109.256 1177.94 473.315
2248 0 87.1163 13.2352 1153 111.539 1178.4 472.362
2249 0 90.1716 13.6407 1230 110.35 1178.33 472.915
2250 0 94.1201 13.504 1271 110.52 1178.01 471.577
2251 0 96.0985 12.9138 1241 112.869 1177.92 469.776
2252 1 50.0196 10.196 510 116.869 1177.16 490.78
2253 0 55.1152 13.2813 732 107.504 1178.88 490.406
2254 0 53.1198 10.8434 576 111.74 1180.98 489.8
2255 0 56.0411 12.6871 711 108.671 1180.32 486.928
2256 0 56.0641 11.5939 650 110.409 1181.83 486.162
2257 0 59.0398 12.1952 720 107.485 1180.9 490.068
2258 0 59.0663 10.3105 609 113.987 1180.24 489.798
2259 0 61.178 11.5728 708 111.948 1180.58 489.701
2260 0 60.1169 10.4962 631 116.406 1180.82 489.758
2261 0 64.06 12.0356 771 111.433 1180.5 489.848
2262 0 66.0946 12.3459 816 109.998 1180.77 490.281
2263 0 67.1113 11.1308 747 113.627 1180.25 490.424
2264 0 69.0824 12.391 856 114.03 1180.06 488.325
2265 0 69.105 10.9399 756 118.177 1179.34 489.409
2266 0 75.1162 11.2625 846 116.357 1179.4 490.247
2267 0 77.1929 12.5659 970 115.482 1178.68 486.104
2268 0 76.0986 10.3418 787 119.487 1178.87 489.159
2269 0 79.0832 10.6976 846 117.628 1178.62 491.413
2270 0 84.0755 11.6443 979 116.541 1177.82 488.516
2271 0 84.0783 12.2743 1032 116.907 1178.29 485.819
2272 0 88.1208 11.4161 1006 118.879 1178.59 485.119
2273 0 90.0753 12.1787 1097 117.291 1178.26 483.321
2274 0 93.1173 12.6077 1174 117.727 1177.47 481.753
2275 0 97.1076 12.687 1232 116.37 1176.53 482.319
2276 0 99.1966 11.825 1173 119.861 1177.22 479.34
2277 0 100.24 10.6644 1069 122.662 1177.14 479.746
2278 0 104.116 11.4295 1190 121.12 1176.05 478.151
2279 0 107.091 11.6536 1248 121.341 1175.69 475.369
2280 0 110.182 11.953 1317 121.243 1174.45 471.261
2281 1 60.2259 11.3904 686 115.535 1172.79 494.348
2282 0 63.2462 13.2498 838 112.227 1173.35 489.912
2283 0 65.0202 11.5503 751 121.316 1172.91 492.766
2284 0 66.076 12.0619 797 120.944 1171.9 491.583
2285 0 70.0535 12.2335 857 119.93 1171.59 488.971
2286 0 70.0489 12.8767 902 118.938 1171.87 487.953
2287 0 74.0693 12.9743 961 118.298 1172.42 486.492
2288 0 74.1464 12.8395 952 119.728 1172.03 485.114
2289 0 78.1321 13.1316 1026 118.152 1171.61 484.399
2290 0 79.1367 11.5875 917 122.587 1171.92 484.675
2291 0 84.0588 13.3121 1119 117.523 1172.19 485.751
2292 0 85.068 11.8376 1007 121.453 1171.94 485.024
2293 0 88.1677 12.998 1146 118.241 1172.16 483.224
2294 0 89.0593 13.6314 1214 118.198 1172.26 480.698
2295 0 91.1288 12.5646 1145 120.378 1172.44 482.224
2296 0 94.0719 13.0538 1228 118.046 1172.67 480.021
2297 0 96.0763 13.5309 1300 114.214 1172.9 481.995
2298 0 99.1169 12.8333 1272 116.121 1172.64 480.213
2299 0 101.111 13.8659 1402 114.591 1172.12 477.508
2300 0 105.046 14.4508 1518 112.786 1171.94 475.362
2301 0 110.257 14.0308 1547 113.639 1172.78 473.189
2302 0 112.444 14.6118 1643 112.703 1172.76 468.903
2303 0 113.347 14.2924 1620 114.537 1173.35 466.204
2304 0 117.354 13.1653 1545 117.296 1172.46 458.192
2305 0 117.347 11.368 1334 122.784 1172.67 456.297
2306 0 123.186 14.1412 1742 115.693 1172.6 453.805
2307 0 128.319 12.6092 1618 119.103 1171.88 454.077
2308 0 133.137 12.904 1718 119.063 1172.13 450.418
2309 0 136.146 13.9409 1898 116.99 1172.38 446.468
2310 0 143.361 14.5088 2080 116.102 1171.65 443.119
2311 1 63.1381 9.17038 579 115.364 1172.17 484.233
2312 0 70.2884 12.7333 895 107.916 1172.69 483.779
2313 0 70.1172 14.6754 1029 110.608 1171.79 492.229
2314 0 72.2328 12.8612 929 114.901 1172.17 492.222
2315 0 75.3017 13.2268 996 114.705 1172.6 488.795
2316 0 77.3762 14.1129 1092 113.553 1172.57 486.351
2317 0 81.4984 13.5586 1105 114.052 1172.26 485.235
2318 0 81.4023 14.2134 1157 114.583 1173.19 488.21
2319 0 83.3925 14.2819 1191 115.545 1173.15 484.194
2320 0 87.47 14.3706 1257 114.418 1173.18 482.978
2321 0 90.4305 13.5353 1224 116.248 1172.92 481.142
2322 0 91.6026 13.0564 1196 116.033 1173.69 478.613
2323 0 94.4016 13.2519 1251 113.823 1174.46 477.912
2324 0 95.1794 12.3241 1173 110.359 1174.9 478.728
2325 0 99.129 12.63 1252 110.719 1174.63 480.901
2326 0 101.154 12.5255 1267 113.098 1174.11 473.55
2327 0 103.18 11.291 1165 116.039 1173.91 473.931
2328 0 108.315 13.2022 1430 112.269 1174.17 471.381
2329 0 111.242 11.893 1323 115.344 1174.4 470.429
2330 0 115.194 12.4051 1429 113.815 1174.1 471.801
2331 0 118.311 12.146 1437 116.463 1174.27 468.424
2332 0 122.137 12.5105 1528 114.435 1174.9 467.68
2333 0 125.555 13.0461 1638 114.272 1174.6 461.817
2334 0 130.592 13.4311 1754 113.291 1174.73 461.738
2335 0 131.239 12.6029 1654 116.588 1174.02 458.906
2336 1 53.1918 10.9979 585 111.08 1174.22 495.303
2337 0 59.2333 12.2735 727 115.257 1173.13 489.906
2338 0 58.2963 13.0368 760 115.605 1173.16 487.55
2339 0 61.435 11.8825 730 117.595 1173.18 487.515
2340 0 62.3882 13.4961 842 115.118 1173.27 485.211
2341 0 63.245 12.2698 776 120.731 1173.56 482.138
2342 0 66.5462 12.9835 864 118.466 1173.19 482.645
2343 0 66.3797 12.3682 821 122.615 1173.57 480.33
2344 0 70.3481 13.9307 980 117.496 1173.66 481.256
2345 0 72.6276 13.8928 1009 118.856 1173.85 477.5
2346 0 73.4771 13.3647 982 120.223 1174 477.877
2347 0 77.2286 12.6896 980 119.069 1174.15 479.561
2348 0 76.2622 12.3521 942 122.525 1173.86 478.82
2349 0 78.2108 12.1211 948 122.781 1174.09 477.983
2350 0 84.1583 13.1894 1110 120.029 1174.36 475.254
2351 0 85.2178 12.5678 1071 121.471 1175.13 475.968
2352 0 91.3277 13.7965 1260 118.143 1174.88 471.77
2353 0 92.1206 13.7971 1271 121.301 1174.72 456.679
2354 0 95.4093 12.8394 1225 122.961 1176.26 457.339
2355 0 99.5038 12.4819 1242 124.271 1175.85 456.832
2356 0 103.485 12.8908 1334 122.948 1175.88 453.1
2357 1 59.0579 12.2592 724 121.344 1175.29 474.046
2358 0 59.0929 12.0827 714 128.022 1177.09 471.662
2359 0 64.1933 13.1166 842 122.226 1177.96 478.032
2360 0 66.1308 13.6699 904 120.436 1178.04 482.03
2361 0 68.1311 13.8556 944 119.533 1176.97 480.965
2362 0 70.1552 13.6982 961 120.807 1176.99 480.077
2363 0 71.0884 13.223 940 122.814 1176.39 479.183
2364 0 74.2126 13.7847 1023 121.893 1176.92 476.482
2365 0 77.1266 14.3919 1110 118.579 1175.83 474.688
2366 0 79.1497 14.0999 1116 120.518 1175.85 471.934
2367 0 80.0811 14.4229 1155 120.729 1175.79 468.935
2368 0 85.2212 14.1866 1209 119.537 1175.98 470.145
2369 0 84.1873 13.7907 1161 122.153 1176.34 468.594
2370 0 89.2171 14.1453 1262 120.783 1176.65 466.346
2371 0 90.1326 15.2109 1371 119.724 1176.37 457.008
2372 0 92.2592 14.5351 1341 122.908 1175.77 456.726
2373 0 92.1926 15.1097 1393 122.095 1176.39 454.885
2374 0 97.333 14.435 1405 124.398 1176.46 452.685
2375 0 98.3361 14.1555 1392 125.674 1176.77 451.438
2376 0 100.372 13.0615 1311 130.098 1176.09 448.333
2377 0 103.312 13.3964 1384 129.211 1175.89 447.527
2378 0 107.107 13.2204 1416 130.181 1176.5 446.652
2379 0 111.308 12.3711 1377 130.425 1176.46 447.875
2380 0 111.247 13.043 1451 131.723 1176.46 442.893
2381 0 114.172 12.6651 1446 132.008 1176.43 442.98
2382 0 121.197 13.7792 1670 127.542 1176.42 440.353
2383 0 118.175 12.5238 1480 134.095 1176.82 433.702
2384 0 127.325 14.569 1855 126.236 1177.09 434.595
2385 0 132.187 14.0407 1856 128.121 1176.78 428.886
2386 0 136.204 13.9056 1894 128.096 1176.73 426.175
2387 0 141.292 15.1742 2144 124.756 1177.18 425.933
2388 0 147.337 13.3232 1963 128.888 1176.96 424.434
2389 0 153.38 13.6198 2089 128.185 1176.99 418.532
2390 0 157.361 14.1776 2231 127.43 1176.83 415.548
2391 0 164.253 13.7775 2263 127.607 1177.51 415.396
2392 0 173.273 13.9837 2423 125.818 1177.63 410.725
2393 0 179.375 14.2328 2553 124.933 1176.87 410.999
2394 1 99.3683 8.90626 885 126.799 1176.85 444.441
2395 0 106.387 11.9469 1271 120.74 1178.46 455.777
2396 0 108.365 11.1198 1205 121.47 1177.95 449.379
2397 0 111.323 11.3543 1264 121.007 1178.43 451.593
2398 0 115.318 12.1056 1396 118.524 1178.41 449.066
2399 0 122.415 12.1064 1482 116.848 1177.93 447.814
2400 0 125.439 13.2654 1664 116.567 1177.22 446.9
2401 0 131.323 12.7319 1672 115.877 1177.56 443.661
2402 0 134.3 11.4966 1544 118.293 1177.75 441.766
2403 0 139.266 12.6305 1759 114.322 1177.74 440.273
2404 0 143.346 12.4245 1781 114.902 1177.54 435.343
2405 0 149.326 12.2953 1836 115.081 1177 433.03
2406 0 152.477 12.087 1843 116.835 1177.37 431.103
2407 0 160.418 12.8352 2059 116.033 1178.55 431.255
2408 1 96.2192 9.98761 961 108.616 1178.69 462.276
2409 0 100.213 10.5575 1058 115.316 1176.92 461.554
2410 0 106.227 13.2358 1406 107.411 1176.34 461.967
2411 0 108.393 11.9934 1300 111.405 1176.35 460.697
2412 0 109.186 11.0453 1206 114.323 1176.71 458.483
2413 0 113.242 10.7116 1213 115.09 1176.93 457.941
2414 0 119.446 13.2277 1580 109.496 1177.18 453.55
2415 0 121.287 10.7761 1307 118.943 1177.7 448.196
2416 0 124.179 10.6379 1321 116.192 1177.72 447.394
2417 0 128.2 10.234 1312 115.262 1177.47 449.485
2418 0 132.253 9.79181 1295 117.309 1177.29 444.72
2419 0 140.201 10.9486 1535 114.317 1177.29 444.677
2420 1 79.0853 11.5824 916 105.09 1177.22 476.828
2421 0 81.1649 11.1255 903 106.925 1176.62 472.491
2422 0 84.1579 10.3377 870 102.043 1178.96 472.076
2423 0 86.1418 10.4943 904 101.732 1179.05 470.011
2424 0 88.1519 11.2193 989 101.235 1178.43 469.024
2425 0 91.2045 10.6683 973 102.208 1178.34 469.122
2426 0 95.1007 11.777 1120 99.7964 1179.12 467.943
2427 0 95.114 11.4284 1087 101.352 1178.77 462.521
2428 0 101.147 13.9006 1406 95.825 1178.92 464.251
2429 0 103.115 13.5868 1401 97.863 1179.06 461.166
2430 0 105.137 11.8036 1241 102.337 1178.93 462.871
2431 0 106.298 11.449 1217 104.564 1178.69 460.251
2432 0 110.211 11.6413 1283 105.119 1178.4 461.767
2433 0 112.156 11.8585 1330 105.194 1178.55 459.641
2434 0 114.346 9.87357 1129 111.063 1178.27 455.18
2435 0 119.435 11.0436 1319 108.556 1178.42 452.368
2436 0 124.432 13.0031 1618 104.324 1179.23 447.619
2437 0 126.238 10.4485 1319 119.524 1178.82 451.203
2438 0 132.216 12.5854 1664 115.179 1179.03 448.406
2439 0 136.194 12.2693 1671 116.332 1179.08 444.19
2440 0 143.365 11.5161 1651 112.959 1177.14 437.378
2441 0 144.499 12.0693 1744 112.97 1177.39 438.772
2442 1 77.2732 9.57641 740 103.472 1178.51 472.385
2443 0 82.2687 11.0127 906 109.035 1178.4 470.433
2444 0 87.2899 12.7277 1111 100.863 1177.33 466.778
2445 0 86.165 11.4083 983 103.458 1176.81 472.986
2446 0 90.1621 11.568 1043 103.656 1176.78 470.5
2447 0 91.1614 11.4632 1045 105.062 1176.42 471.161
2448 0 94.1521 12.4692 1174 103.254 1176.86 467.939
2449 0 98.2209 12.5126 1229 103.749 1177.62 466.435
2450 0 100.148 11.7026 1172 106.55 1177.68 467.027
2451 0 103.187 12.298 1269 105.846 1177.32 465.738
2452 0 106.224 11.8994 1264 108.125 1177.27 463.032
2453 0 108.097 12.757 1379 106.579 1177.4 464.554
2454 0 112.309 12.7327 1430 107.69 1177.47 460.28
2455 0 115.228 13.4602 1551 106.576 1177.84 460.704
2456 0 119.343 12.5269 1495 117.283 1177.59 457.092
2457 0 121.202 11.6335 1410 115.423 1177.55 454.601
2458 0 124.235 11.5748 1438 117.42 1178.29 452.165
2459 0 127.186 12.8395 1633 112.359 1177.98 451.466
2460 0 130.357 12.1666 1586 113.466 1176.84 449.359
2461 0 135.189 12.9597 1752 111.568 1177.06 443.904
2462 0 139.262 12.6524 1762 112.804 1177.25 446.277
2463 0 141.194 12.4368 1756 114.416 1177.34 441.502
2464 0 146.316 11.4683 1678 120.225 1176.57 442.336
2465 0 151.281 12.9362 1957 116.912 1176.77 439.976
2466 0 155.532 11.9783 1863 120.973 1176.59 436.306
2467 0 159.281 12.3618 1969 120.843 1176.35 434.483
2468 0 168.25 13.4205 2258 117.031 1176.26 434.634
2469 0 171.423 12.5829 2157 120.484 1177.12 429.83
2470 0 178.316 13.6948 2442 118.278 1177.2 426.797
2471 0 183.462 12.7711 2343 120.802 1177.71 421.925
2472 1 104.165 10.1378 1056 111.997 1176.82 467.333
2473 0 106.135 12.1544 1290 111.279 1176.88 461.398
2474 0 109.133 12.3977 1353 110.229 1176.48 456.891
2475 0 113.175 12.7501 1443 109.475 1176.91 456.588
2476 0 120.144 13.3506 1604 105.995 1176.81 457.339
2477 0 122.2 13.3633 1633 106.935 1177.09 452.787
2478 0 124.389 12.7181 1582 109.203 1177.26 449.324
2479 0 128.172 12.4209 1592 109.413 1177.29 449.427
2480 0 134.26 12.4385 1670 109.893 1177.72 445.086
2481 0 136.231 12.288 1674 110.605 1176.72 443.369
2482 0 142.239 12.479 1775 109.311 1177.06 443.206
2483 0 149.287 12.3588 1845 110.234 1177.09 441.385
2484 0 152.396 12.1591 1853 112.736 1177.37 433.671
2485 1 85.1293 10.4077 886 105.836 1176.11 470.591
2486 0 88.181 11.2382 991 104.647 1177.08 466.363
2487 0 90.2101 11.4732 1035 103.492 1176.73 465.147
2488 0 93.0788 12.0113 1118 101.958 1176.08 463.505
2489 0 97.1168 12.243 1189 101.958 1176.01 462.364
2490 0 101.168 12.9686 1312 100.097 1175.78 462.932
2491 0 103.092 13.3764 1379 100.51 1176.71 458.164
2492 0 103.102 11.2025 1155 105.503 1176.55 459.851
2493 0 107.1 12.9598 1388 101.3 1176.42 458.841
2494 0 111.146 12.2721 1364 103.113 1176.66 453.296
2495 0 113.164 12.9104 1461 103.369 1176.09 451.988
2496 0 117.178 12.0415 1411 104.258 1176.22 450.629
2497 0 121.182 13.4755 1633 103.547 1176.42 449.429
2498 0 124.122 12.3991 1539 105.643 1176.69 452.757
2499 0 127.191 12.3594 1572 109.715 1177.07 450.342
2500 0 131.158 10.8114 1418 111.791 1177.54 449.858
2501 1 74.0685 11.2463 833 106.466 1175.83 473.038
2502 0 75.1051 11.424 858 106.91 1177.02 477.234
2503 0 78.0858 12.4222 970 105.12 1176.18 473.757
2504 0 81.0921 13.2442 1074 103.63 1176.03 471.312
2505 0 83.2741 12.0205 1001 108.624 1176.75 469.209
2506 0 86.2866 12.1803 1051 108.801 1176.67 470.343
2507 0 87.2341 12.369 1079 109.447 1177.16 467.263
2508 0 92.2248 12.2852 1133 109.568 1176.65 467.724
2509 0 94.3343 13.9292 1314 107.473 1176.91 465.822
2510 0 97.2869 12.7766 1243 109.941 1177.08 466.514
2511 0 97.2467 12.2781 1194 112.564 1177.54 464.633
2512 0 102.416 13.2109 1353 111.003 1177.09 462.395
2513 0 105.272 13.2893 1399 110.896 1177.06 463.277
2514 0 108.392 14.3738 1558 108.841 1177.78 459.583
2515 0 112.218 13.3936 1503 112.458 1177.76 457.43
2516 0 113.319 13.0164 1475 114.148 1177.89 458.242
2517 0 116.301 14.0755 1637 112.936 1177.09 456.084
2518 0 119.284 13.6565 1629 115.295 1177.99 453.821
2519 0 123.192 14.5708 1795 113.323 1177.93 454.143
2520 0 126.394 13.806 1745 116.785 1178.51 446.888
2521 0 132.506 14.4522 1915 110.99 1177.94 442.35
2522 1 72.2835 10.7217 775 110.911 1178.88 466.212
2523 0 75.2719 12.3419 929 110.036 1178.14 467.043
2524 0 74.137 11.182 829 116.397 1177.39 475.914
2525 0 77.1274 11.6949 902 114.778 1177.48 475.345
2526 0 81.1839 13.5125 1097 110.614 1177.94 474.643
2527 0 83.1737 13.5499 1127 112.291 1177.28 471.001
2528 0 85.1102 12.1725 1036 115.236 1176.77 473.157
2529 0 89.1833 12.9172 1152 114.825 1177.4 469.563
2530 0 88.1596 12.863 1134 116.926 1177.22 468.825
2531 0 92.1902 12.344 1138 118.176 1177.03 468.038
2532 0 96.3138 13.4145 1292 115.671 1177.46 465.291
2533 0 98.2782 12.892 1267 117.78 1177.15 463.454
2534 0 101.323 12.2776 1244 118.228 1177.8 463.739
2535 0 105.343 13.1191 1382 117.059 1177.65 460.972
2536 0 106.245 12.1982 1296 119.915 1177.56 461.085
2537 0 110.246 13.7239 1513 116.376 1177.79 458.675
2538 0 112.24 12.8296 1440 118.081 1176.73 457.874
2539 1 62.0846 11.7098 727 112.942 1176.86 483.216
2540 0 62.0669 12.3254 765 113.484 1177.53 478.582
2541 0 65.0425 11.7769 766 114.363 1177.22 481.332
2542 0 65.0234 11.9803 779 114.413 1177.36 477.108
2543 0 68.0931 12.292 837 114.17 1177.83 478.154
2544 0 70.1006 12.9956 911 111.336 1177.62 478.089
2545 0 72.0683 13.6398 983 111.287 1178 476.301
2546 0 74.1456 12.4755 925 114.604 1178.27 475.292
2547 0 75.265 12.25 922 115.921 1177.74 472.311
2548 0 78.1895 12.2011 954 116.256 1178.3 471.186
2549 0 80.1268 13.0543 1046 113.728 1177.58 472.216
2550 0 84.2104 13.6682 1151 113.135 1177.36 467
2551 0 86.2495 14.1102 1217 112.837 1178.48 463.553
2552 0 89.3343 13.4775 1204 114.436 1178.9 465.159
2553 0 90.3975 12.3344 1115 118.245 1178.58 464.924
2554 0 94.2993 14.2207 1341 113.52 1179.34 462.514
2555 0 94.2762 13.7787 1299 115.998 1179.55 461.778
2556 0 98.2775 13.4008 1317 115.064 1179.08 460.087
2557 0 101.319 14.5679 1476 111.48 1178.71 460.014
2558 0 103.415 12.7351 1317 116.036 1178.84 457.16
2559 0 108.453 13.6464 1480 113.433 1179.55 454.461
2560 0 111.34 13.6879 1524 114.632 1178.92 451.24
2561 0 116.317 13.5319 1574 113.279 1179.89 451.248
2562 1 59.2865 11.3854 675 112.536 1178.76 480.055
2563 0 60.2154 11.8574 714 110.227 1179.02 479.059
2564 0 63.1471 13.3814 845 104.93 1178.22 479.927
2565 0 65.2853 14.7506 963 105.672 1178.08 477.42
2566 0 68.1276 12.5206 853 109.148 1178.77 477.564
2567 0 69.1733 12.6783 877 110.43 1179.18 476.186
2568 0 71.3077 13.028 929 110.183 1178.42 475.227
2569 0 74.2845 12.8829 957 111.72 1178.34 471.634
2570 0 76.4214 12.7582 975 110.68 1179.19 470.264
2571 0 79.5464 13.9541 1110 107.41 1179.18 469.177
2572 0 80.2771 12.1703 977 111.099 1179.33 466.377
2573 0 84.4265 13.3963 1131 107.202 1179.35 467.447
2574 0 85.4221 11.929 1019 112.352 1179.42 463.113
2575 0 89.2081 11.9272 1064 103.737 1179.85 461.608
2576 0 92.1772 11.7816 1086 102.78 1180.83 461.697
2577 0 96.3925 11.7748 1135 101.899 1179.5 460.401
2578 0 98.3169 11.3917 1120 103.595 1179.47 458.083
2579 0 103.325 12.4268 1284 100.071 1178.94 458.792
2580 0 103.287 11.9666 1236 104.042 1179.49 453.48
2581 0 107.274 11.1211 1193 105.282 1179.78 454.728
2582 1 61.318 10.6168 651 98.9462 1179.57 479.444
2583 0 62.1562 9.95879 619 100.052 1180 478.827
2584 0 65.2141 12.4053 809 95.7787 1180.13 476.473
2585 0 68.197 11.2908 770 97.7325 1180.47 479.487
2586 0 70.2446 12.5419 881 96.269 1178.88 475.226
2587 0 72.306 11.0641 800 99.2375 1179.68 477.902
2588 0 76.1774 12.7072 968 97.3864 1180.33 475.189
2589 0 78.186 12.5214 979 98.2196 1179.21 475.566
2590 0 81.1832 13.1801 1070 98.1421 1179.26 471.479
2591 0 83.1662 12.6373 1051 100.581 1179.46 469.743
2592 0 87.2343 13.4695 1175 98.5021 1178.77 471.129
2593 0 90.1342 12.548 1131 101.946 1179.48 470.194
2594 0 89.2466 12.1573 1085 105.229 1179.02 468.612
2595 0 94.1658 12.7966 1205 104.749 1179.23 466.462
2596 0 97.1877 13.1704 1280 103.923 1179.81 465.459
2597 0 100.239 11.9914 1202 107.913 1180.14 462.379
2598 0 105.343 12.0464 1269 107.476 1179.51 461.745
2599 1 57.0598 12.5132 714 98.1176 1180.9 487
2600 0 57.0748 13.1406 750 99.1227 1180.77 484.393
2601 0 59.0789 13.5074 798 98.9837 1179.21 483.288
2602 0 61.2021 12.8754 788 100.562 1178.46 482.199
2603 0 63.2316 12.6519 800 101.5 1178.92 482.159
2604 0 65.1036 13.8856 904 99.625 1178.14 480.542
2605 0 66.1354 13.8655 917 100.31 1178.47 480.222
2606 0 69.0856 13.201 912 101.056 1178.92 479.11
2607 0 70.2068 12.4632 875 103.495 1179.16 476.647
2608 0 74.1561 13.3098 987 101.625 1178.18 475.914
2609 0 75.2384 13.0253 980 103.011 1178.57 473.924
2610 0 75.1964 12.3277 927 105.841 1178.51 472.707
2611 0 78.1094 13.2891 1038 103.238 1178.07 472.985
2612 0 82.2597 14.0895 1159 101.899 1177.82 471.57
2613 0 85.1849 14.2866 1217 101.318 1177.68 472.263
2614 0 87.3284 12.9626 1132 104.697 1178.39 469.776
2615 0 90.2638 13.3498 1205 103.577 1179.48 470.107
2616 0 94.2787 14.0223 1322 103.127 1178.92 466.856
2617 0 93.2505 11.9356 1113 109.726 1178.38 463.922
2618 1 50.1609 11.184 561 108.742 1178.34 488.775
2619 0 53.1037 12.485 663 107.276 1178.74 485.816
2620 0 55.1145 12.2472 675 106.391 1178.1 486.037
2621 0 59.154 13.3888 792 103.115 1177.81 485.194
2622 0 59.1817 13.788 816 104.4 1178.32 482.901
2623 0 63.1674 13.1872 833 102.697 1178.25 485.477
2624 0 63.1416 13.446 849 102.502 1178.18 485.051
2625 0 64.157 13.0461 837 102.746 1178.14 484.662
2626 0 68.1231 13.7986 940 100.504 1177.52 482.88
2627 0 68.1781 12.218 833 101.451 1178.35 481.401
2628 0 71.142 11.8355 842 101.273 1178.33 479.759
2629 0 74.1483 13.5539 1005 98.6398 1177.56 476.368
2630 0 77.1665 12.8683 993 99.3897 1177.39 477.708
2631 0 79.197 12.6141 999 100.657 1177.66 476.463
2632 0 83.2913 14.5754 1214 97.0412 1177.37 474.152
2633 0 86.1811 13.8313 1192 98.4539 1177.48 472.721
2634 0 86.1742 13.4379 1158 99.8929 1177.45 473.533
2635 0 89.136 12.4753 1112 101.452 1177.05 472.986
2636 0 92.0822 14.6934 1353 97.6733 1177.81 470.367
2637 0 95.1636 14.2912 1360 98.8257 1178.51 468.987
2638 0 98.1651 13.2022 1296 101.035 1177.98 465.275
2639 0 101.139 13.6545 1381 100.21 1177.65 465.882
2640 0 103.128 13.0032 1341 101.504 1177.82 466.867
2641 0 106.105 14.1652 1503 99.3034 1177.94 462.545
2642 0 109.132 13.8181 1508 101.318 1178.01 463.649
2643 0 115.312 14.7773 1704 99.1068 1177.58 461.69
2644 0 116.164 12.9472 1504 105.938 1177.66 458.898
2645 0 123.321 13.623 1680 105.542 1176.83 453.555
2646 0 127.25 13.3124 1694 106.055 1177.73 454.08
2647 1 65.11 11.9029 775 107.178 1177.99 485.017
2648 0 66.1844 11.4528 758 111.776 1176.51 479.142
2649 0 72.0944 13.94 1005 104.532 1175.56 477.987
2650 0 73.14 13.7134 1003 106.091 1176.21 478.51
2651 0 77.0517 13.3676 1030 106.792 1175.88 475.286
2652 0 78.1547 12.8847 1007 108.757 1175.15 474.23
2653 0 81.1308 14.076 1142 106.8 1175.43 471.242
2654 0 82.146 13.2082 1085 109.126 1175.37 470.802
2655 0 86.1744 14.6215 1260 105.845 1175.45 469.89
2656 0 90.1562 13.9425 1257 107.331 1175.68 467.786
2657 0 92.1231 13.2432 1220 108.593 1175.48 469.47
2658 0 95.2047 15.4194 1468 105.049 1175.63 465.71
2659 0 97.1925 14.034 1364 108.819 1175.37 461.641
2660 0 102.4 14.7168 1507 104.981 1176.77 462.354
2661 0 103.277 13.5848 1403 106.922 1177.41 461.981
2662 0 108.332 13.477 1460 107.825 1177.33 459.687
2663 0 109.452 12.6722 1387 110.488 1176.92 458.965
2664 1 63.172 12.648 799 107.511 1177.02 482.793
2665 0 63.0182 12.901 813 108.886 1175.46 483.304
2666 0 67.0274 14.1584 949 104.907 1175.75 482.709
2667 0 69.0443 13.1075 905 108.185 1175.37 480.459
2668 0 72.0433 14.8244 1068 103.866 1174.76 479.476
2669 0 73.0707 14.4518 1056 105.597 1175.29 478.509
2670 0 75.1067 14.1399 1062 106.189 1175.67 476.951
2671 0 78.1385 13.604 1063 109.63 1175.55 476.306
2672 0 80.0588 13.4276 1075 109.628 1175.47 473.984
2673 0 84.0768 14.1061 1186 108.016 1175.14 473.505
2674 0 87.0572 14.5307 1265 107.687 1175.22 471.111
2675 0 89.0758 14.1453 1260 108.833 1175.45 469.961
2676 0 94.0509 15.2364 1433 106.248 1175.47 468.202
2677 0 96.1409 14.2083 1366 108.643 1175.31 469.001
2678 0 99.0855 13.8668 1374 109.612 1175.35 466.497
2679 0 103.242 13.2117 1364 110.946 1175.81 464.206
2680 0 105.186 13.2622 1395 111.605 1176.08 461.183
2681 1 57.0571 11.0065 628 109.424 1175.49 486.532
2682 0 58.0808 11.725 681 109.101 1176.37 486.319
2683 0 63.1871 14.1484 894 104.681 1176.54 482.266
2684 0 65.0917 14.2568 928 104.494 1175.33 481.658
2685 0 65.0823 12.2153 795 110.019 1175.4 479.668
2686 0 69.1496 13.4491 930 106.842 1175.47 480.342
2687 0 71.0318 13.2476 941 107.023 1175.1 478.87
2688 0 73.0595 14.454 1056 105.234 1175.4 478.326
2689 0 78.0408 13.4929 1053 105.823 1175.91 478.194
2690 0 78.0492 12.3896 967 109.536 1176.02 474.896
2691 0 80.0804 13.2117 1058 108.932 1175.29 473.338
2692 0 82.0861 12.5356 1029 110.095 1175.83 473.488
2693 0 86.09 14.2061 1223 105.832 1176.31 473.114
2694 0 87.0543 13.4858 1174 109.131 1175.68 469.747
2695 0 91.0409 13.6422 1242 109.118 1174.95 468.965
2696 0 92.1022 13.865 1277 109.688 1175.83 468.126
2697 0 98.1356 14.4698 1420 107.274 1175.82 466.898
2698 0 98.2238 12.1152 1190 114.055 1175.71 465.711
2699 0 105.187 14.0511 1478 99.6495 1175.96 463.569
2700 0 105.237 11.7924 1241 114.424 1175.62 461.494
2701 0 112.25 14.4588 1623 107.49 1175.96 462.057
2702 0 113.234 13.6973 1551 110.877 1175.5 458.246
2703 0 117.16 14.0151 1642 110.063 1175.78 454.34
2704 0 123.196 15.309 1886 107.003 1176.07 453.846
2705 0 127.198 14.3949 1831 107.925 1175.97 453.104
2706 1 71.0608 11.3565 807 111.055 1175.62 478.395
2707 0 74.0459 13.1675 975 101.659 1176.3 477.306
2708 0 78.2293 12.719 995 101.729 1176.11 475.613
2709 0 80.1981 11.5838 929 103.738 1176.04 475.376
2710 0 84.1056 13.4236 1129 99.3756 1175.93 474.139
2711 0 85.1457 12.3436 1051 101.845 1176.84 473.358
2712 0 90.1707 13.2526 1195 100.174 1176.3 469.405
2713 0 93.2035 13.2398 1234 99.9028 1176.73 468.895
2714 0 97.1635 13.6883 1330 98.6624 1176.82 466.741
2715 0 101.251 14.4098 1459 97.2173 1176.11 463.738
2716 0 100.171 12.7682 1279 101.553 1176.01 464.135
2717 0 107.303 12.7303 1366 101.366 1176.88 461.242
2718 0 109.363 13.469 1473 100.473 1177.34 456.931
2719 0 110.32 11.5392 1273 105.322 1176.77 455.572
2720 0 115.247 12.4949 1440 103.393 1177.12 454.992
2721 0 120.327 13.056 1571 102.499 1177.28 452.034
2722 0 126.358 13.3588 1688 101.283 1176.44 451.731
2723 1 69.4317 11.3925 791 102.601 1176.74 477.372
2724 0 69.6438 12.0757 841 103.375 1177.45 474.542
2725 0 73.6139 13.4893 993 101.513 1176.99 471.86
2726 0 76.4801 13.0491 998 104.221 1177.86 470.054
2727 0 78.5389 11.9049 935 105.999 1177.73 472.018
2728 0 81.4172 12.7983 1042 105.858 1177.42 467.194
2729 0 84.4303 12.1047 1022 108.027 1177.61 464.324
2730 0 85.6678 11.8831 1018 108.083 1178.18 468.423
2731 0 88.4824 15.2008 1345 102.74 1178.01 465.158
2732 0 91.4443 14.8068 1354 104.386 1177.66 463.009
2733 0 91.4003 11.7943 1078 111.262 1177.59 461.035
2734 0 94.5571 11.5168 1089 108.154 1178.24 463.352
2735 0 99.1899 12.2795 1218 101.805 1178.37 462.639
2736 0 100.096 11.9585 1197 103.326 1178.77 465.058
2737 0 103.132 11.3932 1175 105.285 1178.61 461.549
2738 0 109.087 11.4221 1246 104.688 1178.71 461.435
2739 0 108.217 10.8948 1179 108.031 1178.53 456.059
2740 0 113.261 12.0253 1362 105.739 1178.27 458.051
2741 0 117.331 11.165 1310 108.551 1178.24 455.222
2742 0 118.257 11.7033 1384 108.133 1178.24 451.999
2743 1 68.1167 10.849 739 99.7984 1178.9 482.742
2744 0 68.1476 10.624 724 103.229 1178.71 480.276
2745 0 72.1796 12.7875 923 100.21 1178.64 477.428
2746 0 76.2127 13.8428 1055 94.6882 1179.38 477.033
2747 0 76.1512 12.1731 927 98.4175 1179.41 478.044
2748 0 78.1599 11.8859 929 99.7955 1179.59 473.987
2749 0 80.2577 12.0362 966 100.087 1179.65 471.91
2750 0 83.1466 11.7864 980 100.733 1179.53 472.166
2751 0 85.1953 12.888 1098 98.5191 1179.11 469.929
2752 0 90.15 13.2335 1193 97.0545 1179.69 470.256
2753 0 92.1722 13.2686 1223 97.3573 1179.8 468.79
2754 0 94.2437 12.4783 1176 99.0068 1179.4 469.252
2755 0 98.1903 13.8303 1358 96.8594 1178.96 466.462
2756 0 101.327 12.4646 1263 99.9406 1179 465.151
2757 0 102.443 12.6802 1299 99.6744 1178.93 462.829
2758 0 104.274 12.3809 1291 100.138 1178.91 463.51
2759 0 108.302 12.9546 1403 99.3443 1178.86 461.433
2760 0 112.269 12.6482 1420 99.6923 1178.82 459.003
2761 0 114.148 11.8005 1347 102.811 1178.94 458.339
2762 0 117.177 12.6049 1477 99.9865 1179.46 454.886
2763 0 121.177 11.7515 1424 99.7022 1179.1 456.262
2764 0 126.235 12.6589 1598 99.6039 1178.94 447.798
2765 0 128.149 12.1655 1559 100.423 1178.62 446.306
2766 0 134.285 11.8181 1587 100.466 1178.53 444.817
2767 1 77.111 10.7118 826 98.1562 1179.19 476.08
2768 0 81.521 11.4449 933 97.9035 1178.29 472.989
2769 0 83.2545 11.9994 999 98.1732 1178.96 468.832
2770 0 88.2929 12.0281 1062 94.936 1177.46 470.111
2771 0 87.1428 11.1082 968 97.8213 1177.96 467.764
2772 0 92.23 12.9893 1198 93.9382 1178.28 466.453
2773 0 95.0809 12.1896 1159 95.3607 1177.63 466.692
2774 0 96.1218 12.3281 1185 94.3511 1177.49 463.127
2775 0 102.156 12.3732 1264 93.8078 1177.64 463.217
2776 0 103.136 12.0617 1244 96.4855 1179.23 460.432
2777 0 106.187 11.6587 1238 96.5048 1178.39 457.96
2778 0 110.257 12.1987 1345 95.0959 1178.95 459.072
2779 0 113.149 11.1269 1259 97.618 1178.47 457.921
2780 0 117.178 12.4597 1460 96.05 1179.11 455.934
2781 0 122.171 13.3256 1628 94.2076 1178.83 455.953
2782 0 124.236 11.623 1444 98.4148 1178.13 452.3
2783 0 130.397 12.623 1646 98.0103 1177.63 451.283
2784 1 72.4985 9.13122 662 97.4154 1177.94 468.52
2785 0 77.1134 9.92046 765 96.0614 1178.68 474.71
2786 0 80.138 11.7547 942 92.1062 1178.59 474.051
2787 0 84.3562 12.8029 1080 90.1991 1178.51 472.341
2788 0 86.2919 11.913 1028 92.9047 1178.7 469.689
2789 0 90.2088 12.7593 1151 91.7315 1178.67 471.078
2790 0 91.1858 12.7103 1159 95.2614 1179.29 468.14
2791 0 94.1845 12.0933 1139 97.7041 1179.11 467.26
2792 0 97.254 11.2386 1093 100.101 1178.94 464.448
2793 0 101.276 12.6091 1277 97.5959 1178.02 464.534
2794 0 100.243 11.6915 1172 100.141 1178.12 463.507
2795 0 105.341 12.5876 1326 99.8183 1178.6 460.819
2796 0 108.369 12.4482 1349 101.143 1177.83 458.119
2797 0 112.402 12.8379 1443 101.435 1177.62 456.193
2798 0 113.319 10.6073 1202 106.363 1178.13 456.024
2799 0 118.417 12.1267 1436 103.572 1177.59 454.416
2800 0 121.321 12.5864 1527 103.742 1177.79 451.154
2801 0 125.36 12.5478 1573 104.322 1178 446.516
2802 0 129.476 12.4579 1613 104.627 1178.1 447.637
2803 0 133.475 13.2759 1772 102.876 1177.97 447.553
2804 0 137.313 12.4752 1713 105.794 1177.94 441.904
2805 1 75.1373 10.3943 781 99.7362 1177.95 475.305
2806 0 78.2075 11.0987 868 99.3583 1178.02 474.95
2807 0 81.226 12.0282 977 97.2968 1179.15 471.72
2808 0 81.3087 12.2127 993 98.0282 1178.9 470.179
2809 0 87.2858 10.9984 960 100.052 1179.05 467.922
2810 0 89.4313 12.2888 1099 98.5541 1179.33 465.67
2811 0 90.411 10.7067 968 102.306 1178.71 464.693
2812 0 96.5044 13.2533 1279 96.7803 1179.47 464.653
2813 0 98.4807 13.1904 1299 97.9022 1178.97 461.927
2814 0 99.4492 11.3927 1133 101.716 1178.2 461.669
2815 0 101.387 12.0528 1222 102.371 1177.62 457.285
2816 0 107.371 13.4953 1449 99.0255 1178.28 457.817
2817 0 110.474 12.4283 1373 100.682 1178.5 457.572
2818 0 114.361 13.9471 1595 98.0708 1177.72 454.643
2819 0 118.369 13.027 1542 100.126 1177.78 452.688
2820 0 119.409 12.1097 1446 103.007 1178.17 450.856
2821 0 123.265 11.3008 1393 104.248 1177.52 447.728
2822 0 129.374 13.5499 1753 99.6264 1177.79 446.977
2823 1 72.3049 10.1653 735 96.9048 1177.76 476.724
2824 0 76.2603 11.4607 874 93.595 1178.25 477.465
2825 0 76.0557 11.3732 865 96.9376 1177.08 475.054
2826 0 80.1553 12.0641 967 96.5791 1176.72 472.659
2827 0 83.1539 11.629 967 96.8976 1177.02 474.123
2828 0 85.1648 11.6245 990 98.7515 1177.28 468.512
2829 0 90.1882 13.4496 1213 95.5416 1177.42 469.83
2830 0 92.1219 12.0601 1111 98.883 1178.19 469.091
2831 0 94.3541 12.2199 1153 99.6028 1177.76 466.964
2832 0 98.3645 12.5757 1237 99.1835 1177.61 462.272
2833 0 102.507 12.7015 1302 99.5154 1177.25 461.561
2834 0 104.3 12.9051 1346 99.6374 1177.48 459.566
2835 0 108.311 12.3349 1336 100.37 1178.12 458.672
2836 0 109.37 12.5812 1376 101.679 1177.31 455.346
2837 0 114.472 13.9773 1600 98.965 1177.36 453.902
2838 0 121.423 16.6607 2023 92.4147 1176.93 449.809
2839 0 119.482 12.6212 1508 102.339 1176.53 451.311
2840 0 127.249 14.2477 1813 97.8577 1176.86 451.713
2841 0 130.534 13.4677 1758 100.013 1177.22 449.085
2842 1 72.2267 10.7163 774 98.0233 1177.47 477.907
2843 0 72.0756 11.9874 864 97.4838 1176.92 478.781
2844 0 76.0943 11.7617 895 98.2458 1177.97 477.822
2845 0 81.1858 13.6723 1110 96.9387 1176.41 476.239
2846 0 81.1871 13.3149 1081 96.3904 1176.69 475.685
2847 0 86.2139 12.701 1095 96.8 1177.39 474.986
2848 0 88.1336 11.9932 1057 98.6244 1178.07 471.253
2849 0 88.1585 11.9217 1051 100.892 1177.56 467.979
2850 0 92.2267 11.9163 1099 99.8126 1178.09 469.261
2851 0 95.2392 12.2639 1168 98.9332 1178 468.882
2852 0 96.2268 12.6368 1216 98.81 1177.93 466.59
2853 0 100.473 12.3815 1244 100.193 1177.84 463.551
2854 0 104.243 12.02 1253 101.143 1177.74 462.06
2855 0 106.321 13.0361 1386 100.097 1177.76 460.218
2856 0 107.281 10.6263 1140 105.095 1177.59 457.657
2857 0 111.263 11.3515 1263 104.539 1177.68 457.811
2858 0 116.239 13.24 1539 101.765 1177.63 452.711
2859 0 118.315 13.1682 1558 102.21 1176.89 452.038
2860 0 121.253 11.2244 1361 105.578 1176.84 451.895
2861 0 128.268 13.1678 1689 102.805 1176.57 447.712
2862 0 132.222 12.0176 1589 103.98 1177.05 450.286
2863 0 135.368 12.9204 1749 104.408 1176.71 441.563
2864 0 139.326 13.2423 1845 104.379 1176.28 443.579
2865 0 147.348 13.6819 2016 103.837 1176.28 439.137
2866 1 85.1662 11.9296 1016 101.425 1176.95 468.747
2867 0 88.1831 11.9637 1055 101.325 1174.96 472.6
2868 0 92.1733 13.1274 1210 101.51 1175.45 468.934
2869 0 93.1286 12.6599 1179 103.411 1175.51 467.02
2870 0 98.1388 13.2567 1301 102.271 1175.25 467.912
2871 0 98.1333 12.4321 1220 106.67 1175.91 462.757
2872 0 103.181 13.0547 1347 105.376 1175.49 462.06
2873 0 107.125 13.517 1448 105.865 1175.52 459.854
2874 0 109.276 12.8482 1404 108.439 1174.89 460.516
2875 0 113.094 12.7416 1441 109.148 1175.86 459.271
2876 0 115.204 12.4302 1432 113.024 1175.53 452.731
2877 0 120.142 13.3592 1605 111.408 1175.68 452.725
2878 0 120.184 12.173 1463 116.301 1175.16 448.04
2879 0 125.25 13.3892 1677 112.105 1174.91 450.811
2880 0 130.244 14.1734 1846 111.405 1175 447.663
2881 0 135.228 13.2961 1798 113.947 1174.84 444.934
2882 0 136.317 12.3755 1687 117.162 1175.3 441.171
2883 0 143.16 13.5583 1941 115.244 1175.41 440.553
2884 0 148.188 13.5166 2003 115.881 1175.89 434.974
2885 0 153.197 14.0081 2146 115.646 1175.31 435.36
2886 0 156.234 12.6541 1977 119.501 1175.61 433.844
2887 0 161.276 12.3267 1988 121.885 1174.93 428.564
2888 0 170.175 14.3676 2445 116.728 1174.82 426.005
2889 1 99.065 10.7707 1067 112.842 1175.33 460.414
2890 0 101.148 10.8059 1093 109.177 1175.04 457.844
2891 0 105.153 12.3534 1299 112.895 1176.91 461.179
2892 0 108.121 12.3751 1338 112.803 1177.05 460.917
2893 0 110.13 11.9041 1311 106.912 1176.88 461.527
2894 0 114.133 11.7319 1339 108.739 1177.77 458.816
2895 0 117.083 11.872 1390 109.64 1177.13 456.305
2896 0 120.237 13.4651 1619 108.628 1177.6 448.435
2897 0 125.167 12.4633 1560 109.981 1177 451.713
2898 0 128.293 13.2119 1695 108.379 1177.01 451.742
2899 0 131.275 12.0586 1583 112.114 1176.54 447.025
2900 0 137.14 13.5773 1862 108.611 1176.13 446.55
2901 0 141.081 11.7166 1653 114.232 1175.7 442.098
2902 0 146.214 12.9194 1889 112.816 1175.14 437.472
2903 1 86.2551 10.4805 904 107.029 1176.85 465.897
2904 0 90.2468 11.0696 999 107.111 1177.04 464.782
2905 0 92.2921 11.1927 1033 108.258 1176.42 465.468
2906 0 96.1102 12.1319 1166 107.024 1174.73 467.072
2907 0 98.0554 12.7479 1250 106.728 1174.86 465.58
2908 0 101.09 13.1863 1333 107.035 1174.74 463.292
2909 0 104.094 12.3446 1285 108.443 1174.86 464.875
2910 0 104.129 11.8315 1232 104.25 1175.72 464.793
2911 0 106.196 9.18114 975 110.686 1176.04 458.876
2912 0 113.129 12.6935 1436 103.743 1175.78 459.818
2913 0 116.112 11.3167 1314 106.823 1176.22 458.668
2914 0 118.079 11.5092 1359 107.695 1176.27 455.87
2915 0 123.156 11.9361 1470 107.306 1175.46 454.264
2916 0 125.174 12.191 1526 109.014 1175.8 450.125
2917 0 131.156 11.9705 1570 106.827 1176.16 448.913
2918 0 135.308 12.7339 1723 108.598 1175.94 447.568
2919 0 138.133 11.764 1625 112.257 1175.91 445.982
2920 0 143.153 13.4751 1929 110.657 1175.69 440.125
2921 0 147.229 11.173 1645 118.074 1174.61 436.926
2922 0 154.101 12.1155 1867 114.263 1175.06 438.943
2923 1 96.0759 12.1987 1172 106.496 1175.42 468.712
2924 0 100.178 12.7573 1278 101.944 1175.51 464.908
2925 0 101.119 12.8858 1303 109.061 1175.39 463.585
2926 0 103.229 12.5255 1293 107.058 1175.87 461.606
2927 0 105.117 11.9485 1256 108.62 1176.02 460.438
2928 0 109.175 11.477 1253 109.381 1176.18 459.804
2929 0 111.301 11.8417 1318 108.532 1176.03 460.41
2930 0 115.249 11.332 1306 110.912 1176.2 451.799
2931 0 120.502 10.6637 1285 111.225 1176.34 455.508
2932 0 122.333 12.0164 1470 109.684 1176.01 454.246
2933 0 126.209 11.9326 1506 110.734 1175.95 450.156
2934 0 131.384 13.4111 1762 107.949 1176.54 448.798
2935 0 132.402 11.601 1536 112.173 1175.91 448.423
2936 0 136.298 11.7243 1598 116.968 1176.46 443.929
2937 0 142.234 13.3934 1905 104.634 1176.27 439.008
2938 0 146.197 11.8402 1731 109.243 1175.6 440.299
2939 0 151.277 11.2707 1705 111.833 1175.5 436.849
2940 0 154.283 11.991 1850 111.763 1175.84 430.305
2941 0 159.255 11.918 1898 112.615 1176.13 428.18
2942 0 164.28 11.8578 1948 113.498 1175.5 427.039
2943 0 167.261 11.3894 1905 116.059 1175.83 421.153
2944 0 172.426 11.9993 2069 114.938 1175.86 415.969
2945 0 177.445 12.1615 2158 115.685 1175.73 414.451
2946 0 180.435 11.1952 2020 117.757 1175.99 413.964
2947 0 188.485 12.4413 2345 115.833 1175.8 411.417
2948 0 192.415 11.7403 2259 118.991 1175.48 409.946
2949 0 199.526 12.2491 2444 119.077 1175.23 405.503
2950 0 206.632 12.7376 2632 118.071 1175.01 402.475
2951 0 210.444 12.0555 2537 119.644 1175.64 397.7
2952 0 218.423 12.3842 2705 119.371 1175.28 396.939
2953 0 225.516 11.2232 2531 123.294 1175.48 389.849
2954 1 56.3023 9.37795 528 102.231 1175.77 478.843
2955 0 60.1427 10.4751 630 101.771 1175.11 483.683
2956 0 60.0932 11.4156 686 102.676 1174.72 484.787
2957 0 62.1763 12.7862 795 99.8428 1174.57 482.663
2958 0 65.1606 12.661 825 100.527 1174.82 481.802
2959 0 65.1001 10.5069 684 107.668 1174.11 479.165
2960 0 66.1138 11.4046 754 106.481 1174.89 480.036
2961 0 69.1909 12.0392 833 105.158 1175.27 479.423
2962 0 73.2083 13.1542 963 101.209 1175.29 481.268
2963 0 73.2655 11.1239 815 107.795 1175.25 478.95
2964 0 73.2057 11.215 821 108.641 1174.42 476.49
2965 0 77.4612 11.8382 917 107.446 1175.69 473.36
2966 0 80.2585 11.2761 905 107.371 1174.88 476.843
2967 0 82.4067 12.5961 1038 106.284 1175.65 473.452
2968 1 36.2937 10.4426 379 99.5462 1177.06 495.871
2969 0 35.3128 11.3273 400 99.2625 1176.75 498.035
2970 0 36.0211 10.1607 366 104.587 1178 498.287
2971 0 35.0561 10.0125 351 100.92 1177.17 499.57
2972 0 35.0236 10.2788 360 102.667 1176.51 498.914
2973 0 37.012 11.4017 422 100.462 1176.68 498.858
2974 0 38.0978 12.8616 490 98.0633 1175.66 499.698
2975 0 39.0475 11.9086 465 100.637 1174.16 497.108
2976 0 38.0253 11.4661 436 101.596 1175.75 496.667
2977 0 40.0109 10.4471 418 103.208 1175.22 497.134
2978 0 40.0407 9.88993 396 106.215 1175.52 493.735
2979 0 42.037 11.3471 477 102.436 1175.24 493.409
2980 0 42.176 12.0685 509 102.194 1176.18 494.682
2981 0 41.1609 11.7102 482 105 1175.92 493.307
2982 0 44.2711 12.0395 533 104.816 1175.29 494.156
2983 0 45.1835 12.1505 549 104.109 1177.66 495.091
2984 1 0 0 13.4545 -nan 12.5088 13.1061
2985 1 44.2616 10.9576 485 111.219 1177.41 492.845
2986 0 46.1535 12.5451 579 106.622 1177.8 493.624
2987 0 47.3872 13.0626 619 107.157 1177.02 492.901
2988 0 48.2148 12.548 605 108.402 1177.02 493.74
2989 0 50.2995 12.187 613 110.171 1177.04 493.207
2990 0 49.1083 12.4012 609 111.411 1177.36 489.424
2991 0 52.1038 11.8034 615 112.88 1178.49 482.932
2992 0 51.114 12.2471 626 113.776 1177.73 480.77
2993 0 52.1591 13.1904 688 112.455 1177.9 479.612
2994 0 52.0926 13.5144 704 112.638 1177.92 480.642
2995 0 52.1111 15.8316 825 104.806 1177.97 489.474
2996 0 52.1111 15.8316 825 142.927 1177.99 489.491
2997 0 50.058 13.3445 668 116.828 1178.65 490.121
2998 0 51.1699 13.3282 682 117.742 1178.18 489.743
2999 0 52.1197 13.6609 712 117.907 1178.03 493.139
3000 0 50.0951 12.2766 615 125 1177.82 494.976
3001 0 49.0632 13.1463 645 123.705 1178.11 493.412
3002 0 49.0632 13.1463 645 162.755 1178.11 493.343
3003 0 52.0696 13.77 717 122.473 1178.45 493.311
3004 0 53.0822 13.9218 739 122.183 1178.29 494.129
3005 0 52.0851 13.3435 695 125.591 1178.25 493.737
3006 0 52.0536 13.4285 699 157.908 1178.27 493.652
3007 0 54.0743 13.6664 739 126.488 1178.15 494.11
3008 0 52.1423 13.77 718 128.549 1177.41 492.887
3009 0 53.0386 13.3488 708 128.386 1177.12 492.853
3010 0 52.094 13.3797 697 130.765 1177.11 493.71
3011 0 51.0396 13.323 680 132.35 1177.43 494.079
3012 0 52.0842 13.2094 688 132.52 1177.7 493.692
3013 0 53.0532 14.8153 786 126.134 1178.19 493.108
3014 0 51.0832 13.3116 680 135.287 1177.65 493.791
3015 0 53.1688 14.4446 768 132.04 1176.97 493.156
3016 0 53.2696 14.6425 780 131.979 1177.16 492.719
3017 0 54.175 13.7702 746 134.874 1177.34 493.075
3018 0 51.1556 14.3484 734 135.82 1177.37 493.52
3019 0 53.2956 15.0482 802 132.575 1177.86 491.995
3020 0 52.3481 14.4609 757 135.102 1177.31 493.078
3021 0 52.2372 13.6876 715 138.625 1177.36 492.53
3022 0 54.2214 14.9572 811 131.911 1177.92 492.673
3023 0 53.2228 14.5239 773 134.102 1177.39 492.334
3024 0 54.2723 14.2614 774 134.127 1177.1 491.681
3025 0 55.2376 14.6096 807 130.893 1177.46 493.384
3026 0 53.1768 14.1979 755 135.285 1177.66 491.975
3027 0 55.2705 15.198 840 129.971 1177.45 493.119
3028 0 52.2118 14.0773 735 136.303 1177.52 493.803
3029 0 53.2287 14.7101 783 134.213 1178.02 492.286
3030 0 53.1816 14.7231 783 134.02 1177.71 492.552
3031 0 54.2204 14.1091 765 135.318 1176.84 492.314
3032 0 53.217 13.5671 722 137.767 1177.32 493.198
3033 0 54.1659 13.4956 731 137.075 1177.6 493.1
3034 0 54.1406 15.0719 816 131.767 1177.91 492.957
3035 0 56.2025 15.2484 857 129.128 1178.19 493.294
3036 0 55.1817 15.0956 833 131.228 1176.81 493.203
3037 0 55.1914 14.0058 773 134.635 1177.11 492.488
3038 0 54.23 14.1803 769 135.215 1177.51 492.945
3039 0 54.1698 14.7314 798 133.679 1177.49 491.034
3040 0 53.1706 14.1996 755 136.045 1177.56 493.008
3041 0 54.2732 14.1691 769 135.675 1178.15 492.342
3042 0 54.0814 13.0729 707 141.091 1178.14 493.034
3043 0 52.1757 12.8221 669 144.505 1178.59 493.268
3044 0 55.0885 14.5584 802 134.108 1178.46 494.055
3045 0 55.112 12.8829 710 139.083 1178.27 493.023
3046 0 53.1554 13.7145 729 130.373 1177.64 491.354
3047 0 53.1554 13.7898 733 156.716 1177.66 491.337
3048 0 53.1628 12.8097 681 138.388 1177.98 492.474
3049 0 54.1147 13.0833 708 120.243 1177.5 491.655
3050 0 53.1971 13.1774 701 126.401 1178.24 490.437
3051 0 52.2179 12.1031 632 138.834 1177.76 490.671
3052 0 51.0462 11.8912 607 134.794 1177.58 492.17
3053 0 51.1041 11.9364 610 133.748 1177.88 492.22
3054 0 51.0994 12.4855 638 133.889 1178.01 492.986
3055 0 53.0986 12.7875 679 130.834 1178.63 493.08
3056 0 53.1583 11.889 632 134.185 1178.8 494.127
3057 0 53.038 12.5382 665 132.236 1178.76 493.582
3058 0 54.0727 12.2428 662 133.789 1178.63 490.724
3059 0 53.2242 12.9265 688 132.124 1177.82 492.106
3060 0 53.0508 11.8189 627 135.199 1178.21 492.053
3061 0 55.1756 12.7955 706 130.822 1178.24 491.254
3062 0 53.1268 12.6302 671 132.978 1178.25 491.411
3063 0 54.179 13.0309 706 131.554 1178.37 491.282
3064 0 55.1242 13.0433 719 129.378 1178.71 491.427
3065 0 56.07 13.1621 738 127.965 1178.33 492.129
3066 0 54.0369 13.4353 726 130.751 1178.01 490.74
3067 0 56.0542 13.3264 747 139.767 1176.45 491.017
3068 0 55.0844 13.5247 745 140.023 1176.62 491.322
3069 0 55.077 13.5447 746 161.621 1176.64 491.284
3070 0 55.03 13.32 733 139.869 1175.49 490.739
3071 0 55.03 13.2655 730 160.405 1174.48 490.853
3072 0 57.0806 13.735 784 137.218 1175.69 489.389
3073 0 55.0627 13.076 720 140.231 1175.23 490.006
3074 0 54.0298 12.8077 692 143.173 1174.67 489.345
3075 0 55.0276 13.048 718 141.316 1175.09 488.539
3076 0 57.0132 13.3653 762 138.781 1175.27 488.545
3077 0 56.0476 12.8998 723 140.566 1175.31 489.008
3078 0 57.2035 13.3733 765 138.093 1175.13 489.312
3079 0 55.0412 14.8071 815 134.106 1174.83 490.617
3080 0 56.0478 14.2557 799 136.095 1174.93 488.438
3081 0 56.0675 13.7334 770 135.94 1175.27 490.018
3082 0 56.078 14.2302 798 135.069 1175.33 488.937
3083 0 55.0376 13.0093 716 141.137 1175.24 488.986
3084 0 57.054 13.8465 790 136.699 1175.47 489.123
3085 0 56.0316 13.4032 751 137.764 1175.46 489.284
3086 0 56.0316 13.4745 755 160.429 1175.46 489.302
3087 0 56.0124 13.5327 758 137.396 1175.72 489.28
3088 0 57.104 13.6068 777 136.772 1175.51 488.2
3089 0 58.0455 14.213 825 133.527 1175.41 489.875
