time division length width area intensity CMx CMy
0 0 82.1567 10.9547 900 117.572 1191.39 458.124
1 0 85.0971 11.9628 1018 113.859 1191.51 458.212
2 0 87.1023 12.1466 1058 114.863 1191.02 455.489
3 0 95.129 13.6762 1301 113.144 1191.47 452.378
4 0 96.2284 13.177 1268 115.148 1191.15 450.58
5 0 97.195 12.583 1223 117.469 1190.5 449.594
6 1 54.1921 11.9759 649 112.525 1192.18 470.156
7 0 55.1409 10.3372 570 116.239 1192.25 472.277
8 0 57.0181 11.663 665 113.349 1191.58 471.602
9 0 61.1118 12.2399 748 111.888 1192.04 470.251
10 0 59.0904 11.7955 697 115.613 1192.08 469.541
11 0 59.0826 11.797 697 161.429 1192.07 469.548
12 0 64.089 12.233 784 115.406 1194.46 467.062
13 0 67.0746 13.1346 881 112.974 1193.27 466.351
14 0 68.0545 13.3716 910 112.299 1193.16 466.678
15 0 68.0545 13.3863 911 147.429 1194.17 466.707
16 0 71.0633 13.1714 936 115.935 1192.86 461.759
17 0 73.102 12.804 936 117.216 1193.3 462.049
18 0 77.1281 13.873 1070 113.865 1193.72 460.713
19 0 79.1038 13.4254 1062 115.19 1193.43 459.914
20 0 78.1115 11.7652 919 116.726 1192.39 460.579
21 0 82.1941 13.8696 1140 114.446 1192.81 457.955
22 0 84.0895 13.6997 1152 114.988 1192.66 454.778
23 0 86.0554 12.3874 1066 116.735 1192.36 457.29
24 0 86.1152 10.8459 934 120.727 1193.51 456.665
25 0 90.139 12.4142 1119 116.75 1193.63 456.959
26 0 94.2319 13.3076 1254 117.215 1193.54 450.442
27 0 96.1247 12.2549 1178 117.482 1192.62 451.537
28 0 104.129 14.3955 1499 111.941 1193.17 443.93
29 0 103.099 11.5035 1186 121.048 1192.5 449.113
30 0 105.149 12.3348 1297 111.446 1193.62 444.892
31 0 108.141 12.2248 1322 112.888 1193.7 443.094
32 0 115.151 12.9917 1496 117.504 1193.75 437.899
33 1 63.1457 10.3253 652 111.123 1193.76 468.038
34 0 65.045 11.3153 736 109.481 1193.18 465.395
35 0 61.1007 10.72 655 108.093 1192.25 464.733
36 0 67.0718 11.5995 778 105.342 1192.43 464.468
37 0 69.0993 11.7657 813 104.891 1192.1 463.317
38 0 71.0865 11.6196 826 104.816 1192.71 461.26
39 0 75.1002 12.4101 932 113.881 1193.18 455.035
40 0 79.1796 12.9074 1022 110.5 1193.24 456.844
41 0 81.2268 13.5546 1101 109.55 1194.23 453.681
42 0 83.2171 12.9901 1081 111.065 1193.7 452.298
43 0 87.3086 12.725 1111 111.783 1194 450.149
44 0 89.2942 13.8755 1239 109.184 1194.13 448.162
45 0 93.2811 12.6928 1184 112.569 1193.97 446.41
46 0 94.3402 13.4619 1270 111.67 1193.88 444.404
47 0 96.5318 12.5037 1207 113.413 1194.03 445.146
48 0 103.383 13.1067 1355 110.718 1194.04 442.255
49 0 105.266 13.0907 1378 111.075 1193.84 441.514
50 0 108.279 12.7633 1382 114.034 1193.69 437.786
51 0 107.244 12.7933 1372 110.449 1193.93 431.082
52 1 57.0755 11.4235 652 105.992 1193.52 461.784
53 0 59.0308 10.7571 635 106.778 1194.23 457.51
54 0 63.0722 12.5253 790 104.972 1194.17 456.715
55 0 63.0734 11.6689 736 108.243 1194.44 455.508
56 0 65.0689 11.3418 738 111.711 1194 459.352
57 0 68.0608 11.6807 795 111.736 1193.87 456.776
58 0 72.0253 13.3981 965 107.665 1193.29 453.045
59 0 72.049 13.005 937 109.612 1192.61 452.028
60 0 75.0302 12.2617 920 111.72 1192.94 448.243
61 0 78.1485 12.2459 957 111.129 1193.09 449.911
62 0 80.1011 13.046 1045 109.513 1193.94 452.981
63 0 82.0195 12.241 1004 112.962 1194.01 450.275
64 0 84.0635 12.669 1065 112.359 1193.96 449.341
65 0 87.1041 12.1349 1057 112.385 1192.9 448.618
66 0 89.0491 12.7795 1138 111.825 1193.17 447.449
67 0 92.0464 12.8739 1185 112.914 1193.14 444.946
68 0 97.1721 13.9443 1355 108.205 1193.63 444.838
69 0 96.2381 12.095 1164 115.365 1193.95 438.949
70 0 96.2323 12.1477 1169 145.395 1194.93 438.902
71 0 105.124 13.2415 1392 110.644 1193.34 438.945
72 0 105.131 13.2502 1393 133.986 1191.33 438.761
73 0 113.139 12.5952 1425 111.556 1192.54 436.912
74 0 114.178 11.8674 1355 113.723 1192.97 435.142
75 0 121.085 13.6764 1656 108.976 1193.39 429.815
76 1 59.0741 11.1893 661 109.894 1193.86 460.089
77 0 62.034 11.4131 708 106.123 1193.65 460.314
78 0 66.0657 12.3513 816 110.887 1193.49 463.821
79 0 68.0614 12.5916 857 109.413 1193.53 461.939
80 0 70.1015 12.6246 885 109.763 1193.35 461.991
81 0 72.0893 12.6648 913 112.883 1193.65 458.122
82 0 74.129 12.4648 924 114.774 1193.63 451.044
83 0 77.1186 12.8892 994 113.984 1194.2 452.08
84 0 80.1878 12.8573 1031 113.46 1194.35 453.055
85 0 81.2304 13.4802 1095 112.79 1193.96 453.231
86 0 84.2444 12.6299 1064 114.795 1193.36 451.014
87 0 90.2071 14.1785 1279 110.697 1193.55 449.256
88 0 91.2068 14.1656 1292 111.578 1193.32 448.399
89 0 92.2328 13.5635 1251 113.998 1193.06 448.679
90 0 96.26 13.4428 1294 114.861 1193.56 447.094
91 0 98.2096 13.7767 1353 113.603 1193.16 446.02
92 0 103.372 14.3655 1485 112.324 1193.46 441.704
93 0 105.382 13.4084 1413 115.822 1193.11 440.666
94 0 108.238 13.7013 1483 115.84 1192.84 436.425
95 0 114.397 13.9427 1595 114.707 1193.47 435.525
96 0 116.369 13.4916 1570 117.155 1193.16 434.985
97 0 120.177 13.8962 1670 116.438 1193.79 434.362
98 1 65.3414 12.2893 803 115.296 1192.99 458.532
99 0 67.0501 13.8106 926 97.1955 1193.13 460.751
100 0 70.271 12.3806 870 106.505 1193.22 459.508
101 0 73.2065 13.8785 1016 103.901 1193.2 458.293
102 0 77.4634 13.2579 1027 105.313 1193.5 454.452
103 0 79.4202 13.863 1101 105.535 1193.63 454.432
104 0 81.2692 12.797 1040 108.461 1193.94 454.958
105 0 83.3166 12.9746 1081 109.083 1193.24 451.113
106 0 86.2709 14.0951 1216 105.44 1192.86 449.69
107 0 91.2868 13.6602 1247 104.526 1193.41 450.229
108 0 93.1835 13.5217 1260 103.884 1193.98 448.752
109 0 96.3925 12.5943 1214 104.717 1193.46 448.575
110 0 100.142 12.4624 1248 102.162 1193.71 447.708
111 0 102.084 12.0097 1226 102.159 1193.95 447.958
112 0 107.252 12.6152 1353 101.551 1193.21 446.525
113 0 111.088 12.1525 1350 101.385 1192.65 443.497
114 0 114.15 11.1958 1278 102.153 1193.03 441.202
115 1 62.05 10.6849 663 95.8673 1192.56 469.24
116 0 66.1387 11.6271 769 96.658 1193.43 464.3
117 0 68.1773 13.0689 891 101.847 1192.95 464.599
118 0 71.1009 10.9141 776 104.86 1192.74 465.463
119 0 72.1417 13.0438 941 102.489 1192.67 462.635
120 0 75.3916 12.1234 914 104.611 1192.79 459.786
121 0 78.3037 12.8474 1006 102.981 1192.98 458.915
122 0 80.1689 13.1348 1053 102.577 1192.91 455.714
123 0 82.2472 12.5597 1033 103.617 1192.71 455.262
124 0 84.1689 11.1799 941 104.004 1192.2 454.547
125 0 90.1472 12.9455 1167 99.1825 1191.7 452.072
126 0 91.209 12.2356 1116 101.685 1192.28 450.547
127 0 94.1481 13.0964 1233 98.6626 1192.35 450.547
128 0 97.2049 12.9726 1261 98.2054 1191.86 448.644
129 0 98.2587 11.2967 1110 99.6099 1190.98 449.444
130 0 103.225 12.0901 1248 98.8886 1191.27 445.382
131 0 107.166 11.3936 1221 98.9378 1191.24 444.432
132 0 110.193 11.9155 1313 97.8104 1192.29 440.751
133 0 114.117 12.2681 1400 97.9071 1191.62 443.139
134 1 61.2088 10.456 640 93.1719 1192.69 469.67
135 0 63.2743 11.5371 730 96.7904 1193.04 461.564
136 0 64.1528 11.535 740 102.242 1192.44 464.182
137 0 66.3042 12.3371 818 104.297 1192.27 461.754
138 0 69.3217 11.7135 812 103.564 1192.5 462.81
139 0 71.4246 12.0267 859 104.455 1192.25 458.764
140 0 74.429 12.3876 922 102.409 1192.29 459.406
141 0 75.4261 11.7466 886 105.705 1193.04 457.028
142 0 78.6649 12.0511 948 103.521 1192.5 452.559
143 0 80.5138 11.7247 944 105.034 1192.86 451.213
144 0 82.3887 13.7033 1129 100.988 1193.3 450.103
145 0 85.5749 12.1998 1044 103.198 1193.19 452.943
146 0 86.4848 12.4299 1075 103.086 1191.99 448.886
147 0 91.5945 13.0466 1195 100.551 1191.47 448.017
148 0 94.9409 13.6927 1300 99.2269 1191.7 445.973
149 0 97.2077 13.0134 1265 96.5407 1192.53 447.99
150 0 99.2491 12.3628 1227 96.5868 1192.94 448.007
151 0 100.208 11.0869 1111 98.5347 1192.65 445.905
152 0 105.113 11.1309 1170 97.3085 1191.75 443.465
153 0 109.273 11.8419 1294 95.5827 1192.46 443.196
154 0 110.194 10.6358 1172 99.0179 1191.68 441.009
155 0 117.137 10.8847 1275 98.7875 1191.19 436.986
156 0 120.224 10.2392 1231 98.5264 1191.39 439.203
157 0 124.338 12.2408 1522 97.0361 1192.14 431.164
158 1 68.2136 10.8189 738 94.2425 1191.72 457.944
159 0 72.2246 10.8966 787 94.6912 1191.85 457.718
160 0 72.1003 11.2621 812 102.828 1192.01 457.68
161 0 76.0915 11.9199 907 102.143 1191.97 455.329
162 0 78.1054 12.4063 969 100.496 1190.81 454.239
163 0 80.1714 12.7602 1023 100.129 1191.78 455.286
164 0 84.1367 12.0637 1015 102.083 1191.54 453.998
165 0 87.22 13.2194 1153 100.859 1191.95 451.511
166 0 89.1941 12.4448 1110 103.714 1192.04 451.241
167 0 91.1828 12.7765 1165 102.172 1192.35 450.979
168 0 95.2419 12.799 1219 103.877 1192.39 446.751
169 0 97.2094 12.9103 1255 103.321 1191.79 447.403
170 0 101.361 13.2596 1344 103.551 1191.53 443.032
171 0 104.26 13.7732 1436 102.453 1191.82 441.697
172 0 107.186 12.6976 1361 102.398 1192.2 441.327
173 0 111.349 12.2856 1368 102.479 1191.82 439.934
174 0 115.111 13.1091 1509 101.518 1191.45 439.744
175 0 117.168 13.2118 1548 101.51 1192.14 437.348
176 1 66.1901 11.4821 760 95.2934 1190.79 460.157
177 0 69.1055 12.6907 877 90.3318 1191.3 462.723
178 0 73.2221 12.6738 928 97.708 1190.84 459.217
179 0 74.2729 11.2019 832 101.255 1191.98 458.056
180 0 74.0765 11.9471 885 100.179 1191.73 457.098
181 0 78.2399 12.3083 963 100.4 1191.61 455.37
182 0 81.2733 12.0212 977 100.809 1192.06 452.593
183 0 81.2767 11.5531 939 101.191 1191.7 453.457
184 0 88.1661 12.4424 1097 99.371 1191.43 451.258
185 0 88.1347 13.2865 1171 96.5243 1191.24 450.435
186 0 91.1455 11.7943 1075 100.167 1191.26 446.688
187 0 95.0621 12.8127 1218 96.7586 1191.69 446.477
188 0 97.0697 11.466 1113 98.8625 1191.48 447.354
189 0 101.074 12.199 1233 98.3552 1191.89 445.043
190 0 104.226 13.25 1381 96.9385 1191.23 440.894
191 0 108.213 12.1705 1317 98.9704 1191.3 442.874
192 0 111.138 13.6767 1520 96.6086 1190.52 437.953
193 1 60.1969 9.46892 570 94.3825 1191.15 461.126
194 0 62.228 11.2972 703 91.8179 1190.57 464.896
195 0 62.195 10.1937 634 96.4211 1190.94 461.666
196 0 66.0875 12.09 799 97.0951 1191.68 461.652
197 0 68.1165 10.6729 727 98.4622 1191.7 462.571
198 0 70.1766 11.6991 821 97.0329 1190.84 460.33
199 0 72.0521 12.2967 886 95.9582 1190.57 459.144
200 0 75.0479 12.2055 916 96.667 1190.81 456.126
201 0 76.109 11.5098 876 99.3208 1190.41 455.767
202 0 81.1339 13.0771 1061 95.0707 1191.14 455.306
203 0 81.0866 12.2708 995 98.1678 1190.54 454.157
204 0 85.0595 12.9909 1105 96.6534 1191.58 453.191
205 0 88.2202 13.489 1190 95.8857 1191 450.116
206 0 87.1727 11.6321 1014 101.116 1190.89 449.744
207 0 93.2178 12.4869 1164 100.41 1191.54 451.398
208 0 97.1504 12.5887 1223 98.6247 1191.68 448.86
209 0 98.1162 11.2927 1108 100.503 1190.74 447.218
210 1 54.0873 10.8159 585 99.2496 1191.52 469.231
211 0 56.0502 12.6137 707 95.2093 1191.5 469.528
212 0 57.1157 11.8707 678 95.3304 1192.55 469.019
213 0 61.1325 12.9882 794 93.7343 1192.2 465.96
214 0 62.1157 12.3962 770 101.852 1192.2 464.592
215 0 64.0665 11.2539 721 103.288 1192.53 465.631
216 0 66.0583 13.5486 895 99.8726 1193.02 461.937
217 0 68.0882 13.5559 923 98.9242 1192.84 463.546
218 0 70.0754 12.087 847 103.391 1192.09 461.379
219 0 71.1008 13.0238 926 103.012 1191.8 460.123
220 0 76.1191 13.1899 1004 101.684 1192.49 459.773
221 0 76.1704 12.4458 948 104.713 1191.9 458.384
222 0 80.1064 13.557 1086 101.914 1193.2 456.795
223 0 82.1278 14.1 1158 101.752 1192.32 455.284
224 0 84.2655 13.0065 1096 105.703 1191.85 454.194
225 0 88.1942 13.3115 1174 104.761 1192.36 451.695
226 0 90.2333 12.5342 1131 107.377 1192.06 451.354
227 0 94.144 14.2654 1343 103.564 1191.41 449.778
228 0 96.3775 13.9037 1340 104.644 1190.62 447.031
229 0 99.2584 13.4397 1334 107.199 1191.03 445.841
230 0 103.332 12.6195 1304 108.982 1191.49 445.13
231 1 57.2719 11.1573 639 104.427 1191.7 467.321
232 0 59.1164 11.0629 654 101.636 1192.17 467.058
233 0 61.0934 11.8671 725 104.388 1192.11 467.844
234 0 62.0695 12.0993 751 104.987 1191.47 464.735
235 0 65.0792 13.1071 853 101.766 1192.45 466.259
236 0 66.1099 11.98 792 105.516 1191.4 464.375
237 0 68.0493 12.8289 873 103.927 1192.29 462.851
238 0 68.1077 12.6124 859 105.51 1192.24 461.881
239 0 72.1282 13.781 994 102.106 1192.58 460.121
240 0 73.1658 12.8749 942 104.621 1191.89 459.362
241 0 75.0998 12.8629 966 104.124 1191.8 459.307
242 0 76.1079 12.2458 932 105.365 1191.43 459.171
243 0 81.1979 13.7565 1117 101.311 1191.57 454.979
244 0 82.2731 12.337 1015 104.216 1191.16 456.429
245 0 84.1352 12.9435 1089 103.587 1191.99 453.462
246 0 87.2138 12.5095 1091 102.955 1191.65 453.528
247 0 89.0956 12.3126 1097 104.245 1191.95 451.432
248 0 92.1676 13.6707 1260 101.338 1192.25 452.16
249 0 94.1624 12.8289 1208 102.985 1192.22 449.295
250 1 53.0522 10.8761 577 101.868 1192.59 470.222
251 0 52.0799 9.71584 506 105.036 1192.19 468.235
252 0 55.0584 10.8067 595 97.4471 1191.46 467.689
253 0 52.1562 9.62493 502 96.2749 1191.8 463.775
254 0 59.0931 11.998 709 98.8096 1191.78 468.36
255 0 62.0419 12.5721 780 97.5013 1191.94 467.342
256 0 61.0661 12.1016 739 100.012 1191.86 466.813
257 0 63.0584 12.3219 777 100.749 1191.9 464.712
258 0 65.0506 11.9753 779 102.392 1192.08 463.408
259 0 66.0765 11.517 761 103.311 1192.08 460.901
260 0 68.0307 12.2004 830 102.49 1191.03 460.681
261 0 72.0827 13.4984 973 99.3751 1191.46 462.023
262 0 75.0971 13.8221 1038 99.1628 1191.19 459.8
263 0 75.1544 13.7849 1036 100.494 1191.75 458.986
264 0 75.2586 13.2609 998 103.006 1191.51 458.267
265 0 78.0942 12.7923 999 105.559 1192.16 456.221
266 0 82.0852 14.558 1195 101.762 1192.38 455.231
267 0 82.2026 12.9923 1068 106.89 1191.51 455.783
268 0 86.0937 13.0091 1120 106.198 1191.72 455.179
269 0 90.1456 14.1105 1272 104.428 1191.36 452.437
270 0 92.1372 13.7621 1268 105.846 1191.82 452.834
271 0 93.0751 14.2036 1322 105.986 1192.02 449.359
272 0 95.3045 13.7349 1309 107.167 1192.34 450.872
273 0 97.1109 12.7483 1238 104.206 1192.18 452.192
274 0 101.198 12.9647 1312 105.029 1192.69 447.953
275 0 104.248 13.2953 1386 102.74 1192.18 447.756
276 0 108.074 14.2218 1537 103.9 1192.6 442.681
277 0 110.095 12.2622 1350 102.065 1192.19 442.996
278 0 117.161 14.1514 1658 102.597 1192.49 439.958
279 0 117.14 12.5235 1467 103.04 1192.39 438.429
280 1 63.0816 10.8748 686 104.184 1192.54 461.673
281 0 68.2008 9.63331 657 96.8143 1192.79 460.307
282 0 73.0328 13.1311 959 96.1335 1192.53 461.826
283 0 72.1017 11.7057 844 97.5107 1192.64 459.679
284 0 78.07 13.6288 1064 100.521 1192.33 456.272
285 0 81.2014 12.155 987 102.888 1191.3 457.133
286 0 82.1889 12.5199 1029 103.05 1191.21 451.9
287 0 87.1728 12.5498 1094 101.319 1191.29 453.795
288 0 88.1552 12.5801 1109 101.141 1191.6 451.828
289 0 92.139 13.2517 1221 99.9427 1192.58 448.42
290 0 94.1122 15.864 1493 70.8948 1192.09 444.045
291 0 96.1506 13.0628 1256 99.2022 1192.87 446.514
292 0 101.185 12.067 1221 100.647 1191.82 446.855
293 0 104.173 13.1128 1366 98.1559 1191.9 445.794
294 0 106.167 11.9717 1271 100.699 1190.67 443.271
295 0 110.272 12.5871 1388 99.8847 1191.36 441.847
296 0 115.178 12.294 1416 100.66 1191.12 437.986
297 1 62.1428 12.0529 749 97.2216 1192.11 464.296
298 0 63.1683 11.6198 734 98.7125 1191.28 462.025
299 0 64.1128 11.043 708 102.374 1191.78 463.189
300 0 67.1557 12.2849 825 103.078 1192.03 461.973
301 0 67.1265 11.9029 799 103.638 1191.48 461.602
302 0 72.2457 12.7066 918 101.366 1190.98 461.303
303 0 74.1117 14.0599 1042 99.2639 1191.66 460.012
304 0 76.2604 12.6409 964 102.324 1191.63 460.255
305 0 77.3099 12.5986 974 105.044 1192.2 456.974
306 0 80.148 12.7015 1018 104.893 1192.16 455.333
307 0 81.1841 13.4632 1093 103.459 1191.9 455.07
308 0 84.4099 12.8421 1084 105.633 1191.56 453.995
309 0 86.2656 13.2266 1141 105.72 1192.5 451.45
310 0 88.187 13.2786 1171 105.882 1192.54 449.974
311 0 91.1614 12.3956 1130 108.314 1193.22 449.585
312 0 94.2852 12.4622 1175 107.512 1193.57 449.085
313 0 99.3009 14.2396 1414 102.627 1193.39 446.533
314 0 102.233 13.616 1392 101.231 1192.59 446.922
315 0 104.119 13.5422 1410 100.948 1192.84 444.343
316 1 58.0688 9.62652 559 98.0948 1192.84 473.515
317 0 60.1681 10.6535 641 97.4134 1192.69 468.084
318 0 60.1268 11.1265 669 99.1076 1192.32 467.957
319 0 63.1176 12.8015 808 105.731 1192.54 461.589
320 0 65.1356 12.497 814 103.974 1192.87 465.204
321 0 68.0549 12.7691 869 104.199 1192.75 460.556
322 0 71.1861 13.1065 933 102.623 1192.1 461.662
323 0 72.0882 13.2477 955 104.441 1192.07 457.295
324 0 75.1245 14.6424 1100 101.335 1192.78 459.132
325 0 77.1116 13.2276 1020 104.307 1192.84 459.112
326 0 78.1054 14.0451 1097 104.517 1193.26 456.637
327 0 83.2415 13.7431 1144 104.344 1193.05 452.842
328 0 84.1193 12.8151 1078 107.034 1193.59 454.821
329 0 88.1515 14.3843 1268 104.383 1193.81 453.504
330 0 90.128 13.2367 1193 107.153 1193.66 451.07
331 0 95.1535 14.8497 1413 103.146 1193.53 450.701
332 0 98.1509 14.2536 1399 104.036 1192.55 448.863
333 0 99.0772 13.1009 1298 106.481 1192.76 449.692
334 1 55.0931 11.4896 633 103.893 1193.2 472.464
335 0 56.0824 12.9452 726 98.4904 1194.29 472.41
336 0 55.0975 11.888 655 101.786 1194.46 469.104
337 0 59.0317 12.9422 764 96.7736 1193.97 467.852
338 0 62.1157 13.5392 841 101.517 1193.41 466.184
339 0 62.1321 12.4734 775 97.1845 1193.95 467.81
340 0 63.0706 11.0511 697 97.3329 1193.19 467.628
341 0 64.058 11.4271 732 97.5246 1193.22 466.018
342 0 69.0431 13.3974 925 101.138 1193 464.484
343 0 66.052 11.5061 760 97.6658 1192.75 465.58
344 0 71.0887 13.3073 946 93.9165 1192.41 463.569
345 0 73.1196 11.871 868 97.1567 1192.37 460.569
346 0 75.0673 12.8551 965 102.505 1191.95 457.352
347 0 76.1157 11.9161 907 96.9438 1192.4 457.599
348 0 79.1672 10.421 825 99.6376 1192.23 457.949
349 0 83.1485 12.9287 1075 93.8837 1191.72 455.889
350 0 87.0971 11.6422 1014 95.2061 1192.99 455.848
351 0 90.0546 13.0254 1173 93.6053 1192.66 452.346
352 0 93.0312 12.8452 1195 101.072 1192.72 449.141
353 0 96.1985 12.7029 1222 101.061 1193.13 447.689
354 0 98.2612 11.9681 1176 102.432 1192.44 444.385
355 0 102.073 14.2251 1452 96.845 1191.68 445.719
356 0 106.153 13.4147 1424 99.5969 1191.61 442.109
357 1 59.0648 11.3604 671 96.9985 1191.99 467.072
358 0 60.0632 10.9884 660 98.1364 1193.3 463.848
359 0 63.1698 11.1921 707 92.0226 1192.85 467.574
360 0 65.069 11.0191 717 98.1046 1191.91 462.748
361 0 68.0649 11.9886 816 96.2672 1193.08 463.163
362 0 69.0878 11.8545 819 96.525 1192.85 461.858
363 0 74.1093 11.4156 846 96.8345 1191.67 460.084
364 0 76.1077 13.0604 994 95.5936 1191.8 459.704
365 0 77.1079 12.0091 926 97.9968 1192.14 458.434
366 0 79.1278 11.2603 891 100.752 1192.01 455.07
367 0 85.1809 11.364 968 98.8213 1191.68 453.462
368 0 85.0704 11.9548 1017 99.4267 1192.12 454.461
369 0 89.1791 11.8301 1055 98.6095 1192.48 454.388
370 0 92.1291 12.0049 1106 98.3273 1193.19 453.382
371 0 94.1136 11.3692 1070 100.617 1192.27 449.814
372 0 98.2479 12.041 1183 97.9129 1191.88 452.62
373 0 102.166 11.8337 1209 99.0372 1191.66 446.503
374 0 104.183 11.4702 1195 99.5481 1191.55 447.955
375 0 106.255 11.3877 1210 99.9545 1191.55 445.91
376 0 110.097 11.4989 1266 101.406 1192.2 441.983
377 0 112.281 11.1951 1257 101.825 1191.48 442.26
378 0 118.16 11.6537 1377 99.7422 1192.21 443.606
379 1 62.0402 11.9278 740 91.0216 1191.74 466.582
380 0 64.1681 9.5842 615 97.4797 1192.33 465.792
381 0 65.1032 11.1362 725 92.1393 1191.82 468.177
382 0 68.0691 11.5471 786 89.3053 1191.48 466.763
383 0 69.0671 11.525 796 99.6219 1192.18 461.834
384 0 73.1338 11.7593 860 99.6733 1192.05 460.692
385 0 76.05 11.8869 904 97.292 1192.55 462.352
386 0 78.1331 11.6212 908 98.1079 1191.74 460.432
387 0 82.1869 12.3134 1012 97.6285 1191.66 458.921
388 0 84.2003 13.1591 1108 98.1931 1191.78 456.292
389 0 88.2529 13.1894 1164 98.5954 1191.9 452.887
390 0 88.253 11.4444 1010 102.436 1190.93 450.751
391 0 92.1971 12.3865 1142 97.9974 1191.6 451.878
392 0 95.363 13.2861 1267 96.176 1192.42 449.068
393 0 97.2509 12.7402 1239 97.3664 1192.66 448.062
394 0 98.2808 11.8029 1160 98.319 1191.77 450.245
395 0 103.275 11.5226 1190 99.7471 1192.19 446.097
396 0 108.467 15.7929 1713 91.3824 1192.3 439.479
397 1 62.4144 10.5585 659 94.8649 1192.77 467.47
398 0 65.4663 11.4716 751 94.7297 1192.3 465.579
399 0 66.3238 11.8359 785 96.735 1191.72 462.252
400 0 69.0905 12.5343 866 99.0843 1191.76 464.73
401 0 71.1119 12.4874 888 98.3784 1191.99 463.971
402 0 73.0535 11.9638 874 99.1327 1192.63 463.68
403 0 75.1247 11.7405 882 99.7732 1192.51 461.19
404 0 78.3385 12.663 992 97.3831 1192.19 459.042
405 0 80.1772 11.9111 955 99.2723 1192.71 458.572
406 0 84.1007 13.0201 1095 95.7845 1191.83 458.925
407 0 86.1032 12.2527 1055 98.2171 1191.89 454.852
408 0 89.0974 11.942 1064 99.5695 1192.45 455.194
409 0 92.1216 12.6138 1162 99.0207 1191.87 452.872
410 0 96.1423 12.908 1241 97.3924 1191.98 453.504
411 0 99.3277 14.7693 1467 93.9373 1192 451.005
412 0 100.166 12.8187 1284 98.535 1191.75 448.819
413 0 106.196 13.5693 1441 97.0194 1191.53 448.01
414 0 109.229 13.5129 1476 97.9817 1191.95 445.655
415 1 61.1859 11.5386 706 92.2946 1192.78 470.608
416 0 62.0827 10.2927 639 94.7809 1192.53 469.642
417 0 66.0554 12.762 843 102.572 1190.88 466.318
418 0 67.0906 12.9973 872 102.733 1191.1 464.728
419 0 69.2793 13.4528 932 100.145 1190.64 464.916
420 0 69.0923 12.7511 881 102.639 1190.9 463.185
421 0 72.1906 12.5086 903 102.775 1191.18 463.46
422 0 76.3422 13.5443 1034 99.7853 1191.96 462.389
423 0 77.2109 13.0163 1005 101.18 1191.98 461.206
424 0 79.3844 13.5417 1075 100.673 1192.22 460.667
425 0 82.2089 12.967 1066 101.75 1191.63 457.102
426 0 86.096 12.7881 1101 101.036 1190.46 446.066
427 0 87.2343 12.8963 1125 101.433 1190.77 441.869
428 0 90.1285 11.994 1081 101.289 1190.86 446.294
429 0 91.1289 12.4329 1133 100.612 1191.03 443.01
430 0 94.1209 11.6234 1094 101.329 1191.36 445.657
431 0 97.2395 13.1839 1282 99.4173 1191.08 447.243
432 0 100.127 12.0546 1207 102.553 1191.32 449.698
433 1 56.1196 11.2617 632 97.6915 1190.9 471.891
434 0 55.0917 10.8002 595 102.829 1190.99 471.988
435 0 61.0852 12.0815 738 99.4255 1190.95 471.785
436 0 62.0473 13.7959 856 97.0421 1190.18 464.708
437 0 61.1718 12.849 786 101.55 1191.52 468.364
438 0 63.1341 12.5923 795 101.584 1191.64 469.474
439 0 64.0723 11.9396 765 103.716 1191.05 467.903
440 0 67.064 13.599 912 99.5789 1191.45 467.85
441 0 69.0956 13.6912 946 98.9228 1191.27 466.453
442 0 68.0361 12.1406 826 105.598 1191.37 465.126
443 0 74.0269 13.4005 992 100.795 1191.23 464.416
444 0 74.0786 13.8097 1023 101.071 1191.32 463.486
445 0 78.0684 13.7572 1074 100.148 1190.48 461.376
446 0 79.0632 13.4576 1064 102.337 1190.72 460.591
447 0 82.0515 13.5525 1112 101.891 1192 459.779
448 0 85.0799 13.4227 1142 101.637 1192.1 460.411
449 0 89.0624 14.4056 1283 100.317 1191.69 451.255
450 0 91.107 15.1141 1377 98.2898 1191.89 453.05
451 0 92.1447 12.9036 1189 105.042 1191.66 455.281
452 0 95.2277 12.7904 1218 101.302 1191.72 453.863
453 0 99.1309 13.8504 1373 97.5994 1191.58 451.891
454 0 101.093 12.2165 1235 100.269 1192.22 451.84
455 0 105.062 14.3248 1505 96.5136 1191.68 449.216
456 0 105.155 12.9142 1358 99.8255 1191.88 447.046
457 0 109.118 12.9493 1413 98.6185 1192.32 445.657
458 0 113.25 12.212 1383 98.1721 1191.96 446.868
459 0 117.162 13.2808 1556 97.0919 1191.64 441.029
460 1 65.1693 11.6619 760 93.7974 1191.79 468.847
461 0 65.1155 11.5026 749 96.0721 1191.51 468.641
462 0 68.0496 13.1375 894 95.5996 1191.6 469.567
463 0 69.0523 12.9177 892 103.543 1191.62 465.433
464 0 72.092 13.1083 945 103.368 1191.71 465.848
465 0 73.0616 14.1798 1036 101.657 1191.85 465.058
466 0 75.1122 12.4347 934 106.92 1191.66 462.556
467 0 75.1942 12.2749 923 108.509 1191.29 461.988
468 0 78.2168 13.3987 1048 104.45 1191.52 461.678
469 0 83.1206 13.1616 1094 105.189 1191.77 457.965
470 0 84.2624 12.6035 1062 107.127 1190.59 458.033
471 0 86.1292 12.2026 1051 106.568 1191.8 458.472
472 0 91.2606 12.678 1157 104.794 1192.17 456.288
473 0 93.1272 12.8319 1195 105.982 1191.67 453.634
474 0 96.215 12.8982 1241 105.713 1190.64 450.952
475 0 97.1003 12.0185 1167 106.986 1190.93 449.732
476 0 104.232 13.2205 1378 103.972 1190.69 448.701
477 0 108.103 11.8868 1285 105.376 1191.79 448.119
478 0 110.136 12.5209 1379 103.531 1191.74 443.698
479 0 116.103 14.0651 1633 99.4403 1191.23 445.252
480 0 117.113 12.4154 1454 104.362 1191.84 440.635
481 1 63.0881 10.2714 648 102.799 1191.52 468.944
482 0 68.1173 12.6693 863 97.7022 1192.3 468.356
483 0 69.1443 12.4812 863 100.6 1191.13 466.663
484 0 74.1069 13.2916 985 101.501 1191.68 465.583
485 0 74.0456 13.1271 972 103.678 1191.31 462.253
486 0 77.0455 13.4855 1039 102.352 1191.34 463.958
487 0 81.0778 12.9629 1051 104.134 1192.23 463.099
488 0 82.0668 13.0382 1070 104.972 1192.12 458.854
489 0 84.0615 13.8113 1161 98.5736 1191.4 458.99
490 0 84.1524 11.8 993 104.39 1190.93 458.695
491 0 91.0758 13.9883 1274 102.742 1191.15 456.388
492 0 88.1346 12.9802 1144 105.296 1191.01 454.274
493 0 95.1422 13.6638 1300 107.892 1190.67 453.128
494 0 97.1178 13.3858 1300 105.35 1190.7 454.498
495 0 99.0805 13.4537 1333 107.167 1191.39 450.404
496 0 103.143 12.9432 1335 109.282 1191.72 447.958
497 0 107.246 13.6881 1468 108.894 1191.61 447.22
498 0 110.22 12.8288 1414 111.325 1191.19 447.864
499 0 114.156 14.2262 1624 107.611 1190.96 444.989
500 0 117.179 13.6629 1601 107.587 1191.12 436.061
501 0 119.043 12.6593 1507 111.802 1190.75 436.891
502 0 122.118 12.7991 1563 111.52 1191.53 438.097
503 0 127.104 12.4701 1585 114.031 1191.12 433.245
504 0 133.226 12.6251 1682 112.674 1191.5 430.656
505 0 138.089 13.3537 1844 111.025 1190.7 428.653
506 1 77.1108 12.3459 952 110.056 1191.8 458.353
507 0 81.1828 12.9707 1053 109.828 1191.51 457.557
508 0 84.1641 13.6044 1145 115.265 1191.45 457.805
509 0 87.0866 14.9736 1304 109.762 1191.16 460.608
510 0 90.1317 14.734 1328 114.009 1191.02 450.549
511 0 91.0883 14.4256 1314 115.932 1191.7 454.387
512 0 95.103 14.4475 1374 117.209 1191.35 454.397
513 0 99.0806 15.1796 1504 115.219 1192.23 453.164
514 0 102.085 14.8798 1519 116.825 1191.82 452.707
515 0 104.198 14.4533 1506 119.689 1192.38 451.06
516 0 106.158 15.0153 1594 119.485 1192.16 448.305
517 0 111.213 14.27 1587 119.848 1191.29 447.95
518 0 113.156 14.8997 1686 119.558 1191.24 444.641
519 0 117.294 14.4338 1693 120.217 1191.33 444.025
520 0 120.104 14.2626 1713 119.323 1190.81 442.483
521 0 124.1 13.8195 1715 119.908 1191.31 432.266
522 0 129.185 14.8392 1917 117.255 1190.83 435.877
523 0 132.307 14.3454 1898 118.281 1191.3 432.344
524 0 137.185 14.6153 2005 117.902 1190.99 429.091
525 0 141.113 14.3006 2018 118.007 1191.9 429.651
526 0 148.108 15.1511 2244 116.488 1191.17 428.759
527 0 153.202 14.68 2249 117.807 1191.2 424.311
528 0 155.194 14.5108 2252 118.358 1190.63 421.747
529 0 162.194 14.199 2303 116.845 1190.75 423.133
530 1 90.2394 12.4336 1122 117.114 1190.3 456.373
531 0 95.1414 13.6954 1303 112.709 1191.38 452.173
532 0 96.1912 12.891 1240 115.377 1190.82 456.242
533 0 98.2221 13.948 1370 113.95 1191.68 452.32
534 0 102.233 13.9094 1422 113.857 1191.45 451.949
535 0 104.204 15.1914 1583 111.008 1191.2 448.457
536 0 107.204 13.7961 1479 114.471 1190.99 448.638
537 0 110.134 14.7457 1624 111.81 1191.52 446.176
538 0 113.218 13.7787 1560 114.398 1190.84 442.851
539 0 119.228 13.7048 1634 113.278 1190.7 445.473
540 0 123.118 14.8882 1833 111.615 1191 442.091
541 0 125.221 13.9832 1751 114.774 1191.43 437.278
542 0 131.167 14.5387 1907 112.766 1191.02 438.072
543 0 134.217 14.6852 1971 113.539 1191.06 434.495
544 0 137.145 12.8987 1769 118.74 1190.94 434.249
545 0 145.142 14.8544 2156 114.575 1191.33 430.441
546 0 148.23 12.6695 1878 119.916 1191.72 429.542
547 0 153.165 13.4169 2055 118.553 1191.38 423.271
548 0 159.173 13.099 2085 119.674 1191.54 422.818
549 0 164.207 13.6109 2235 118.081 1190.89 420.38
550 0 168.131 14.2746 2400 115.738 1190.72 417.779
551 0 177.279 14.3616 2546 114.824 1191.21 417.313
552 1 98.1035 11.1923 1098 116.648 1191.55 455.106
553 0 102.159 13.0777 1336 113.596 1191.46 449.906
554 0 106.158 12.8394 1363 115.157 1191.25 448.908
555 0 109.124 12.7836 1395 111.551 1191.59 444.782
556 0 112.125 12.7001 1424 115.651 1192.16 444.453
557 0 111.15 13.3334 1482 117.866 1191.13 443.481
558 0 113.152 13.0178 1473 108.382 1191.41 444.148
559 0 113.162 12.2568 1387 114.796 1192.23 443.676
560 0 113.225 11.8525 1342 117.902 1191.7 443.358
561 0 115.184 13.7953 1589 114.047 1192.14 442.362
562 0 115.231 11.8198 1362 120.653 1191.28 445.013
563 0 117.186 13.2013 1547 118.521 1191.34 444.135
564 0 118.081 12.7624 1507 121.865 1189.97 444.472
565 0 120.191 13.0376 1567 121.925 1191.2 441.747
566 0 123.082 13.6901 1685 118.548 1190.7 440.299
567 0 126.164 12.8563 1622 117.218 1190.56 441.414
568 0 129.162 12.0547 1557 118.996 1190.64 433.669
569 0 136.188 13.6209 1855 113.007 1191.29 429.982
570 0 134.097 12.916 1732 115.86 1191.66 425.899
571 0 143.235 12.0362 1724 114.173 1191.68 424.395
572 0 143.154 12.5459 1796 113.709 1191.41 423.935
573 0 145.163 13.0818 1899 113.299 1191.74 418.735
574 0 149.161 13.71 2045 112.693 1190.92 414.197
575 0 155.174 13.8103 2143 111.725 1191.08 416.988
576 0 156.163 12.9864 2028 116.322 1190.75 408.535
577 0 164.198 13.2218 2171 114.659 1190.32 410.78
578 0 166.276 13.8144 2297 116.567 1190.71 408.781
579 0 172.339 14.2568 2457 116.884 1190.75 405.096
580 0 179.255 13.2046 2367 120.793 1190.42 400.479
581 1 92.1556 11.9146 1098 116.586 1190.71 444.311
582 0 94.2668 11.5841 1092 119.951 1190.34 441.826
583 0 99.2377 12.203 1211 117.638 1190.22 441.806
584 0 102.06 11.8263 1207 120.723 1190.36 444.998
585 0 101.079 11.6938 1182 122.784 1189.94 442.17
586 0 108.209 12.1339 1313 120.992 1190.31 444.567
587 0 111.152 12.1545 1351 122.109 1191.38 440.964
588 0 114.065 12.5543 1432 122.631 1191.6 439.634
589 0 119.229 12.6815 1512 123.343 1190.52 437.018
590 0 124.124 12.4391 1544 124.341 1189.79 436.657
591 1 70.0818 9.91699 695 121.652 1191.01 456.918
592 0 75.0635 10.9907 825 123.411 1190.74 458.709
593 0 78.0653 11.9259 931 121.035 1190.95 458.881
594 0 83.0941 12.0466 1001 120.461 1190.51 461.194
595 0 84.1128 11.9126 1002 121.233 1191.33 458.419
596 0 87.2056 13.1872 1150 118.284 1190.44 457.418
597 0 88.231 12.1386 1071 122.059 1190.47 455.447
598 0 93.0885 13.2669 1235 118.762 1190.72 453.594
599 0 95.1467 12.2548 1166 121.775 1190.61 452.184
600 0 96.177 12.2067 1174 123.135 1190.5 449.661
601 0 100.211 12.9426 1297 121.756 1190.34 447.83
602 0 105.268 13.8883 1462 118.456 1191 447.391
603 0 106.179 12.2152 1297 124.093 1190.46 441.276
604 0 108.231 12.6858 1373 123.379 1190.68 442.21
605 0 112.16 12.2236 1371 123.958 1190.49 438.759
606 0 113.195 12.4652 1411 123.415 1189.94 436.775
607 0 119.143 12.9928 1548 124.145 1191 434.557
608 0 125.143 12.9212 1617 121.596 1190.28 429.1
609 1 70.1449 9.85104 691 119.997 1191.54 462.957
610 0 74.2023 12.412 921 110.077 1190.34 464.607
611 0 75.2315 11.6175 874 110.082 1189.98 466.397
612 0 75.2137 11.1416 838 111.809 1190 465.927
613 0 77.1023 10.4796 808 114.309 1190.06 462
614 0 80.1227 12.6057 1010 110.694 1190.9 458.601
615 0 86.199 11.9491 1030 115.678 1190.06 455.772
616 0 86.1046 12.4151 1069 115.993 1189.85 453.405
617 0 90.1406 12.6136 1137 114.73 1190.33 451.702
618 0 93.0666 12.9155 1202 112.653 1190.91 452.489
619 0 96.1406 11.9512 1149 114.568 1190.58 451.93
620 0 97.0827 13.9469 1354 111.436 1190.25 449.595
621 0 101.085 14.186 1434 110.601 1190.2 448.383
622 0 99.0517 11.9735 1186 117.345 1190.41 445.06
623 0 103.08 11.6705 1203 118.086 1190.27 443.177
624 0 106.114 13.495 1432 111.571 1190.66 444.491
625 0 108.103 13.2559 1433 112.394 1189.41 441.646
626 0 114.127 13.4937 1540 113.148 1189.74 433.755
627 0 117.105 12.5528 1470 114.116 1189.68 436.567
628 0 122.157 11.5344 1409 114.464 1190.09 438.223
629 0 127.105 12.706 1615 112.501 1189.29 431.331
630 1 68.0503 10.0808 686 113.292 1190.8 457.051
631 0 74.1164 11.8462 878 107.033 1190.25 458.565
632 0 73.2577 11.1797 819 111.377 1190.28 456.413
633 0 80.121 13.8166 1107 104.803 1190.09 457.328
634 0 81.1259 12.6224 1024 106.123 1190.15 459.767
635 0 82.1642 11.3553 933 109.339 1190.53 458.254
636 0 85.0798 12.1063 1030 109.927 1190.63 454.76
637 0 88.2032 11.6889 1031 109.167 1191.05 455.238
638 0 91.1489 13.0556 1190 105.811 1190.93 453.267
639 0 91.1628 11.5398 1052 109.699 1191.02 450.897
640 0 93.0972 10.5159 979 113.219 1190.17 448.375
641 0 96.263 11.5932 1116 110.259 1190.88 448.978
642 0 100.154 12.381 1240 109.082 1189.8 442.941
643 0 106.104 12.0259 1276 107.651 1189.52 443.56
644 0 106.289 11.5723 1230 108.972 1189.74 441.624
645 0 109.15 11.1773 1220 109.641 1190.12 437.412
646 0 109.151 11.168 1219 128.667 1191.14 437.601
647 1 122.123 12.2991 1502 106.021 1190.86 434.823
648 1 68.0885 12.704 865 103.416 1190.2 458.847
649 0 72.1546 11.9466 862 105.539 1191.21 462.874
650 0 74.1964 13.316 988 102.015 1190.77 463.498
651 0 76.2211 11.8471 903 106.265 1190.05 461.199
652 0 77.152 11.9504 922 106.466 1189.48 460.256
653 0 79.1488 11.4215 904 108.25 1190.49 458.382
654 0 81.1566 11.3607 922 108.078 1190.6 455.401
655 0 86.1462 12.1886 1050 104.384 1189.55 455.107
656 0 88.1544 12.6936 1119 103.674 1189.65 449.14
657 0 89.0888 13.8626 1235 102.108 1190.67 451.391
658 0 89.0888 13.8401 1233 132.149 1190.68 451.379
659 0 93.0781 13.4511 1252 103.831 1190.53 447.728
660 0 97.151 14.04 1364 102.218 1189.7 446.053
661 0 99.0723 12.718 1260 105.969 1190.17 444.222
662 0 106.14 17.411 1848 92.8874 1189.6 436.895
663 0 107.195 13.732 1472 103.187 1189.58 436.527
664 0 109.14 12.7726 1394 105.231 1190.45 440.84
665 0 113.171 12.406 1404 105.342 1190.32 437.31
666 0 118.218 12.0879 1429 106.129 1190.53 431.708
667 0 121.13 10.9221 1323 109.663 1190.62 428.819
668 1 72.3494 12.8958 933 100.996 1191.12 463.519
669 0 72.0806 11.5704 834 105.245 1190.22 462.311
670 0 75.1505 11.7631 884 104.419 1190.2 461.489
671 0 80.2326 13.7849 1106 99.5208 1190.4 461.28
672 0 81.2148 12.2638 996 104.366 1190.36 459.91
673 0 85.2605 13.1127 1118 101.66 1190.04 458.504
674 0 89.1171 14.3631 1280 99.2133 1190.8 455.087
675 0 90.172 12.088 1090 105.232 1191.08 457.397
676 0 94.1325 13.8422 1303 100.599 1191.22 453.598
677 0 96.1049 12.632 1214 102.369 1190.57 449.287
678 0 100.199 12.2457 1227 102.083 1190.42 451.022
679 0 104.143 12.5885 1311 103.048 1190.43 445.681
680 0 108.158 13.2584 1434 104.463 1191.17 445.741
681 0 112.129 13.4131 1504 103.201 1191.36 444.337
682 0 115.198 12.778 1472 102.023 1191.31 440.359
683 0 118.082 11.5513 1364 103.867 1191.04 434.765
684 1 62.0942 10.1942 633 96.4439 1191.01 458.905
685 0 68.1035 12.7894 871 98.225 1191.37 462.169
686 0 70.0507 12.2483 858 106.476 1190.78 462.561
687 0 73.1248 13.0599 955 104.007 1190.57 462.588
688 0 76.2038 12.2304 932 106.062 1191.25 460.553
689 0 79.0422 13.6636 1080 102.815 1190.53 459.786
690 0 82.0804 12.6705 1040 104.727 1191.51 459.339
691 0 84.182 14.1479 1191 102.56 1191.53 457.087
692 0 84.115 12.685 1067 106.851 1191.7 456.217
693 0 88.1902 13.4142 1183 105.704 1191.48 453.696
694 0 88.2025 11.7117 1033 110.935 1191.21 452.631
695 0 92.1362 12.8397 1183 108.869 1191.32 452.481
696 0 97.1263 13.7862 1339 106.731 1190.32 450.81
697 0 100.172 12.6582 1268 109.876 1190.55 448.006
698 0 105.165 12.6563 1331 107.27 1190.83 446.812
699 0 108.162 13.3688 1446 106.091 1190.82 445.925
700 0 110.08 13.1449 1447 109.134 1191.42 443.525
701 1 57.0919 10.2291 584 111.42 1191.25 468.613
702 0 58.0675 10.7978 627 103.917 1191.92 462.681
703 0 63.1372 12.7658 806 106.572 1191.09 467.842
704 0 64.0601 12.4102 795 107.447 1190.96 467.864
705 0 65.1311 11.853 772 110.001 1191.23 464.658
706 0 69.0449 12.8322 886 106.611 1190.67 463.479
707 0 71.0558 13.6231 968 104.388 1191.28 463.214
708 0 70.1397 12.0189 843 106.536 1191.2 462.899
709 0 74.0892 11.8506 878 105.148 1191 463.404
710 0 75.1427 12.616 948 104.371 1190.83 461.555
711 0 79.1101 12.9566 1025 103.468 1190.37 459.881
712 0 79.2018 11.5023 911 107.693 1190.79 458.859
713 0 85.0598 13.5081 1149 102.092 1190.61 456.776
714 0 86.2922 11.1018 958 108.259 1191.37 456.421
715 0 88.2496 12.7819 1128 105.148 1191.06 453.827
716 0 91.2586 12.5029 1141 105.217 1190.38 454.479
717 0 94.1396 11.8016 1111 99.9676 1191.04 450.562
718 0 98.1175 9.8861 970 101.898 1191.8 451.136
719 0 102.155 12.344 1261 99.567 1191.42 448.446
720 0 102.094 10.363 1058 104.809 1192.14 446.3
721 1 61.0668 11.3974 696 94.1911 1192.15 467.453
722 0 64.1145 10.528 675 101.911 1192.36 467.729
723 0 64.1094 10.4509 670 95.5418 1191.97 466.833
724 0 63.1835 9.55946 604 96.9901 1191.45 466.209
725 0 66.1315 10.0406 664 95.5964 1192.29 469.098
726 0 71.034 11.1778 794 94.7544 1191.75 463.364
727 0 72.0677 8.76954 632 97.1013 1191.98 464.07
728 0 75.2057 9.05517 681 97.304 1191.36 463.496
729 0 79.1013 10.3917 822 96.9173 1191.94 460.572
730 0 81.1708 10.9153 886 97.2393 1191.47 459.735
731 0 85.134 11.9224 1015 95.9961 1190.84 459.064
732 0 87.11 11.6519 1015 98.003 1190.86 455.976
733 0 90.0497 11.8934 1071 99.8422 1190.17 454.6
734 0 96.1681 12.6341 1215 102.285 1191.16 453.477
735 0 97.1384 12.127 1178 103.874 1190.18 451.278
736 0 101.204 12.3019 1245 105.049 1190.35 447.284
737 0 106.142 13.0014 1380 104.136 1190.62 448.295
738 0 107.247 12.1961 1308 105.963 1190.98 445.511
739 0 112.3 12.3241 1384 106.249 1191.56 441.457
740 0 115.302 12.3675 1426 106.284 1190.22 440.732
741 1 64.1212 9.88753 634 100.724 1191.46 469.036
742 0 67.143 10.8872 731 99.2941 1190.02 466.555
743 0 71.0643 12.5379 891 106.964 1190.75 465.503
744 0 74.1611 12.1088 898 107.066 1190.95 466.11
745 0 75.1177 12.2075 917 109.124 1191.07 463.678
746 0 78.133 12.9395 1011 107.536 1190.89 462.532
747 0 81.3262 14.0668 1144 105.214 1190.68 461.166
748 0 85.3008 12.0163 1025 110.061 1190.43 458.266
749 0 86.3522 13.5723 1172 107.543 1191.34 456.125
750 0 90.2392 13.3645 1206 106.075 1190.68 457.834
751 0 90.3875 11.1852 1011 113.223 1190.91 453.151
752 0 93.2302 11.2946 1053 112.053 1190.49 450.481
753 0 97.1672 12.1543 1181 106.435 1191.31 451.669
754 0 99.2451 11.4666 1138 106.754 1190.68 449.64
755 0 104.226 11.3407 1182 106.727 1191.55 448.882
756 0 108.22 12.031 1302 104.605 1191.69 447.595
757 0 111.21 11.9054 1324 104.411 1191.32 446.355
758 0 112.178 12.3108 1381 106.051 1190.48 442.766
759 0 117.312 11.397 1337 106.776 1190.37 441.308
760 0 122.18 12.0723 1475 105.271 1189.9 439.105
761 0 124.128 11.0933 1377 107.815 1190.16 438.031
762 0 129.225 11.5303 1490 107.275 1190.45 437.265
763 0 135.135 12.4024 1676 106.268 1189.87 431.777
764 1 79.1107 10.7571 851 101.579 1190.7 460.872
765 0 83.1577 10.8709 904 107.983 1190.39 459.838
766 0 86.136 11.714 1009 105.249 1190.61 458.39
767 0 88.0548 11.5951 1021 109.633 1189.07 453.82
768 0 91.0886 12.2299 1114 105.586 1189.44 457.18
769 0 95.1041 12.7229 1210 104.335 1190.28 454.598
770 0 97.1618 12.5461 1219 105.945 1189.25 446.755
771 0 102.096 14.1436 1444 102.077 1188.91 446.425
772 0 103.1 11.4355 1179 109.053 1189.73 446.142
773 0 106.084 11.9622 1269 107.765 1189.8 447.137
774 0 111.261 12.4123 1381 107.705 1189.03 443.329
775 0 114.139 11.9942 1369 109.377 1189.72 444.692
776 0 118.248 12.6176 1492 109.972 1189.08 439.817
777 0 122.172 13.5301 1653 109.256 1189.51 434.755
778 0 126.159 12.6745 1599 112.04 1189.93 436.5
779 0 130.148 13.5768 1767 111.384 1189.38 429.778
780 0 134.19 12.6016 1691 115.062 1189.73 430.674
781 0 139.18 14.0681 1958 112.676 1190.21 429.057
782 0 144.182 13.4899 1945 113.777 1190.44 427.669
783 0 150.129 14.5608 2186 111.593 1189.92 424.358
784 0 155.173 13.7588 2135 115.226 1190.27 420.554
785 0 161.227 14.4331 2327 113.341 1190.13 417.044
786 0 165.184 13.6635 2257 116.104 1190.02 414.688
787 0 170.228 14.0459 2391 132.306 1189.87 410.215
788 0 176.234 13.3289 2349 171.986 1189.79 390.752
789 0 180.225 14.9092 2687 118.693 1189.36 382.785
790 0 188.231 14.801 2786 117.412 1189.4 385.604
791 0 191.152 13.6802 2615 119.737 1189.33 375.302
792 0 198.244 13.6448 2705 121.207 1189.21 376.324
793 1 230.828 19.7463 4558 100.686 1189.75 327.417
794 0 231.547 20.9979 4862 98.9148 1190.35 329.805
795 0 228.546 23.9295 5469 95.4467 1189.12 328.644
796 0 223.527 14.7812 3304 121.673 1189.29 344.594
797 0 229.456 14.5431 3337 123.418 1188.4 349.026
798 0 239.265 14.1684 3390 125.209 1189.17 353.652
799 0 244.373 14.7561 3606 125.95 1188.75 348.079
800 1 54.1807 6.66289 361 105.914 1190.29 456.573
801 0 63.1659 10.2587 648 101.177 1187.97 460.483
802 0 62.2241 8.42117 524 103.84 1188.9 463.756
803 0 64.0885 9.89258 634 105.448 1189.89 467.366
804 0 65.0751 10.3265 672 105.295 1190.22 467.792
805 0 68.0612 9.90285 674 106.307 1189.74 466.947
806 0 69.0441 10.8481 749 105.678 1190.14 463.061
807 0 74.063 11.6522 863 103.161 1190.55 459.093
808 0 73.0407 9.80276 716 101.566 1190.22 464.094
809 0 72.2269 8.70867 629 104.595 1190.75 464.731
810 0 79.1284 10.5146 832 99.6611 1189.31 462.958
811 0 79.0552 10.6634 843 102.285 1190.33 458.975
812 0 83.134 10.8018 898 102.498 1189.21 458.491
813 0 86.1468 12.7457 1098 99.6831 1188.87 456.612
814 0 86.1085 11.9268 1027 102.474 1188.96 457.633
815 0 90.0869 11.3446 1022 103.999 1188.86 454.726
816 0 90.0853 10.3347 931 106.866 1188.53 454.76
817 0 94.1592 11.7886 1110 104.337 1187.9 454.01
818 0 98.1473 10.4944 1030 106.61 1188.21 455.153
819 0 101.191 11.4437 1158 105.653 1187.69 446.251
820 0 103.1 11.3288 1168 105.618 1187.98 445.704
821 0 110.205 12.7309 1403 102.463 1187.68 441.435
822 0 112.249 12.4099 1393 102.981 1188.42 444.546
823 0 114.241 12.9463 1479 102.931 1188.8 441.04
824 0 114.231 12.1771 1391 105.027 1188.96 435.909
825 0 119.217 11.6929 1394 106.403 1188.83 437.431
826 0 124.361 14.1685 1762 105.505 1188.69 431.059
827 0 127.228 13.1967 1679 105.154 1188.58 432.284
828 0 132.161 12.4167 1641 104.26 1187.87 431.759
829 0 138.152 13.087 1808 107.108 1189.41 422.761
830 0 141.278 13.6469 1928 107.856 1188.33 423.908
831 0 146.302 14.2787 2089 105.821 1188.38 422.147
832 1 91.1926 11.207 1022 102.55 1189.36 448.637
833 0 92.0698 10.9482 1008 102.825 1189.82 444.492
834 0 98.2405 13.2328 1300 99.8923 1188.4 450.005
835 0 101.16 12.4555 1260 101.277 1187.72 451.082
836 0 99.1565 11.6987 1160 102.384 1188.57 448.655
837 0 102.191 11.6449 1190 104.217 1188.29 446.918
838 0 108.277 13.1884 1428 100.89 1189.16 444.023
839 0 107.212 11.1554 1196 107.343 1188.89 439.869
840 0 111.129 12.382 1376 102.184 1189.08 437.91
841 0 115.203 11.6838 1346 104.1 1188.95 438.434
842 0 118.18 12.8025 1513 101.445 1189.47 437.4
843 0 121.137 12.4157 1504 103.007 1189.62 436.856
844 0 124.174 12.3214 1530 100.552 1190.1 428.773
845 0 123.098 10.9913 1353 102.189 1190.02 426.727
846 1 73.09 9.01628 659 92.3566 1189.95 452.395
847 0 80.0458 11.381 911 97.6476 1190.2 459.105
848 0 82.1061 11.7287 963 97.2534 1189.79 460.822
849 0 82.2361 10.3361 850 101.602 1190.33 458.775
850 0 82.2312 10.2881 846 137.701 1191.35 458.602
851 0 88.204 12.8792 1136 96.331 1189.9 457.128
852 0 90.1358 11.9375 1076 99.0139 1189.7 455.15
853 0 89.1351 12.0828 1077 101.518 1190.4 449.374
854 0 96.1139 13.6921 1316 96.2941 1190.32 452.87
855 0 97.1635 11.9592 1162 99.3623 1189.39 452.206
856 0 99.1194 11.1179 1102 101.876 1189.5 449.606
857 0 103.169 12.6298 1303 97.4889 1189.32 448.335
858 0 106.163 11.7932 1252 100.086 1188.87 447.187
859 1 61.1675 10.1688 622 99.3135 1189.93 467.736
860 0 62.1666 11.5013 715 96.7385 1188.89 466.801
861 0 66.0965 11.5135 761 97.9356 1189.91 467.363
862 0 66.055 11.6115 767 97.9909 1189.99 465.887
863 0 63.1037 10.4748 661 98.652 1189.68 464.463
864 0 68.0378 11.7288 798 94.9223 1189.87 467.822
865 0 70.0742 11.3737 797 95.9611 1189.3 464.956
866 0 72.0721 11.7521 847 95.3601 1189.86 465.268
867 0 74.0525 10.7356 795 97.6277 1189.61 466.327
868 0 76.1189 12.0338 916 96.3166 1189.73 461.528
869 0 79.058 12.0924 956 96.7207 1190.25 461.371
870 0 80.0825 12.2873 984 96.9766 1190.24 459.668
871 0 83.1407 11.1498 927 100.584 1189.79 459.973
872 0 86.1462 12.9315 1114 95.5817 1189.81 458.452
873 0 89.1418 11.8014 1052 98.1711 1189.91 458.687
874 0 89.0454 10.5227 937 101.845 1190.09 457.696
875 0 95.1949 13.4251 1278 97.9507 1189.82 451.624
876 0 98.2411 11.9298 1172 99.9744 1190.11 454.278
877 0 101.247 12.1485 1230 101.36 1190.39 447.257
878 0 105.341 12.5023 1317 97.6211 1190.02 447.708
879 0 104.278 10.3473 1079 102.44 1190.01 445.129
880 1 53.1669 11.7366 624 94.3638 1190.69 472.633
881 0 56.2038 10.8178 608 101.607 1190.11 472.15
882 0 59.1529 11.7492 695 99.6532 1189.73 471.609
883 0 59.0391 10.9588 647 96.0139 1189.23 471.666
884 0 61.0248 11.7002 714 95.4076 1189.61 470.102
885 0 63.0383 12.4527 785 101.085 1189.36 466.45
886 0 64.0212 11.3868 729 97.7709 1190.1 469.417
887 0 67.0963 11.8934 798 96.8709 1189.74 468.108
888 0 67.0959 11.8338 794 99.2141 1190.56 466.65
889 0 71.0453 11.2604 800 100.591 1189.32 464.44
890 0 72.095 10.8745 784 102.295 1189.71 463.575
891 0 76.0768 12.5925 958 98.0532 1189.24 462.697
892 0 78.0726 11.374 888 100.909 1189.04 462.751
893 0 80.1295 13.0539 1046 99.8614 1188.65 459.124
894 0 86.1293 14.3273 1234 104.441 1189.59 457.841
895 0 86.0591 12.2474 1054 105.315 1189.01 458.692
896 0 90.1614 13.5978 1226 109.35 1190.38 455.578
897 0 93.1274 13.3903 1247 110.646 1190.01 453.685
898 0 96.0722 14.385 1382 108.597 1190.31 451.799
899 0 97.0485 13.3232 1293 112.761 1190.43 450.293
900 0 100.158 13.6385 1366 110.544 1190.03 448.122
901 0 105.082 14.9407 1570 109.496 1189.92 446.703
902 0 108.17 13.9318 1507 112.897 1189.25 446.964
903 0 110.158 14.0435 1547 114.048 1189.8 445.441
904 0 112.159 14.9431 1676 112.834 1190.1 442.581
905 0 115.051 13.7765 1585 115.944 1190.05 440.456
906 0 118.093 13.4809 1592 116.524 1189.94 439.768
907 0 120.117 13.8615 1665 115.256 1190.12 440.602
908 0 124.15 14.2006 1763 115.96 1190.27 437.399
909 0 128.219 14.6001 1872 114 1190.08 434.022
910 0 133.135 13.7304 1828 114.348 1190.22 429.682
911 0 137.313 14.5361 1996 114.724 1190.07 425.615
912 1 82.0624 11.5278 946 112.862 1190.16 458.082
913 0 85.1589 13.328 1135 108.443 1190.37 454.246
914 0 86.094 12.9974 1119 115.415 1189.21 454.256
915 0 86.1069 10.7541 926 118.529 1190.16 453.332
916 0 92.1163 13.8195 1273 109.778 1190.52 453.752
917 0 92.0618 12.7089 1170 113.089 1189.25 453.173
918 0 94.2127 12.2383 1153 114.724 1190.31 451.008
919 0 100.059 12.9923 1300 113.298 1189.87 448.778
920 0 100.087 12.7389 1275 114.686 1190.29 447.241
921 0 105.152 13.0287 1370 113.332 1190.21 447.091
922 0 107.145 12.8144 1373 113.388 1189.86 444.699
923 0 110.21 12.7393 1404 115.088 1190.18 441.903
924 0 113.14 12.427 1406 115.082 1190.22 443.857
925 0 119.235 13.5866 1620 111.707 1189.82 440.843
926 0 122.239 12.6228 1543 113.848 1190.45 438.688
927 0 126.163 12.5631 1585 114.114 1190.36 436.346
928 0 129.413 13.0667 1691 113.39 1191.34 434.955
929 0 134.12 12.3397 1655 114.767 1190.9 432.612
930 0 139.212 13.6124 1895 113.668 1189.98 427.339
931 0 143.159 13.0973 1875 114.64 1190.08 426.292
932 0 149.212 13.0955 1954 115.389 1190.31 423.081
933 0 153.247 13.1487 2015 116.561 1190.21 419.593
934 0 161.313 13.2785 2142 116.505 1189.09 417.585
935 0 164.489 13.1742 2167 119.033 1189.29 411.018
936 0 171.3 13.8003 2364 119.534 1190.14 409.728
937 0 177.319 13.315 2361 121.698 1189.87 410.55
938 0 183.283 13.3127 2440 122.326 1190.14 404.238
939 0 190.258 13.0139 2476 122.774 1190.46 401.687
940 0 195.217 13.1751 2572 124.71 1190.38 396.586
941 1 108.118 10.248 1108 119.754 1190.53 442.684
942 0 115.35 12.6831 1463 113.463 1189.9 440.355
943 0 116.164 11.1136 1291 114.94 1190.37 438.077
944 0 121.104 10.429 1263 115.456 1190.05 436.511
945 0 127.147 11.7659 1496 112.316 1190.08 434.96
946 0 131.177 12.2964 1613 111.495 1189.71 430.035
947 0 137.145 11.9363 1637 111.597 1189.28 424.276
948 0 143.196 11.2643 1613 113.055 1190.23 422.705
949 0 149.163 12.0673 1800 112.079 1188.7 419.241
950 0 155.132 11.7384 1821 115.176 1188.81 415.806
951 1 92.0762 10.4804 965 112.791 1189.54 449.434
952 0 94.0523 11.1534 1049 111.61 1190.39 447.195
953 0 99.0839 12.6055 1249 107.088 1190.35 445.021
954 0 104.183 13.2267 1378 106.082 1189.8 445.14
955 0 108.069 13.0195 1407 107.204 1190.06 442.863
956 0 112.119 12.2638 1375 108.983 1190.33 441.391
957 0 116.156 12.3627 1436 108.769 1189.89 437.208
958 0 119.068 12.4215 1479 110.046 1190.9 434.876
959 0 124.142 12.7354 1581 108.41 1190.75 431.946
960 0 128.223 12.8136 1643 107 1190.71 430.139
961 0 133.164 12.7512 1698 106.823 1189.83 427.717
962 0 138.383 12.0102 1662 107.872 1189.62 429.342
963 1 79.2226 10.8302 858 103.169 1190.33 456.669
964 0 82.0431 12.4325 1020 100.226 1190.8 456.281
965 0 85.0565 11.0397 939 105.98 1190.91 456.568
966 0 89.1323 14.9777 1335 96.7446 1190.51 453.127
967 0 90.107 13.4507 1212 102.104 1191.32 452.998
968 0 92.0938 12.9433 1192 103.536 1190.61 452.908
969 0 96.087 13.5398 1301 102.958 1191.1 450.314
970 0 97.2117 11.7887 1146 106.756 1190.79 448.724
971 0 101.1 12.72 1286 105.685 1190.68 448.08
972 0 105.114 11.4447 1203 108.803 1190.87 445.863
973 0 108.153 11.4098 1234 110.578 1191.1 442.141
974 0 111.145 12.1553 1351 108.101 1190.39 441.39
975 0 114.167 12.0262 1373 109.043 1190.4 439.867
976 0 121.122 13.8042 1672 104.983 1190.06 439.894
977 0 124.118 12.9635 1609 108.863 1190.57 434.749
978 0 129.234 13.077 1690 109.488 1190.81 433.346
979 0 132.228 12.07 1596 112.583 1190.46 433.215
980 0 139.155 13.1149 1825 113.564 1190.07 427.397
981 0 145.169 13.3086 1932 113.387 1190.37 426.58
982 1 76.1955 10.0006 762 107.157 1189.96 455.291
983 0 81.1665 12.4559 1011 103.691 1190.1 453.983
984 0 83.1982 11.8512 986 109.241 1190.63 457.62
985 0 85.1315 12.5805 1071 106.087 1190.49 455.972
986 0 86.1297 10.8093 931 112.96 1190.29 451.201
987 0 91.1371 12.4757 1137 108.369 1191.48 452.621
988 0 93.0996 12.7605 1188 107.942 1190.92 450.344
989 0 97.148 13.0317 1266 106.735 1191.38 450.766
990 0 99.117 11.8648 1176 110.073 1191.09 449.805
991 0 102.135 11.7099 1196 110.606 1191.33 446.608
992 0 106.105 12.4216 1318 108.917 1191.05 443.212
993 0 108.151 11.9832 1296 109.793 1191.19 441.06
994 0 111.143 11.8856 1321 108.717 1190.71 440.889
995 0 115.226 11.4124 1315 109.155 1190.7 436.791
996 0 119.206 11.8115 1408 107.475 1190.74 436.67
997 0 124.209 11.4645 1424 108.295 1190.88 433.739
998 0 128.178 13.0912 1678 104.177 1190.93 432.617
999 0 133.207 11.103 1479 108.797 1191.06 426.838
1000 0 138.146 11.8788 1641 107.222 1190.8 423.193
1001 0 144.226 13.3402 1924 103.485 1191.3 421.113
1002 0 148.32 12.5607 1863 105.125 1190.44 417.497
1003 0 152.276 11.9455 1819 107.354 1190.37 415.659
1004 0 158.275 12.5099 1980 106.339 1190.02 412.048
1005 0 163.22 10.109 1650 110.925 1190.81 409.562
1006 0 171.193 12.7225 2178 105.186 1190.6 411.521
1007 0 177.243 13.8059 2447 103.516 1190.88 401.979
1008 0 181.18 12.2309 2216 108.313 1190.59 396.556
1009 1 94.1344 10.4638 985 101.12 1190.03 444.642
1010 0 94.0761 10.7785 1014 98.6884 1189.51 450.264
1011 0 96.0915 10.7814 1036 99.3581 1190.31 447.025
1012 0 103.037 11.8307 1219 99.3511 1189.98 446.21
1013 0 104.146 10.6197 1106 99.4087 1189.98 446.775
1014 0 108.079 11.5749 1251 100.476 1190.64 440.341
1015 0 115.163 12.7732 1471 97.5833 1190.4 439.57
1016 0 117.248 11.7699 1380 100.705 1191.26 433.944
1017 0 116.097 10.0175 1163 100.222 1191.46 426.086
1018 0 114.171 10.2916 1175 98.4868 1191.52 418.271
1019 1 69.1328 12.0059 830 94.1133 1191 461.952
1020 0 70.0735 11.1026 778 97.2147 1190.24 461.022
1021 0 72.1411 11.3805 821 97.7016 1191.01 459.177
1022 0 75.0962 11.7849 885 97.8678 1190.81 458.466
1023 0 74.0551 11.1539 826 101.964 1190.14 455.639
1024 0 77.1168 12.1245 935 100.341 1190.57 456.46
1025 0 79.0667 11.231 888 103.961 1190.49 456.731
1026 0 82.0977 11.6447 956 103.812 1190.71 455.552
1027 0 84.1124 12.8994 1085 102.188 1190.38 454.677
1028 0 93.2258 13.9446 1300 97.1185 1190.71 448.199
1029 0 89.0824 12.8982 1149 103.422 1190.72 450.681
1030 0 90.1579 11.3911 1027 108.558 1190.49 450.165
1031 0 95.1258 11.8895 1131 107.524 1191.08 447.286
1032 0 95.059 12.9604 1232 106.933 1190.35 448.468
1033 0 97.0724 12.4237 1206 109.534 1190.06 445.263
1034 0 101.096 12.1172 1225 109.925 1190.33 440.953
1035 0 104.105 13.1886 1373 106.564 1190.71 442.415
1036 0 107.149 13.2152 1416 106.66 1190.78 440.703
1037 0 109.223 13.3031 1453 106.848 1190.65 436.051
1038 0 113.167 13.2635 1501 106.103 1191.66 434.818
1039 0 119.232 14.1992 1693 102.751 1190.78 437.445
1040 0 120.207 12.4701 1499 107.621 1190.01 433.497
1041 0 125.087 13.5106 1690 103.768 1190.66 433.522
1042 0 129.134 12.7852 1651 105.458 1190.9 429.486
1043 0 134.103 13.1093 1758 104.968 1190.68 430.226
1044 0 136.145 13.3314 1815 105.626 1191.01 427.588
1045 0 141.098 14.1746 2000 105.361 1190.35 424.447
1046 0 145.101 13.501 1959 107.518 1191.26 422.953
1047 1 80.1396 10.0075 802 106.517 1191.27 455.499
1048 0 83.1097 11.4788 954 101.355 1192.24 453.643
1049 0 86.0587 13.0841 1126 101.832 1191.86 450.902
1050 0 88.1585 12.0919 1066 103.545 1192.04 449.859
1051 0 92.1096 12.9628 1194 101.453 1192.25 450.433
1052 0 94.1494 13.2768 1250 101.702 1191.53 447.49
1053 0 94.0883 12.3501 1162 102.071 1190.14 446.25
1054 0 98.0845 12.897 1265 100.219 1190.25 448.363
1055 0 102.073 12.6478 1291 102.702 1190.54 446.265
1056 0 104.106 11.7765 1226 105.552 1190.2 442.305
1057 0 109.117 14.4707 1579 99.8265 1191.34 442.577
1058 0 109.11 13.5826 1482 103.339 1190.55 439.857
1059 0 112.215 12.9394 1452 105.449 1190.45 436.61
1060 0 115.084 12.9991 1496 103.855 1191.22 435.501
1061 0 117.081 11.6756 1367 106.53 1191.45 433.46
1062 0 122.185 13.8642 1694 104.293 1190.81 430.086
1063 0 126.266 13.9151 1757 102.803 1190.46 428.88
1064 0 127.289 11.5406 1469 109.95 1190.1 418.996
1065 0 133.131 13.2276 1761 106.349 1189.93 420.514
1066 0 136.198 12.7315 1734 108.044 1190 416.906
1067 0 144.267 14.0296 2024 106.413 1189.87 422.225
1068 0 147.193 14.2942 2104 109.195 1190.17 419.577
1069 0 150.361 13.84 2081 110.498 1190.11 415.325
1070 0 156.177 14.4003 2249 109.019 1190.53 415.12
1071 0 161.379 15.7269 2538 106.199 1190.1 409.724
1072 0 167.142 14.7001 2457 108.385 1190.44 407.12
1073 0 172.2 14.3612 2473 109.385 1190.05 405.402
1074 0 175.291 13.4348 2355 111.967 1190.32 403.844
1075 0 183.305 14.7896 2711 108.348 1189.98 399.741
1076 0 188.275 14.2929 2691 111.222 1190.29 393.471
1077 0 194.416 13.7283 2669 113.283 1190.45 391.86
1078 0 198.28 13.7987 2736 113.483 1190.65 386.874
1079 0 207.416 14.0394 2912 112.629 1190.27 387.123
1080 0 217.463 14.9175 3244 110.504 1191.11 381.109
1081 0 223.423 13.8347 3091 113.466 1191.85 372.558
1082 0 231.441 14.2844 3306 112.946 1191.22 370.485
1083 1 59.3448 10.4306 619 94.7625 1190.63 461.88
1084 0 59.1016 10.6935 632 97.0506 1192.65 464.665
1085 0 62.4076 10.1911 636 98.1274 1191.99 463.745
1086 0 65.2041 10.1987 665 98.612 1191.82 460.501
1087 0 66.0766 10.1095 668 93.979 1191.08 457.945
1088 0 70.0308 10.1384 710 93.9479 1191.72 460.507
1089 0 71.1771 9.46933 674 94.6929 1191.7 460.954
1090 0 73.0752 9.00442 658 97.6687 1191.92 454.871
1091 0 74.1062 10.1746 754 95.5716 1193.11 454.034
1092 0 78.1056 10.409 813 94.6273 1191.98 457.305
1093 0 81.0866 9.18771 745 97.6685 1192.31 453.51
1094 0 82.1384 10.6649 876 94.9989 1191.94 453.098
1095 0 84.0294 9.78229 822 97.1983 1192.13 450.547
1096 0 87.0995 10.8152 942 94.5605 1191.87 451.013
1097 0 88.1461 9.38215 827 98.1511 1191.45 448.919
1098 0 90.2049 10.6314 959 96.2742 1192.11 449.064
1099 0 95.1099 10.9873 1045 95.3943 1191.83 446.681
1100 0 95.3422 9.46066 902 99.5987 1192.23 443.552
1101 0 99.1809 10.3951 1031 98.3841 1190.96 440.634
1102 0 103.116 10.1342 1045 99.9981 1192.04 437.449
1103 0 105.212 9.96082 1048 100.757 1192.66 437.062
1104 0 108.247 10.6608 1154 100.271 1192.4 432.847
1105 0 112.233 10.1307 1137 102.45 1192 433.222
1106 0 120.303 14.7793 1778 91.7379 1193.11 429.948
1107 1 67.2066 8.58547 577 91.5927 1192.93 463.166
1108 0 69.1322 9.24315 639 95.9437 1192.67 460.315
1109 0 71.0803 9.66512 687 97.2969 1192.43 456.774
1110 0 75.1981 11.3301 852 92.527 1191.89 449.543
1111 0 76.2116 11.5074 877 93.6796 1191.91 449.616
1112 0 77.2527 11.3912 880 93.9977 1192.03 452.552
1113 0 80.3259 12.3746 994 92.2787 1191.94 455.335
1114 0 82.1965 10.2437 842 96.1532 1191.47 454.499
1115 0 85.1458 12.6254 1075 92.1349 1191.8 452.803
1116 0 87.1828 12.8466 1120 93.1321 1192.17 448.383
1117 0 86.1182 10.3927 895 98.714 1191.91 448.749
1118 0 90.2699 12.1746 1099 97.0528 1191.59 445.978
1119 0 92.1242 11.8861 1095 97.3863 1191.77 444.542
1120 0 98.2257 13.7642 1352 93.2189 1192.07 446.59
1121 0 101.17 13.6997 1386 94.3629 1191.59 443.869
1122 0 103.45 13.2818 1374 95.4272 1191.42 439.706
1123 0 104.108 10.9598 1141 101.545 1191.9 438.933
1124 1 61.1492 9.6976 593 93.253 1192.27 463.32
1125 0 62.1539 10.8119 672 91.1473 1191.95 465.192
1126 0 63.12 9.88594 624 96.2051 1191.86 462.579
1127 0 67.073 11.9869 804 92.5647 1191.59 463.25
1128 0 71.1616 12.7737 909 97.5809 1191.45 460.86
1129 0 71.2064 11.9793 853 99.558 1191.1 460.417
1130 0 74.2107 13.9333 1034 96.1818 1190.97 458.901
1131 0 77.2483 13.8385 1069 95.6819 1191.81 457.907
1132 0 78.1651 12.9725 1014 98.6144 1191.02 456.681
1133 0 80.1167 12.6316 1012 99.9733 1191.09 454.418
1134 0 83.3184 13.4664 1122 97.5624 1191.65 453.661
1135 0 85.4403 13.4363 1148 99.3876 1191.82 451.544
1136 0 89.3784 13.7729 1231 98.9374 1192.41 450.554
1137 0 90.2672 13.6373 1231 101.033 1192.2 450.355
1138 0 92.2796 13.4699 1243 101.397 1192.33 451.44
1139 0 93.3555 12.3614 1154 104.221 1191.81 449.964
1140 0 98.179 13.5671 1332 101.173 1191.83 447.019
1141 0 98.2006 13.0142 1278 103.698 1191.98 445.444
1142 0 100.282 13.8309 1387 101.434 1191.44 445.561
1143 0 104.267 13.3983 1397 98.9692 1192.68 443.505
1144 0 108.238 12.7774 1383 99.791 1192.24 443.521
1145 0 112.231 14.6573 1645 99.1617 1191.93 439.771
1146 0 112.148 12.9561 1453 102.259 1192.34 440.021
1147 0 118.195 14.273 1687 96.543 1192.8 439.603
1148 0 116.065 11.4246 1326 103.183 1191.78 434.343
1149 0 123.212 13.5864 1674 98.101 1191.24 435.417
1150 0 127.133 12.8841 1638 101.722 1190.82 431.431
1151 0 133.22 13.4889 1797 99.7017 1190.88 427.806
1152 0 134.34 11.523 1548 103.606 1191.76 430.703
1153 0 140.266 12.9326 1814 100.123 1191.44 424.464
1154 0 146.466 13.5185 1980 98.1591 1191.93 420.682
1155 1 82.2819 12.2263 1006 94.5368 1192.17 452.856
1156 0 88.1756 13.1556 1160 94.031 1192.1 452.587
1157 0 88.2605 10.8769 960 99.1479 1192.73 454.248
1158 0 92.1464 12.1112 1116 98.2903 1192.05 449.836
1159 0 92.2598 11.511 1062 99.5744 1192.96 449.916
1160 0 97.2126 13.0539 1269 97.1308 1192.41 443.337
1161 0 99.1339 12.1754 1207 98.8136 1193.09 445.121
1162 0 103.17 12.8817 1329 97.9323 1192.23 444.64
1163 0 106.382 12.3799 1317 98.8383 1191.88 440.689
1164 0 110.254 12.3079 1357 99.3066 1191.53 440.875
1165 0 112.263 12.1233 1361 100.6 1192.46 439.098
1166 0 116.356 12.668 1474 100.917 1191.98 433.919
1167 0 122.402 13.4393 1645 99.0116 1192.24 433.97
1168 0 123.354 12.6384 1559 101.728 1192.1 431.198
1169 0 130.326 13.19 1719 100.571 1192.25 431.129
1170 0 134.267 13.4136 1801 102.366 1192.38 425.933
1171 0 140.458 13.7835 1936 103.151 1193 424.768
1172 1 78.252 12.0636 944 102.599 1192.73 456.844
1173 0 78.2709 13.3127 1042 102.358 1192.46 455.179
1174 0 82.5543 12.4766 1030 104.191 1192.12 455.051
1175 0 82.2723 12.5923 1036 104.838 1191.73 454.458
1176 0 86.2686 13.2493 1143 104.186 1192.03 451.24
1177 0 90.2893 15.107 1364 100.85 1191.58 450.237
1178 0 93.2981 14.2983 1334 102.973 1191.34 449.869
1179 0 96.177 14.9932 1442 102.491 1191.46 447.807
1180 0 98.4471 13.9364 1372 106.175 1191.36 445.887
1181 0 100.29 14.8968 1494 104.724 1191.52 445.455
1182 0 105.546 14.0223 1480 106.448 1191.97 445.53
1183 0 106.182 14.2209 1510 107.118 1191.99 444.907
1184 0 109.239 13.4659 1471 110.641 1191.59 441.042
1185 0 113.202 13.6129 1541 111.169 1191.53 438.598
1186 0 117.272 14.5814 1710 108.806 1192 440.242
1187 0 120.205 14.2923 1718 110.655 1191.59 435.091
1188 0 124.187 13.6729 1698 111.831 1192.52 435.415
1189 0 129.338 14.3113 1851 109.872 1191.83 431.574
1190 0 133.21 14.7136 1960 109.232 1191.66 430.182
1191 0 136.192 14.296 1947 111.272 1190.84 426.855
1192 0 138.271 13.112 1813 114.533 1190.95 427.881
1193 0 143.193 13.5412 1939 114.318 1190.76 424.673
1194 0 148.191 14.6568 2172 112.474 1191.05 421.255
1195 0 152.237 13.8139 2103 115.259 1190.99 417.97
1196 0 158.221 13.715 2170 115.572 1190.88 418.607
1197 0 163.169 14.5493 2374 114.259 1191.7 416.952
1198 0 167.137 13.468 2251 117.093 1191.75 411.656
1199 0 172.196 13.5195 2328 117.069 1191.61 409.753
1200 0 179.22 13.1012 2348 117.753 1191.01 407.86
1201 0 183.246 14.0303 2571 116.646 1191.2 399.9
1202 0 191.469 13.9553 2672 116.365 1191.37 400.664
1203 0 197.289 14.0707 2776 116.74 1191.65 396.929
1204 0 203.172 14.3622 2918 115.67 1191.85 397.449
1205 0 209.229 14.2523 2982 116.021 1190.85 393.179
1206 0 214.168 13.9096 2979 118.215 1190.83 387.967
1207 0 222.219 13.9907 3109 117.327 1191.13 383.859
1208 0 230.4 14.3446 3305 115.372 1190.7 382.517
1209 1 308.265 10.2315 3154 122.117 1191.48 369.819
1210 0 299.26 13.109 3923 119.961 1191.73 352.137
1211 1 194.326 13.9199 2705 113.419 1191.48 398.817
1212 1 61.2087 9.70451 594 112.375 1191.71 460.936
1213 0 64.1658 12.8417 824 104.37 1191.57 459.567
1214 0 65.2325 12.3711 807 106.245 1192.17 459.154
1215 0 67.0394 11.6499 781 107.851 1192.03 460.545
1216 0 70.1539 12.8004 898 103.531 1191.55 459.31
1217 0 71.09 12.1395 863 105.772 1192.39 458.063
1218 0 71.083 11.8453 842 106.793 1191.74 455.88
1219 0 75.1726 12.5312 942 104.567 1190.98 453.706
1220 0 79.0938 13.1237 1038 103.778 1192.13 452.948
1221 0 82.0523 13.2111 1084 103.647 1192.24 449.254
1222 0 84.0901 15.0196 1263 100.33 1192.34 447.348
1223 0 84.0872 13.5098 1136 105.57 1192.8 447.684
1224 0 87.1999 13.5665 1183 105.34 1192.55 447.343
1225 0 92.1513 15.0622 1388 102.094 1192.69 444.812
1226 0 93.1306 14.5709 1357 103.985 1192.1 442.183
1227 0 97.161 13.7607 1337 105.825 1192.92 442.712
1228 0 99.1295 14.7181 1459 104.812 1191.81 442.353
1229 0 102.263 14.1693 1449 106.897 1191.46 439.736
1230 0 104.174 14.7542 1537 105.295 1192.48 438.99
1231 0 106.09 13.9411 1479 108.415 1192.98 437.591
1232 0 103.258 13.2483 1368 113.227 1193.06 437.447
1233 0 106.051 12.4186 1317 115.328 1192.85 437.751
1234 0 110.082 13.4809 1484 112.146 1192.14 436.995
1235 0 110.154 13.2995 1465 112.586 1192.37 437.473
1236 0 114.279 14.1845 1621 110.246 1192.62 434.308
1237 0 115.115 14.1597 1630 111.384 1192.5 433.16
1238 0 116.123 14.6913 1706 110.88 1192.92 431.756
1239 0 119.154 15.7779 1880 107.18 1193.06 431.016
1240 0 121.151 16.3598 1982 104.584 1193.06 430.506
1241 0 122.084 16.8163 2053 104.307 1192.77 430.844
1242 0 120.134 14.8668 1786 110.083 1192.93 429.286
1243 0 122.057 13.8951 1696 111.272 1192.89 431.529
1244 0 124.15 14.7241 1828 109.022 1192.5 432.064
1245 0 124.133 14.1058 1751 111.455 1192.1 429.649
1246 0 125.133 13.5456 1695 112.673 1191.61 430.499
1247 0 124.292 13.4522 1672 113.04 1190.83 429.787
1248 0 128.169 13.9503 1788 111.556 1191.91 428.397
1249 0 125.19 13.9788 1750 112.373 1191.22 427.559
1250 0 127.208 13.6076 1731 111.406 1191.54 429.417
1251 0 128.401 13.6993 1759 110.615 1191.28 428.181
1252 0 128.301 13.4371 1724 111.758 1191.89 430.543
1253 0 131.144 14.4345 1893 109.064 1191.66 429.091
1254 0 130.181 13.197 1718 113.165 1191.57 429.358
1255 0 131.133 14.8552 1948 108.774 1191.37 428.531
1256 0 133.151 14.3971 1917 108.746 1191.54 429.625
1257 0 131.13 13.9327 1827 110.662 1191.62 426.715
1258 0 130.123 13.6102 1771 111.684 1191.29 427.508
1259 0 132.304 13.8998 1839 109.921 1191.9 426.487
1260 0 134.175 14.4438 1938 108.788 1191.43 424.425
1261 0 134.245 14.7044 1974 106.895 1191.08 425.072
1262 0 134.085 13.6331 1828 109.908 1192.02 426.359
1263 0 135.161 14.8786 2011 106.523 1192.57 425.859
1264 0 134.196 13.6219 1828 109.307 1192.11 425.16
1265 0 135.157 13.9467 1885 107.795 1191.69 426.145
1266 0 134.169 12.7601 1712 110.907 1192.25 425.646
1267 0 136.199 13.6125 1854 108.004 1191.95 424.002
1268 0 137.149 13.6712 1875 107.827 1192.23 424.187
1269 0 132.182 12.339 1631 111.044 1192.44 424.679
1270 0 133.19 12.8914 1717 109.695 1191.93 423.965
1271 0 137.186 13.2594 1819 107.29 1192.55 423.811
1272 0 137.095 14.7051 2016 103.614 1192.15 422.135
1273 0 136.219 13.6251 1856 106.835 1192.62 420.773
1274 0 139.136 13.2532 1844 105.703 1192.2 423.425
1275 0 137.219 14.0068 1922 105.102 1192.36 419.912
1276 0 139.094 14.5657 2026 102.692 1192.64 422.141
1277 0 140.141 14.3427 2010 102.47 1192.22 420.355
1278 0 143.277 14.1125 2022 101.909 1192.96 420.802
1279 0 140.188 13.1252 1840 104.57 1192.88 420.051
1280 0 141.168 14.2737 2015 102.002 1193.23 418.826
1281 0 140.204 14.3291 2009 101.561 1192.68 417.363
1282 0 142.116 14.2982 2032 100.262 1192.35 419.021
1283 0 143.127 14.9168 2135 98.6201 1192.73 420.756
1284 0 143.132 14.7207 2107 99.1139 1192.35 415.447
1285 0 143.119 14.9666 2142 98.2965 1193.05 419.458
1286 0 144.176 14.8846 2146 97.9725 1193.74 414.537
1287 0 147.21 16.113 2372 94.4085 1193.59 413.725
1288 0 146.117 15.8298 2313 95.6208 1193.65 417.081
1289 0 145.106 14.293 2074 98.6379 1193.97 416.273
1290 0 144.14 15.3601 2214 96.3726 1194.12 414.062
1291 0 146.113 14.7694 2158 97.1816 1194.28 413.996
1292 0 148.068 16.2222 2402 92.8376 1193.85 417.488
1293 0 142.111 12.3284 1752 101.918 1193.91 415.369
1294 0 149.202 14.0078 2090 96.7182 1193.95 417.758
1295 0 147.078 14.115 2076 97.9461 1193.76 414.734
1296 0 147.143 12.9126 1900 99.1611 1193.29 416.474
1297 0 148.17 14.2539 2112 96.2169 1194.2 415.408
1298 0 148.144 14.8166 2195 94.292 1193.48 417.598
1299 0 148.167 12.3779 1834 98.1963 1193.43 418.741
1300 0 150.152 14.0125 2104 95.2053 1193.28 415.279
1301 0 148.224 13.4459 1993 96.7662 1193.03 415.456
1302 0 149.17 13.4612 2008 97.2704 1193.15 413.462
1303 0 150.154 13.939 2093 95.3278 1192.54 414.066
1304 0 149.149 14.1737 2114 94.1717 1193.03 415.718
1305 0 150.325 15.7193 2363 91.1621 1192.67 413.157
1306 0 149.157 14.6557 2186 92.9726 1193.39 413.27
1307 0 151.225 14.3892 2176 92.9288 1192.81 412.126
1308 0 150.225 13.2934 1997 94.7411 1193.17 413.167
1309 0 150.177 13.9103 2089 93.8439 1193.77 409.191
1310 0 153.163 14.5597 2230 91.7605 1192.99 412.907
1311 0 150.23 13.3462 2005 94.9671 1192.74 408.121
1312 0 153.196 13.0291 1996 93.9083 1193.66 414.93
1313 0 151.197 12.5928 1904 95.1686 1193.28 411.995
1314 0 154.272 14.5198 2240 91.4647 1193.45 410.424
1315 0 148.161 12.5539 1860 95.7134 1192.83 409.12
1316 0 152.405 13.9168 2121 92.4102 1193.21 410.118
1317 0 153.186 14.564 2231 92.485 1192.8 412.768
1318 0 152.184 14.246 2168 93.2731 1192.99 411.964
1319 0 151.197 13.3269 2015 96.4809 1193.25 410.234
1320 0 150.302 13.5527 2037 96.2155 1192.95 411.135
1321 0 151.231 14.0448 2124 94.4134 1191.82 411.695
1322 0 152.206 14.2242 2165 93.4697 1191.94 414.595
1323 0 151.227 14.8386 2244 91.5865 1191.68 415.098
1324 0 151.226 13.5228 2045 93.8846 1191.91 413.586
1325 0 146.223 12.8639 1881 95.9027 1191.96 412.636
1326 0 152.164 14.8984 2267 91.5457 1191.99 413.439
1327 0 151.417 14.1266 2139 92.7078 1191.1 414.714
1328 0 151.154 13.4234 2029 93.3006 1191.46 415.634
1329 0 151.197 14.5109 2194 91.5397 1191.16 412.596
1330 0 151.157 13.304 2011 93.3043 1191.07 416.919
1331 0 152.222 14.6103 2224 91.1412 1192.01 412.982
1332 0 152.145 13.7698 2095 91.9375 1192.14 413.539
1333 0 150.238 13.8313 2078 92.6338 1191.73 412.944
1334 0 152.135 13.35 2031 92.098 1190.89 415.206
1335 0 152.17 15.0819 2295 88.2357 1190.86 415.186
1336 0 154.236 13.1941 2035 90.9017 1191.08 414.938
1337 0 156.154 14.8187 2314 87.7502 1190.25 413.713
1338 0 153.26 13.7479 2107 90.477 1190.92 413.708
1339 0 149.214 11.1451 1663 94.1624 1189.9 414.859
1340 0 155.187 14.286 2217 88.3004 1191.05 414.531
1341 0 156.285 13.8081 2158 88.6001 1190.58 413.451
1342 0 154.385 13.7643 2125 88.8184 1191.09 411.304
1343 0 154.363 13.8829 2143 87.8054 1190.5 415.182
1344 0 153.151 11.838 1813 91.0673 1190.65 416.961
1345 0 154.226 13.3441 2058 88.2682 1190.36 416.174
1346 0 156.378 12.6553 1979 88.9111 1190.27 414.855
1347 0 156.263 13.0357 2037 88.4649 1190.41 414.488
1348 0 156.34 13.0868 2046 88.2243 1190.39 415.208
1349 0 157.36 13.269 2088 87.4617 1190.57 412.57
1350 0 156.26 14.2519 2227 86.5218 1190.93 412.289
1351 0 159.199 14.2023 2261 85.8257 1189.99 413.918
1352 0 155.165 14.0947 2187 86.8482 1189.79 407.385
1353 0 155.131 13.3887 2077 87.8402 1190 411.813
1354 0 157.255 13.5958 2138 87.1076 1189.56 410.44
1355 0 157.238 13.3365 2097 88.3371 1190.33 409.849
1356 0 159.309 13.7343 2188 90.0466 1189.43 414.703
1357 0 155.345 12.5012 1942 90.1401 1189.38 409.712
1358 0 157.243 14.2772 2245 87.1394 1189.2 408.764
1359 0 155.298 13.7606 2137 88.336 1189.32 414.019
1360 0 155.18 14.3124 2221 87.67 1189.65 408.181
1361 0 157.183 14.0537 2209 86.9878 1189.19 413.71
1362 0 156.268 14.4751 2262 85.7511 1189.2 412.821
1363 0 156.216 14.0702 2198 85.9449 1188.7 414.686
1364 0 156.274 13.182 2060 86.8447 1188.86 414.741
1365 0 156.309 13.1086 2049 87.4939 1189.21 414.831
1366 0 158.227 14.6877 2324 84.475 1189.55 411.953
1367 0 156.171 13.9014 2171 86.2091 1189.15 408.202
1368 0 157.187 13.0927 2058 86.7235 1190.28 412.979
1369 0 158.295 13.0326 2063 86.8032 1188.89 411.649
1370 0 158.144 15.0938 2387 83.5727 1189.69 412.189
1371 0 157.317 14.9253 2348 83.5762 1188.9 412.735
1372 0 157.245 13.3677 2102 86.4472 1189.39 409.358
1373 0 155.19 13.6349 2116 86.3502 1188.56 410.994
1374 0 158.213 14.4678 2289 83.8938 1189.4 406.783
1375 0 160.227 14.0738 2255 84.1126 1188.91 407.175
1376 0 157.184 12.902 2028 86.3821 1188.71 408.219
1377 0 158.191 14.3497 2270 83.8529 1188.29 402.819
1378 0 159.177 14.933 2377 82.8982 1188.77 408.352
1379 0 161.514 14.2898 2308 83.2621 1188.76 410.68
1380 0 155.201 12.0811 1875 87.6235 1189.22 407.546
1381 0 159.186 14.7689 2351 83.0915 1188.96 407.046
1382 0 160.229 13.8115 2213 84.1252 1189 407.855
1383 0 160.258 15.1381 2426 83.3718 1188.18 413.364
1384 0 158.154 13.6639 2161 86.491 1188.26 406.935
1385 0 160.354 13.3579 2142 86.0691 1188.72 413.207
1386 0 159.324 14.3105 2280 83.9478 1188.22 412.137
1387 0 157.452 13.6105 2143 85.0023 1188.17 412.005
1388 0 156.247 12.0514 1883 87.4865 1187.82 409.919
1389 0 157.247 13.1322 2065 85.2504 1188.97 409.181
1390 0 155.243 12.3613 1919 86.6456 1189.06 408.053
1391 0 156.266 13.5154 2112 84.5526 1187.97 410.571
1392 0 158.22 14.8021 2342 82.3928 1188.37 409.497
1393 0 155.208 12.7764 1983 85.2158 1188.41 407.244
1394 0 157.282 14.1275 2222 82.968 1188.02 410.095
1395 0 156.273 13.2333 2068 84.6494 1188.49 406.069
1396 0 157.135 12.1806 1914 85.9148 1188.67 406.557
1397 0 157.127 12.8176 2014 84.7577 1187.62 409.768
1398 0 154.151 11.7547 1812 85.91 1188.6 409.37
1399 0 157.149 13.4904 2120 83.0981 1187.99 412.465
1400 0 158.201 12.9835 2054 83.5798 1188.5 404.418
1401 0 160.29 13.513 2166 81.6934 1188.23 398.376
1402 0 158.319 12.6453 2002 84.1124 1188.37 403.835
1403 0 157.138 12.9758 2039 84.5154 1188.26 408.51
1404 0 159.216 13.6167 2168 83.304 1189.03 411.638
1405 0 157.157 12.5162 1967 84.9248 1188.56 413.865
1406 0 156.148 13.4423 2099 83.8771 1188.71 406.687
1407 0 153.14 13.2558 2030 84.3054 1188.09 405.503
1408 0 154.229 13.668 2108 83.3145 1188.82 403.407
1409 0 155.205 12.7058 1972 84.4944 1188.41 403.986
1410 0 155.188 11.7148 1818 85.9994 1188.74 406.281
1411 0 157.246 13.6029 2139 82.7686 1189.36 405.252
1412 0 154.136 12.1516 1873 85.2093 1188.26 409.689
1413 0 158.253 12.9413 2048 82.9819 1188.83 409.341
1414 0 158.203 13.3436 2111 82.4505 1188.13 407.688
1415 0 157.168 12.0381 1892 84.6961 1187.81 406.628
1416 0 156.377 13.2884 2078 80.5861 1188.63 410.767
1417 0 158.295 11.3522 1797 83.1475 1187.75 400.663
1418 0 157.124 14.6636 2304 80.0265 1188.36 408.638
1419 0 156.379 12.8278 2006 83.2094 1188.28 407.855
1420 0 157.216 12.6959 1996 84.0551 1188.57 411.316
1421 0 154.118 12.2503 1888 85.7823 1187.78 409.599
1422 0 157.193 14.9053 2343 80.7717 1188.08 408.66
1423 0 150.245 11.7142 1760 86.4489 1187.96 407.254
1424 0 152.326 10.5169 1602 87.4794 1188.49 403.92
1425 0 155.295 11.3977 1770 85.7226 1187.64 412.25
1426 0 152.118 11.5634 1759 86.0523 1188.52 406.383
1427 0 158.314 11.9635 1894 84.4609 1187.21 411.986
1428 0 157.133 13.7526 2161 81.8496 1188.17 410.278
1429 0 160.284 12.4903 2002 83.2313 1187.72 409.52
1430 0 156.242 11.0726 1730 86.1723 1187.86 405.249
1431 0 156.132 15.2115 2375 79.7899 1187.87 407.717
1432 0 161.232 11.2075 1807 84.6851 1187.3 414.244
1433 0 160.212 12.0153 1925 83.7657 1188.63 409.7
1434 0 161.18 12.4768 2011 82.6837 1187.94 409.459
1435 0 159.23 13.4774 2146 81.5536 1188.18 404.69
1436 0 160.227 13.9677 2238 80.4415 1188.22 406.775
1437 0 162.22 13.6235 2210 80.5353 1187.96 407.911
1438 0 160.273 14.0386 2250 80.3324 1188.28 407.157
1439 0 161.126 12.7602 2056 81.7899 1187.82 406.017
1440 0 159.212 13.2528 2110 81.1682 1188.3 407.652
1441 0 157.309 14.4111 2267 80.3079 1187.72 404.399
1442 0 159.347 15.984 2547 77.13 1188.28 408.325
1443 0 157.203 11.412 1794 83.9236 1187.18 400.293
1444 0 157.32 12.7956 2013 81.8927 1187.79 405.571
1445 0 163.177 14.5364 2372 78.8166 1187.79 408.239
1446 0 162.209 12.4901 2026 81.6816 1187.43 404.517
1447 0 164.216 12.106 1988 81.6192 1188.41 407.334
1448 0 162.253 13.5591 2200 79.91 1187.99 401.757
1449 0 161.32 11.8956 1919 81.8395 1187.77 403.61
1450 0 165.212 14.545 2403 78.0387 1187.63 404.357
1451 0 160.128 13.508 2163 79.3417 1187.99 403.241
1452 0 166.218 13.5124 2246 78.3878 1188.36 402.13
1453 0 163.129 12.6342 2061 79.312 1187.47 408.637
1454 0 164.343 11.762 1933 80.9897 1188.47 404.002
1455 0 164.307 11.3689 1868 83.1718 1188.22 409.789
1456 0 162.273 13.9209 2259 80.1231 1187.6 406.247
1457 0 158.243 11.9942 1898 83.0021 1188.03 401.75
1458 0 161.192 14.2873 2303 78.449 1188.1 406.515
1459 0 160.358 14.5051 2326 77.6199 1188.92 404.97
1460 0 164.281 13.5378 2224 78.8602 1188.18 404.357
1461 0 162.379 12.748 2070 79.8014 1187.95 404.109
1462 0 161.281 13.4548 2170 78.9493 1188.4 406.906
1463 0 164.303 11.4849 1887 80.3699 1188.41 413.766
1464 0 163.247 13.8746 2265 77.4247 1189.04 405.247
1465 0 158.207 12.1297 1919 80.111 1188.29 402.319
1466 0 161.198 13.2508 2136 78.7556 1189.23 404.077
1467 0 163.182 13.2674 2165 78.3538 1188.94 404.996
1468 0 163.275 13.3946 2187 78.1079 1188.47 404.366
1469 0 160.238 11.9135 1909 80.2881 1188.79 401.559
1470 0 164.333 14.8053 2433 75.8681 1188.22 404.537
1471 0 158.324 11.9123 1886 80.2338 1188.1 397.347
1472 0 161.24 13.4582 2170 77.4083 1188.52 401.942
1473 0 164.178 12.2428 2010 78.1303 1188.53 407.383
1474 0 162.195 12.9906 2107 78.0731 1189.04 406.481
1475 0 163.171 11.9629 1952 80.1393 1188.18 402.307
1476 0 162.21 12.7181 2063 78.0945 1188.05 406.049
1477 0 161.254 11.9005 1919 78.9229 1189.22 402.498
1478 0 162.29 13.9873 2270 76.1115 1189.19 406.959
1479 0 166.273 13.3575 2221 77.299 1188.5 403.736
1480 0 164.212 13.2268 2172 76.6146 1188 402.757
1481 0 163.248 13.3355 2177 76.5374 1188.17 403.381
1482 0 162.346 11.9005 1932 78.265 1188.61 399.727
1483 0 163.206 11.2925 1843 77.7499 1188.38 410.712
1484 0 168.314 14.3541 2416 74.0849 1188.72 403.116
1485 0 166.299 12.6219 2099 77.2025 1188.88 408.027
1486 0 167.29 13.8442 2316 75.7401 1187.97 403.506
1487 0 163.281 12.5918 2056 77.3813 1188.39 403.49
1488 0 167.265 12.4533 2083 76.2674 1188.33 405.479
1489 0 163.337 13.5854 2219 75.2767 1188.25 403.604
