time division length width area intensity CMx CMy
0 0 49.0377 12.5822 617 137.846 1188.15 471.472
1 0 50.1079 12.6327 633 137.664 1188.34 470.22
2 0 51.0258 12.0527 615 139.049 1188.92 469.042
3 0 55.0568 12.024 662 135.151 1189.37 468.909
4 0 56.0576 12.2196 685 135.711 1188.33 468.276
5 0 58.0318 13.0101 755 133.291 1189.04 467.897
6 0 60.065 12.3866 744 132.761 1189.14 468.613
7 0 61.0803 12.7865 781 130.981 1188.93 466.945
8 0 62.1948 12.1393 755 132.121 1188.68 467.624
9 1 33.0246 11.3249 374 140.334 1188.47 479.091
10 0 36.0755 12.2244 441 135.252 1187.72 479.268
11 0 37.1239 12.5256 465 131.994 1189.38 479.757
12 0 37.095 12.9398 480 131.529 1188.56 478.969
13 0 38.0832 12.709 484 135.694 1187.81 478.467
14 0 40.0918 12.7707 512 134.5 1188 477.777
15 0 40.0751 12.6762 508 136.197 1187.37 477.671
16 0 41.0298 14.0386 576 131.398 1186.93 477.436
17 0 45.0554 14.2269 641 128.226 1187.27 477.273
18 0 45.0521 13.895 626 132.823 1187.43 476.161
19 0 46.1069 13.2301 610 134.933 1187.35 476.223
20 0 48.0485 13.9026 668 132.81 1186.3 475.581
21 0 50.0429 15.167 759 128.324 1186.04 474.995
22 0 51.053 14.2597 728 133.229 1186.47 475.184
23 0 53.0507 14.1186 749 132.774 1187.13 475.405
24 0 52.0231 13.2826 691 138.046 1185.93 475.243
25 0 56.1535 14.7275 827 130.589 1185.9 472.762
26 0 56.0432 13.9535 782 135.116 1186.5 473.023
27 0 57.048 13.6026 776 137.92 1186.28 472.338
28 0 60.0359 14.9244 896 131.676 1185.46 472.259
29 0 60.0295 14.2763 857 135.303 1185.88 471.32
30 0 64.0435 15.0054 961 129.442 1185.97 471.419
31 0 65.0734 14.9984 976 130.439 1185.38 469.305
32 0 69.1021 14.4858 1001 130.225 1184.79 468.486
33 0 68.0435 13.8882 945 128.206 1185.95 468.688
34 0 70.0591 15.2157 1066 123.43 1185.56 468.947
35 0 72.1205 14.1707 1022 126.86 1185.82 467.242
36 0 72.0638 13.4325 968 130.377 1186.38 465.405
37 0 75.1053 14.6461 1100 126.163 1186.31 466.53
38 0 76.0581 13.4108 1020 130.892 1185.88 464.211
39 0 81.1068 14.2651 1157 126.361 1185.43 464.964
40 0 83.099 14.0676 1169 128.409 1185.11 461.455
41 0 86.1284 13.8166 1190 127.506 1185.54 460.808
42 0 88.1495 14.7023 1296 125.714 1185.25 459.319
43 0 91.1378 14.5823 1329 124.575 1186.1 456.991
44 0 94.1613 14.0079 1319 126.793 1185.46 456.008
45 0 95.1193 13.8037 1313 127.353 1185.25 454.363
46 0 100.115 14.0339 1405 125.56 1185.21 453.955
47 0 103.241 14.3741 1484 122.57 1185.27 453.199
48 0 105.141 13.2584 1394 125.291 1185.64 449.783
49 0 108.315 14.4763 1568 121.52 1184.88 449.971
50 0 113.146 13.4604 1523 124.227 1184.52 445.804
51 0 117.271 13.618 1597 120.951 1184.72 447.389
52 0 121.264 13.7963 1673 120.551 1184.6 441.709
53 0 128.164 12.8195 1643 120.946 1184.23 441.509
54 0 131.401 12.4808 1640 121.847 1184.25 438.425
55 1 71.2701 13.526 964 115.756 1184.19 465.227
56 0 74.0724 13.0143 964 116.297 1185.16 467.038
57 0 77.0489 12.3688 953 118.021 1184.31 464.992
58 0 79.0677 12.875 1018 117.979 1184.67 463.101
59 0 83.1511 13.1087 1090 116.292 1185.29 462.351
60 0 87.1397 14.5054 1264 113.021 1184.55 459.404
61 0 89.0913 12.6499 1127 118.409 1184.41 458.792
62 0 94.0473 13.4188 1262 116.651 1184.23 456.787
63 0 95.1145 13.1421 1250 117.916 1183.41 453.656
64 0 99.1218 12.9033 1279 117.93 1184.34 452.242
65 0 102.18 13.0457 1333 117.884 1184 451.58
66 0 106.128 13.512 1434 116.991 1183.29 449.941
67 0 111.235 13.7456 1529 116.995 1183.31 448.022
68 1 56.1367 12.8258 720 113.724 1183.81 473.839
69 0 58.169 11.9995 698 116.228 1183.01 473.378
70 0 61.0859 12.949 791 114.826 1184.06 471.402
71 0 63.0399 13.087 825 112.801 1183.72 471.193
72 0 65.1874 12.7018 828 113.18 1183.63 471.685
73 0 68.0666 13.2517 902 113.295 1184.66 468.605
74 0 68.0524 12.4316 846 116.622 1184.69 468.465
75 0 73.0941 13.8862 1015 114.146 1184.18 467.249
76 0 75.0368 13.0869 982 115.513 1184.42 466.682
77 0 77.0821 13.7256 1058 113.317 1184.38 466.687
78 0 80.1025 13.6825 1096 113.656 1184.21 464.715
79 0 84.1292 14.9175 1255 112.832 1184.21 463.214
80 0 83.1349 14.3622 1194 114.391 1184.78 462.164
81 0 87.1078 13.2939 1158 114.878 1184.64 460.554
82 0 90.1114 13.3612 1204 114.532 1184.86 458.472
83 0 93.1299 15.4945 1443 108.083 1184.39 458.672
84 0 93.1027 13.2112 1230 115.97 1184.67 456.702
85 0 97.1912 13.2728 1290 115.008 1184.42 455.288
86 0 105.084 18.9277 1989 99.3826 1184.38 449.878
87 0 104.161 14.708 1532 111.297 1185.12 449.852
88 0 107.056 13.7498 1472 113.523 1184.32 450.289
89 0 110.191 13.0864 1442 115.01 1184.02 449.709
90 0 114.178 12.7432 1455 115.038 1183.81 449.254
91 0 118.196 13.7991 1631 113.854 1183.6 445.089
92 1 61.0764 11.15 681 112.49 1182.41 469.477
93 0 62.1416 11.7635 731 107.491 1183.05 465.43
94 0 64.0454 11.7417 752 107.576 1183.96 472.888
95 0 69.047 12.5711 868 104.801 1183.74 471.207
96 0 67.082 11.2251 753 110.829 1183.37 468.544
97 0 71.0939 13.5314 962 106.056 1183.71 466.48
98 0 74.088 12.6336 936 107.862 1183.42 468.083
99 0 76.1409 12.1354 924 109.481 1183.5 465.355
100 0 78.0637 12.1696 950 110.816 1183.91 462.792
101 0 83.0363 13.741 1141 106.429 1183.07 463.472
102 0 84.0398 13.3389 1121 108.451 1183.52 461.775
103 0 86.0571 12.7125 1094 110.921 1183.6 460.057
104 0 89.1051 13.254 1181 109.456 1183.24 459.066
105 0 91.0653 11.8706 1081 112.411 1183.36 458.395
106 0 96.0731 13.6146 1308 108.515 1182.85 454.797
107 0 98.105 13.8627 1360 108.958 1183.2 454.688
108 0 102.119 14.1501 1445 107.67 1183.57 453.125
109 0 107.18 12.3064 1319 110.882 1183.12 452.456
110 1 58.0504 11.3694 660 106.698 1183.03 476.817
111 0 60.1087 11.6788 702 107.226 1183.71 474.967
112 0 62.0667 12.4221 771 105.923 1183.29 473.743
113 0 62.0275 12.3816 768 106.276 1183.43 472.271
114 0 64.0148 12.1847 780 106.729 1182.7 472.099
115 0 66.0358 12.4175 820 106.191 1183.12 471.583
116 0 69.1372 11.6435 805 108.949 1182.62 469.486
117 0 71.0708 12.5086 889 107.764 1183.11 468.339
118 0 74.1577 13.0398 967 107.758 1182.62 467.586
119 0 74.067 11.8136 875 111.806 1182.61 468.439
120 0 75.0966 10.8127 812 115.053 1183 465.908
121 0 80.1728 12.6477 1014 112.144 1182.94 462.452
122 0 83.1191 11.9467 993 112.015 1182.62 463.043
123 0 84.0846 11.5122 968 116.599 1182.83 461.887
124 0 90.0835 12.9658 1168 112.538 1181.67 458.184
125 0 92.0498 12.0587 1110 116.038 1182.89 457.227
126 0 96.0684 12.9595 1245 113.184 1181.85 456.821
127 0 98.0171 10.3757 1017 118.665 1182.21 458.333
128 0 102.089 12.4107 1267 113.504 1182.93 456.944
129 0 107.106 12.8098 1372 113.391 1182.61 450.306
130 1 54.1149 10.7918 584 110.022 1183.2 474.238
131 0 55.0218 9.79612 539 106.657 1183.23 471.844
132 0 57.1147 10.7328 613 102.811 1182.94 469.618
133 0 58.0618 10.9711 637 109.548 1184.24 475.232
134 0 58.0604 10.1274 588 109.575 1182.5 475.007
135 0 61.0581 11.3498 693 107.405 1183.76 473.16
136 0 63.0361 12.009 757 106.079 1182.31 473.357
137 0 65.1253 12.4376 810 106.831 1182.74 471.248
138 0 67.0578 11.7809 790 108.796 1182.64 470.138
139 0 68.0771 11.4135 777 111.426 1182.52 470.344
140 0 70.0674 12.5023 876 109.853 1183.32 468.168
141 0 72.1258 11.7572 848 112.565 1183.49 467.342
142 0 74.0608 11.7201 868 113.317 1182.93 467.745
143 0 77.1253 11.7471 906 111.852 1183.05 467.324
144 0 77.0479 12.3689 953 112.981 1182.7 463.915
145 0 82.2064 13.5877 1117 110.611 1183.32 462.133
146 0 85.0442 12.7816 1087 120.584 1181.88 461.187
147 0 88.0655 12.1387 1069 121.835 1180.67 460.634
148 0 89.065 11.9351 1063 122.559 1181.86 459.044
149 0 92.0702 11.2849 1039 124.602 1181.02 455.273
150 0 97.0534 12.4261 1206 114.29 1181.76 455.993
151 0 99.05 10.6209 1052 119.845 1182.12 454.855
152 0 102.109 12.3887 1265 116.711 1181.99 451.466
153 1 52.0249 10.0144 521 113.157 1182.07 478.762
154 0 53.0179 11.2415 596 109.263 1181.39 477.376
155 0 56.1137 11.049 620 111.184 1182.96 475.334
156 0 56.1076 10.9254 613 108.938 1183.32 475.354
157 0 57.1372 11.1136 635 108.778 1182.73 475.26
158 0 60.071 11.6029 697 107.377 1183.79 474.043
159 0 61.0698 11.364 694 122.705 1184.79 474.097
160 0 62.0511 11.6033 720 108.889 1182.82 470.949
161 0 65.1148 11.5028 749 108.178 1184.07 470.991
162 0 67.141 13.0621 877 103.986 1182.79 468.491
163 0 69.1048 11.9239 824 106.682 1183.03 468.676
164 0 71.1214 11.3327 806 108.025 1183.54 467.809
165 0 73.0769 11.481 839 107.014 1183.53 467.938
166 0 75.0439 12.2195 917 105.927 1182.77 466.112
167 0 78.1466 12.451 973 104.787 1183.25 465.442
168 0 80.1209 11.1332 892 116.859 1182.59 463.288
169 0 82.2457 11.417 939 115.37 1182.98 462.966
170 0 86.2494 13.1827 1137 112.437 1182.84 459.055
171 0 87.1616 11.0484 963 116.565 1182.72 455.996
172 0 90.1653 11.2682 1016 113.984 1182.34 456.868
173 0 93.2213 10.9524 1021 113.985 1182.77 454.328
174 0 95.1561 9.47916 902 116.051 1181.97 455.672
175 0 100.122 10.3174 1033 112.966 1182.6 455.831
176 1 51.056 9.67565 494 108.081 1183.05 476.279
177 0 54.1068 9.9433 538 107.407 1182.96 476.675
178 0 56.0727 11.5386 647 101.96 1182.4 474.478
179 0 55.1242 11.4832 633 102.006 1183.97 473.76
180 0 58.2218 12.9677 755 75.4238 1183.07 475.775
181 0 59.0314 11.0619 653 104.522 1183.26 472.926
182 0 60.0877 11.1171 668 106.195 1183.21 471.406
183 0 60.0983 11.0319 663 107.305 1183.12 471.128
184 0 64.0928 11.6862 749 105.744 1183.13 471.019
185 0 65.0776 11.7398 764 107.059 1183.32 469.805
186 0 67.0765 12.9106 866 105.293 1183.61 467.383
187 0 71.053 11.3436 806 109.486 1183.39 467.512
188 0 72.0591 12.2261 881 108.655 1183.84 466.999
189 0 75.1527 12.1619 914 108.675 1183.43 466.148
190 0 78.1393 11.4155 892 110.256 1183.27 462.598
191 0 81.232 11.6087 943 108.522 1183.48 462.528
192 0 83.1739 11.6142 966 108.885 1183.38 460.707
193 0 88.3253 13.088 1156 105.679 1183.63 459.588
194 0 90.238 12.2565 1106 108.555 1183.32 460.408
195 1 47.1315 10.2691 484 112.252 1184.05 478.517
196 0 49.1504 10.8443 533 107.409 1183.66 477.403
197 0 51.0164 11.5257 588 97.7092 1184.2 476.029
198 0 51.0965 11.1162 568 102.238 1182.61 477.088
199 0 52.0952 10.2313 533 104.105 1183.2 476.582
200 0 54.1232 11.363 615 100.281 1182.73 477.446
201 0 57.1079 11.5571 660 100.685 1182.85 475.148
202 0 60.0751 11.9684 719 98.5424 1182.17 475.91
203 0 59.0722 10.6311 628 103.115 1183.15 473.387
204 0 63.1274 11.7857 744 99.3992 1182.64 471.841
205 0 66.1189 11.192 740 100.868 1182.72 470.976
206 0 67.1095 11.444 768 101.068 1182.49 469.289
207 0 69.1185 12.9777 897 97.9721 1182.44 468.318
208 0 72.0849 11.9304 860 99.036 1182.02 467.658
209 0 72.0914 11.1248 802 101.581 1182.77 465.463
210 0 75.0823 12.2665 921 100.238 1182.93 466.015
211 0 79.0922 12.4285 983 100.693 1183.1 463.859
212 0 81.1205 11.8836 964 100.98 1182.5 464.74
213 0 83.2053 10.9729 913 104.616 1182.59 458.993
214 0 88.2843 11.916 1052 100.904 1183.49 461.432
215 0 91.3632 11.9851 1095 102.888 1182.59 455.559
216 1 47.102 10.9337 515 99.3942 1184.31 479.01
217 0 48.1828 10.3979 501 101.078 1184.23 477.681
218 0 50.0993 12.7147 637 97.8399 1183.98 476.504
219 0 50.1075 12.3734 620 98.7242 1182.01 477.729
220 0 52.0534 11.3729 592 99.3581 1181.62 479.157
221 0 52.0265 11.2443 585 101.277 1182.76 477.971
222 0 55.0783 10.4397 575 102.73 1182.26 475.504
223 0 57.0401 13.0435 744 97.3333 1182.05 476.406
224 0 59.0628 12.6814 749 98.6248 1182.56 475.266
225 0 60.0574 12.2716 737 100.091 1182.5 475.665
226 0 62.0697 12.3249 765 100.682 1183.1 474.146
227 0 62.0552 12.2149 758 103.028 1183.12 472.731
228 0 65.0706 11.6181 756 104.573 1182.66 472.171
229 0 65.1303 12.0374 784 104.777 1183.11 471.054
230 0 70.1134 11.1676 783 106.402 1183.11 470.622
231 0 72.1047 12.6483 912 102.98 1182.94 468.743
232 0 73.1485 12.085 884 105.673 1182.99 469.242
233 0 74.1528 11.773 873 114.449 1183.35 467.365
234 0 76.1531 12.7769 973 113.012 1183.47 462.859
235 0 80.2453 12.0007 963 114.702 1183.73 463.806
236 0 83.1419 12.0998 1006 113.414 1182.8 464.614
237 0 86.1598 13.3705 1152 113.611 1183.69 461.916
238 0 88.1574 12.1941 1075 115.659 1183.27 461.964
239 0 93.2245 12.3036 1147 115.974 1183.73 459.237
240 0 93.1445 11.509 1072 120.358 1182.88 456.198
241 0 98.1348 12.6561 1242 116.986 1182.9 454.494
242 1 48.0092 12.1227 582 107.938 1183.72 478.625
243 0 51.0982 12.8185 655 106.618 1182.37 479.501
244 0 49.0388 12.378 607 114.323 1181.51 478.273
245 0 53.0382 13.1226 696 111.457 1181.59 478.796
246 0 52.0453 11.9511 622 115.99 1181.82 477.18
247 0 57.1025 12.5213 715 112.12 1182.58 477.337
248 0 58.0627 13.9332 809 110.499 1182 474.508
249 0 59.0633 12.0041 709 115.764 1182.04 474.884
250 0 62.1479 14.5942 907 110.008 1182.24 472.24
251 0 63.053 13.0049 820 114.8 1182.42 470.304
252 0 67.1322 13.1382 882 113.368 1182.24 469.808
253 0 68.0959 13.0111 886 115.049 1181.76 469.516
254 0 68.0959 13.0551 889 144.613 1181.76 469.575
255 0 71.095 13.3765 951 116.166 1182.27 466.664
256 0 73.085 14.1342 1033 113.59 1181.45 463.826
257 0 74.1474 12.138 900 120.449 1181.67 464.024
258 0 77.1663 13.4256 1036 115.772 1182.14 463.185
259 0 79.1255 13.2574 1049 116.353 1182.05 459.297
260 0 84.152 13.1191 1104 115.004 1182.66 459.356
261 0 83.115 11.7428 976 119.65 1182.52 457.684
262 0 86.0563 12.0967 1041 120.108 1182.46 455.893
263 0 90.0794 12.8664 1159 118.102 1182.23 454.154
264 0 95.0746 12.7268 1210 117.442 1182.42 454.109
265 0 97.1402 12.065 1172 118.951 1182.43 449.16
266 1 48.026 9.18254 441 112.902 1182.2 474.243
267 0 50.0336 10.7128 536 110.646 1183.01 471.935
268 0 53.0653 12.1548 645 109.478 1182.21 474.719
269 0 55.0397 12.5727 692 108.224 1182.23 475.473
270 0 56.0785 11.4661 643 112.23 1183.44 475.776
271 0 61.0591 11.6608 712 109.558 1183.36 475.235
272 0 59.0485 11.4143 674 111.547 1184.04 476.249
273 0 64.0566 12.5046 801 105.678 1183.74 473.251
274 0 63.0665 11.7812 743 108.754 1183 471.131
275 0 66.1079 12.056 797 109.63 1183.38 473.127
276 0 67.133 12.4678 837 109.164 1183.13 471.584
277 0 72.1575 12.6252 911 106.72 1182.25 467.482
278 0 73.1065 12.4202 908 108.24 1182.79 468.267
279 0 76.1272 12.2033 929 108.075 1183 468.198
280 0 78.0781 11.8599 926 110.172 1182.67 466.26
281 0 82.1022 13.4345 1103 106.189 1182.78 465.303
282 0 82.1047 12.2283 1004 109.935 1182.36 461.374
283 0 87.1838 13.787 1202 106.495 1183.37 461.686
284 0 92.1369 13.252 1221 114.428 1182.07 460.068
285 0 94.1851 12.0826 1138 117.243 1182.15 459.396
286 0 96.151 12.3556 1188 117.455 1182.47 457.278
287 0 99.2251 12.1239 1203 118.205 1182.58 454.387
288 0 105.223 12.6303 1329 116.102 1181.79 454.195
289 1 55.0668 12.4576 686 112.359 1181.5 475.302
290 0 58.0867 12.6535 735 111.167 1182.03 475.08
291 0 60.0623 13.0531 784 109.254 1181.81 474.045
292 0 63.0505 12.7358 803 110.979 1181.55 474.53
293 0 63.0179 12.5361 790 112.611 1181.16 472.594
294 0 66.0601 12.534 828 111.176 1180.6 472.077
295 0 66.1065 11.9958 793 113.52 1180.56 469.605
296 0 69.0462 14.0051 967 107.501 1181.53 470.166
297 0 74.0818 12.0003 889 111.906 1181.19 469.91
298 0 73.121 11.6109 849 114.306 1181.84 468.011
299 0 75.1366 11.5257 866 113.207 1180.37 465.513
300 0 76.2007 12.6771 966 111.562 1180.32 462.43
301 0 81.1238 12.672 1028 110.87 1180.02 460.919
302 0 83.0781 11.3748 945 115.719 1181.88 460.567
303 0 88.125 12.0397 1061 112.531 1181.89 460.126
304 0 90.1389 11.6154 1047 113.885 1182.1 459.284
305 1 48.0893 11.2083 539 107.592 1183.09 479.429
306 0 49.1148 12.0941 594 100.131 1182.83 478.912
307 0 50.0531 11.0682 554 101.776 1182.8 478.987
308 0 52.0492 11.7773 613 107.232 1183.43 478.471
309 0 53.0512 10.6312 564 110.227 1182.92 479.19
310 0 56.1478 12.6274 709 107.207 1183.19 476.044
311 0 57.0443 13.5859 775 104.964 1183.65 476.377
312 0 57.0713 12.8436 733 107.667 1183.92 474.64
313 0 61.0741 12.8205 783 106.909 1184.19 473.909
314 0 62.1061 12.8168 796 106.541 1183.71 473.891
315 0 62.0697 11.9382 741 110.459 1183.75 472.659
316 0 66.0704 12.4564 823 108.75 1184.26 471.492
317 0 67.0936 13.7867 925 106.484 1183.38 470.468
318 0 68.0448 13.4029 912 107.896 1183.4 469.88
319 0 72.0997 12.6908 915 109.291 1183.56 468.704
320 0 74.0996 13.9002 1030 106.084 1183.77 468.202
321 0 77.1018 13.774 1062 105.9 1183.81 465.823
322 0 79.0873 13.7949 1091 105.954 1183.35 465.422
323 0 81.0892 14.1326 1146 104.976 1183.1 462.695
324 0 83.376 14.2727 1190 105.75 1182.6 462.221
325 0 87.1338 12.9226 1126 108.175 1182.42 462.147
326 0 89.1201 13.4762 1201 105.726 1181.93 461.881
327 1 46.0654 10.9627 505 104.438 1182.59 481.968
328 0 48.2021 11.3688 548 103.175 1182.77 482.055
329 0 50.1908 12.2134 613 100.008 1183.28 479.785
330 0 50.1481 11.9247 598 102.079 1183.5 481.172
331 0 51.1023 12.0543 616 103.479 1184.18 477.981
332 0 55.0326 12.4653 686 99.809 1183.72 479.297
333 0 54.0231 11.5506 624 102.53 1183.38 477.885
334 0 56.0669 12.6456 709 100.062 1184.14 477.044
335 0 59.1774 12.7751 756 98.6164 1183.01 475.501
336 0 58.0966 11.2915 656 102.415 1184.34 475.421
337 0 60.0781 11.1022 667 102.814 1184.09 473.75
338 0 64.0705 12.7204 815 97.9755 1183.53 473.767
339 0 65.1115 11.8873 774 100.782 1184.02 470.832
340 0 68.0467 12.8294 873 98.4318 1184.17 471.699
341 0 68.0589 11.3872 775 102.209 1183.62 468.975
342 0 71.0797 12.8869 916 98.5862 1183.89 468.569
343 0 75.1612 14.2228 1069 96.3012 1182.87 467.993
344 0 76.1878 13.0073 991 99.554 1182.95 465.564
345 0 77.1238 11.6047 895 102.229 1184.55 464.056
346 0 80.214 13.3393 1070 99.1336 1183.66 463.779
347 0 84.2764 12.0674 1017 101.4 1183.61 463.601
348 0 85.1929 12.2898 1047 101.664 1184.17 460.889
349 0 88.1038 10.8622 957 104.379 1184.15 461.186
350 0 92.1371 12.6659 1167 100.611 1184 460.26
351 0 96.249 11.3975 1097 102.854 1183.76 457.901
352 1 48.1046 10.103 486 100.088 1184.7 480.29
353 0 49.1555 10.3956 511 98.0744 1184.25 481.718
354 0 52.0272 12.9548 674 93.0119 1183.11 478.973
355 0 54.0563 11.451 619 96.6074 1182.29 479.036
356 0 55.0891 12.3073 678 96.1372 1182.89 478.544
357 0 56.0784 12.2685 688 97.064 1182.16 477.336
358 0 58.1639 10.5736 615 106.641 1182.66 475.715
359 0 60.09 11.2165 674 106.669 1182.71 474.49
360 0 65.1016 12.396 807 103.584 1182.67 473.473
361 0 66.0837 12.6506 836 103.22 1182.23 472.586
362 0 68.0713 12.6191 859 101.971 1182.38 472.696
363 0 69.0835 12.7237 879 100.997 1183.01 469.466
364 0 70.147 12.1602 853 105.565 1182.95 469.858
365 0 75.0846 12.5725 944 103.068 1182.33 470.462
366 0 77.1248 13.2253 1020 101.986 1183.48 469.573
367 0 79.1835 12.8057 1014 104.083 1183.1 467.532
368 0 82.1642 13.1201 1078 105.084 1183.45 462.833
369 0 84.1288 11.9935 1009 108.89 1182.83 460.269
370 1 45.126 11.9665 540 105.174 1184.02 479.77
371 0 47.168 11.5968 547 106.406 1183.89 479.651
372 0 51.1642 11.6097 594 105.475 1183.5 480.724
373 0 52.0262 12.1093 630 104.552 1182.27 480.827
374 0 53.0359 12.3313 654 103.706 1182.26 481.02
375 0 54.016 12.9776 701 104.123 1184.14 478.87
376 0 57.0457 13.1474 750 102.876 1184.04 478.668
377 0 58.0877 12.55 729 105.167 1184.31 475.528
378 0 60.0215 12.5122 751 105.17 1183.36 478.534
379 0 59.0733 11.4096 674 109.856 1183.08 476.78
380 0 61.0572 12.5129 764 108.007 1182.95 475.7
381 0 64.0386 12.7267 815 107.607 1182.84 474.526
382 0 64.0684 12.5959 807 108.133 1182.74 474.893
383 0 67.0719 12.4046 832 109.391 1183.63 473.26
384 0 70.0438 14.391 1008 104.492 1183.26 472.502
385 0 72.0844 13.7755 993 107.076 1183.83 469.945
386 0 75.0538 13.4703 1011 107.565 1182.97 469.229
387 0 78.0265 15.059 1175 103.902 1183.54 468.217
388 0 79.081 13.6442 1079 108.178 1183.8 469.057
389 0 83.1029 12.7673 1061 110.059 1183.57 466.515
390 0 86.101 13.4958 1162 109.775 1182.39 463.946
391 1 43.0398 12.4303 535 110.559 1184.04 485.464
392 0 43.0347 11.6418 501 110.912 1182.88 486.834
393 0 45.0641 11.9385 538 111.117 1182.18 484.089
394 0 45.0559 11.9629 539 111.853 1182.99 483.312
395 0 47.123 11.2259 529 112.535 1183.34 484.214
396 0 52.0678 13.4824 702 105.628 1183.83 482.473
397 0 52.0221 13.8018 718 106.407 1183.65 480.428
398 0 53.0323 13.8406 734 105.783 1183.33 479.98
399 0 55.1237 14.0412 774 105.013 1184.47 479.177
400 0 54.0692 12.4285 672 109.951 1184.25 477.952
401 0 57.1244 11.9739 684 111.072 1183.72 478.145
402 0 59.0871 11.8808 702 111.167 1183.76 477.066
403 0 60.0731 12.7178 764 108.609 1183.48 476.645
404 0 64.0634 13.5023 865 105.808 1182.99 475.712
405 0 63.0935 12.0932 763 111.271 1183.38 472.976
406 0 65.0463 12.8678 837 109.268 1183.82 472.702
407 0 68.1491 13.3824 912 107.917 1182.99 472.475
408 0 69.0316 11.5165 795 111.747 1183.34 472.364
409 0 72.1837 12.4266 897 109.511 1183.18 468.736
410 0 77.0482 13.4202 1034 105.819 1183.83 467.635
411 0 78.0837 12.3073 961 108.879 1183.39 467.38
412 0 81.2347 11.4483 930 110.198 1182.88 466.251
413 0 85.144 13.1072 1116 106.318 1183.07 464.089
414 0 86.1325 12.3182 1061 108.293 1183.65 462.815
415 0 90.1667 12.2773 1107 109.43 1182.79 460.539
416 1 45.1169 11.3705 513 110.581 1183.53 482.283
417 0 46.0728 11.981 552 104.15 1184.16 482.261
418 0 48.0126 11.4137 548 103.25 1184.49 481.392
419 0 48.0316 11.6798 561 103.335 1184.29 482.572
420 0 51.1842 14.0668 720 97.9153 1184.48 480.321
421 0 51.085 11.3341 579 104.411 1183.78 479.741
422 0 53.0602 11.3268 601 104.679 1184.6 479.26
423 0 56.1048 12.4588 699 102.657 1184.26 477.279
424 0 57.077 12.7547 728 103.172 1184.4 477.332
425 0 61.0487 12.187 744 103.516 1183.96 476.923
426 0 60.0708 11.836 711 106.437 1184.06 476.913
427 0 64.1016 12.1994 782 105.437 1184.14 474.35
428 0 65.0465 13.1752 857 104.12 1184.04 474.804
429 0 67.0823 13.4014 899 103.716 1184.29 470.547
430 0 68.0888 12.3368 840 109.119 1184.61 471.95
431 0 70.0414 12.3927 868 110.403 1184.72 472.305
432 0 71.0537 11.8924 845 111.619 1183.45 472.215
433 0 74.0538 13.0716 968 110.195 1183.56 469.54
434 0 76.0739 13.7761 1048 109.44 1183.93 469.771
435 0 78.0776 13.4994 1054 111.651 1184.26 466.417
436 0 82.0837 13.8395 1136 110.224 1184.2 465.705
437 0 85.1906 11.4214 973 111.374 1183.78 459.669
438 0 89.1353 13.2383 1180 112.238 1183.98 463.155
439 0 91.0958 12.8985 1175 112.192 1184.21 462.719
440 0 94.1112 12.6977 1195 113.421 1183.41 459.969
441 0 99.0801 12.8684 1275 112.822 1183.75 458.057
442 1 52.0364 12.203 635 108.101 1184.1 480.776
443 0 54.0495 13.3951 724 105.298 1184.55 480.05
444 0 55.0744 12.4922 688 107.799 1184 479.362
445 0 57.0601 12.0399 687 111.709 1182.39 478.67
446 0 58.0473 11.5595 671 112.45 1182.36 478.003
447 0 61.1161 12.5008 764 109.257 1182.49 476.175
448 0 64.1084 13.0872 839 107.368 1183.01 474.977
449 0 64.0774 12.5317 803 109.207 1182.71 472.537
450 0 67.099 11.3116 759 109.289 1183.21 475.44
451 0 71.16 11.4531 815 108.396 1183.45 471.702
452 0 73.1121 12.6928 928 105.028 1182.51 469.645
453 0 75.2352 12.9328 973 105.068 1183.67 467.852
454 0 79.2596 12.2887 974 104.726 1183.66 467.094
455 0 79.3072 11.5752 918 106.846 1183.66 465.688
456 0 82.4353 12.4219 1024 104.658 1183.61 461.543
457 0 85.1753 12.1397 1034 102.951 1183.5 465.214
458 1 41.0807 10.4672 430 103.36 1183.28 484.946
459 0 42.0607 11.4596 482 102.039 1182.71 483.84
460 0 43.0637 11.1231 479 103.374 1182.28 482.962
461 0 44.0767 11.3439 500 102.162 1182.92 482.504
462 0 44.0767 11.2758 497 124.376 1183.92 482.477
463 0 49.065 11.2911 554 101.253 1182.65 480.251
464 0 51.1594 12.9008 660 97.9182 1182.96 479.956
465 0 52.2003 11.839 618 99.7945 1182.58 480.17
466 0 52.1353 13.1581 686 98.1997 1183.13 479.085
467 0 55.183 13.4281 741 95.9892 1182.61 478.576
468 0 55.086 12.1083 667 99.6357 1182.58 476.612
469 0 57.1095 15.2164 869 93.2037 1182.11 475.497
470 0 58.1111 12.7342 740 97.4716 1182.24 477.407
471 0 61.1692 12.1793 745 97.7893 1182.75 476.013
472 0 62.1107 11.6405 723 99.971 1182.2 471.606
473 0 61.1733 11.3939 697 98.1291 1182.82 473.132
474 0 68.2228 13.0162 888 93.2545 1183.02 473.4
475 0 66.1351 10.2517 678 100.726 1183.07 470.006
476 0 71.2215 10.7833 768 98.4596 1183.07 470.783
477 0 73.2693 12.0514 883 98.06 1182.69 467.226
478 0 75.2492 12.5716 946 96.4165 1182.83 465.814
479 0 78.1691 12.1531 950 97.2337 1183.08 465.375
480 1 40.2683 9.7347 392 96.4158 1182.4 483.033
481 0 41.3124 11.2073 463 93.1296 1182.12 480.706
482 0 43.1159 11.8286 510 96.4588 1181.77 483.641
483 0 42.0107 10.6878 449 97.3296 1182.8 482.212
484 0 44.1258 11.1726 493 96.4138 1182.46 483.3
485 0 46.0542 11.443 527 95.9488 1182.04 484.594
486 0 48.0402 11.3863 547 96.819 1181.84 482.728
487 0 48.0818 13.0611 628 95.379 1182.68 480.925
488 0 49.059 10.151 498 100.811 1182.45 481.131
489 0 51.0652 11.6126 593 98.5767 1182.78 481.202
490 0 54.0632 13.6322 737 95.1628 1182.25 479.411
491 0 56.1464 12.3605 694 98.0303 1182.72 477.673
492 0 54.0508 10.7491 581 103.699 1182.61 478.379
493 0 57.1305 13.4079 766 98.6697 1182.77 477.542
494 0 60.1784 12.7787 769 99.6515 1182.54 476.585
495 0 61.1602 12.3283 754 101.804 1182.84 476.003
496 0 63.1411 12.1474 767 102.442 1182.58 473.462
497 0 66.1337 12.384 819 101.816 1182.54 474.072
498 0 68.0746 11.7812 802 103.89 1182.11 473.292
499 0 71.2221 11.6256 828 104.492 1183.06 471.768
500 0 74.249 12.3369 916 106.299 1183.41 471.118
501 0 76.1918 13.7154 1045 107.315 1183.87 467.528
502 0 80.2414 13.2849 1066 108.098 1183.39 468.317
503 1 42.2875 11.0671 468 108.504 1183.93 485.171
504 0 42.3502 9.98814 423 111.496 1184.76 483.799
505 0 44.0531 11.3953 502 102.996 1183.26 482.122
506 0 46.112 11.7757 543 94.5396 1184.41 481.11
507 0 46.0118 12.1708 560 101.586 1185.07 484.307
508 0 47.0465 13.1572 619 99.958 1184.89 484.147
509 0 49.0405 13.2136 648 99.3997 1184.66 482.495
510 0 49.0168 11.4654 562 104.409 1184.52 483.429
511 0 51.0347 10.9729 560 105.902 1184.52 482.188
512 0 51.0262 11.7391 599 106.242 1184.39 480.786
513 0 50.0636 11.046 553 107.689 1183.9 482.011
514 0 55.033 12.5379 690 104.086 1184.64 480.752
515 0 53.0918 11.3954 605 108.808 1184.05 479.689
516 0 55.0343 11.938 657 107.782 1183.35 477.237
517 0 57.1072 12.1176 692 107.847 1184.11 476.358
518 0 59.0294 11.7907 696 106.966 1183.58 476.862
519 0 61.0593 12.3159 752 105.698 1183.47 476.488
520 0 65.0671 12.8636 837 103.892 1183.9 473.995
521 0 68.0885 11.7935 803 105.628 1183.22 474.375
522 0 68.084 12.7489 868 104.713 1182.74 470.13
523 0 72.065 12.3361 889 104.595 1184.08 471.36
524 0 73.1619 12.2878 899 104.674 1183.45 471.76
525 0 75.1359 13.2693 997 103.913 1183.57 468.007
526 0 78.1217 12.3013 961 105.469 1183.51 467.952
527 0 80.0622 10.929 875 107.773 1182.37 467.789
528 0 85.2072 12.8628 1096 102.896 1183.16 461.32
529 0 84.0721 11.3236 952 106.509 1183.12 464.231
530 1 47.0826 11.3418 534 105.12 1184.24 482.968
531 0 45.0688 10.8057 487 106.737 1184.01 482.581
532 0 51.1722 11.3343 580 104.095 1183.96 481.797
533 0 50.0784 12.141 608 104.22 1184.1 479.977
534 0 52.1 13.4549 701 101.504 1183.64 480.874
535 0 52.0206 12.1106 630 106.135 1184.14 480.633
536 0 53.074 13.1138 696 103.977 1183.82 479.44
537 0 58.018 12.8753 747 103.703 1184.28 478.916
538 0 55.0365 12.2101 672 108.455 1184.39 476.626
539 0 58.0378 12.4574 723 108.906 1182.83 476.286
540 0 59.0355 12.3485 729 109.005 1182.84 476.032
541 0 62.0423 11.6856 725 110.724 1182.64 475.978
542 0 64.0364 13.2581 849 108.594 1182.76 471.914
543 0 67.1038 13.5164 907 109.227 1182.51 472.257
544 0 70.0651 13.6587 957 109.632 1182.05 470.649
545 0 72.1022 13.5502 977 111.456 1182.73 470.055
546 0 73.1009 13.7208 1003 111.949 1181.97 470.863
547 0 74.0721 11.6508 863 118.626 1182.5 468.637
548 0 78.0584 13.3234 1040 114.569 1182.49 466.086
549 0 82.0448 13.0417 1070 114.894 1183.77 466.286
550 0 84.0702 12.7037 1068 116.589 1183.41 463.335
551 1 45.0216 11.439 515 117.268 1182.61 483.631
552 0 49.0863 11.2047 550 113.831 1183.25 483.036
553 0 48.0235 12.2023 586 112.794 1182.99 482.959
554 0 51.0303 12.3064 628 112.814 1182.83 481.295
555 0 52.0316 12.5885 655 114.537 1181.93 480.099
556 0 54.0212 12.31 665 116.567 1183.29 479.669
557 0 55.1031 13.3386 735 114.288 1183.07 480.058
558 0 57.0442 12.9724 740 116.193 1182.93 478.873
559 0 57.0805 12.5612 717 118.333 1182.68 477.98
560 0 62.0687 13.7106 851 113.66 1183.87 475.824
561 0 63.0894 13.8692 875 114.447 1183.43 474.715
562 0 66.1376 14.0011 926 113.247 1182.47 473.289
563 0 67.0816 12.4922 838 117.421 1182.83 473.381
564 0 70.1054 14.6494 1027 112.342 1183.03 471.939
565 0 72.0644 13.9181 1003 115.013 1182.64 470.168
566 0 75.1704 14.5137 1091 113.296 1182.62 468.787
567 0 77.042 13.0059 1002 116.955 1182.08 467.124
568 0 80.079 14.1985 1137 114.082 1183.18 465.449
569 0 83.0386 13.7767 1144 114.426 1182.28 464.911
570 0 83.0581 13.7494 1142 116.44 1182.62 462.988
571 0 87.0825 15.0202 1308 112.664 1182.54 462.801
572 0 91.0921 15.0287 1369 112.218 1182.95 461.433
573 0 93.1389 14.5589 1356 114.346 1182.9 457.825
574 0 95.0825 14.0089 1332 117.005 1183.17 456.848
575 0 98.1411 14.2244 1396 115.362 1183.53 457.481
576 0 102.061 14.8147 1512 112.966 1183.46 453.519
577 0 106.074 14.3485 1522 114.026 1182.79 449.211
578 1 55.074 11.4755 632 113.571 1182.7 476.134
579 0 59.0597 13.3086 786 108.822 1183.05 475.877
580 0 61.0528 13.4474 821 108.454 1183.48 478.004
581 0 61.0294 13.7802 841 110.111 1183.08 474.933
582 0 63.0723 12.2716 774 113.642 1183.16 475.413
583 0 67.0269 13.9795 937 109.072 1183.11 475.372
584 0 69.16 12.8832 891 109.396 1184.59 473.784
585 0 72.0466 13.4774 971 109.245 1184 470.881
586 0 73.0812 12.9171 944 111.328 1184.43 469.877
587 0 77.1182 13.4858 1040 109.563 1184.58 468.622
588 0 79.156 13.126 1039 109.82 1183.83 469.584
589 0 81.1362 13.2124 1072 111.181 1184.7 467.258
590 0 84.0605 12.8955 1084 113.129 1183.62 463.293
591 0 88.0687 13.0921 1153 112.328 1183.76 463.661
592 0 91.0514 14.2776 1300 109.191 1183.19 463.075
593 0 93.1428 14.1503 1318 110.356 1183.38 460.188
594 0 95.0853 13.2092 1256 120.256 1183.1 457.502
595 0 100.135 13.8612 1388 118.238 1182.44 457.262
596 0 102.135 13.5899 1388 119.447 1183.06 455.232
597 0 105.105 14.1383 1486 118.221 1182.36 455.464
598 0 111.162 14.3934 1600 118.119 1182.7 452.505
599 1 59.0846 12.1182 716 117.761 1184.32 476.56
600 0 60.0765 11.4687 689 119.065 1184.74 476.135
601 0 61.0277 12.2567 748 115.964 1184.4 475.007
602 0 63.1113 11.6778 737 114.714 1182.2 476.133
603 0 66.1164 12.0242 795 114.679 1181.57 472.903
604 0 68.0615 11.8275 805 116.039 1182.55 472.206
605 0 73.0999 13.2011 965 111.995 1183.31 472.878
606 0 73.1347 13.2085 966 114.138 1182.59 472.476
607 0 77.1009 14.1503 1091 112.075 1182.19 471.644
608 0 80.0436 13.6176 1090 115.128 1182.44 467.902
609 0 82.0725 13.4637 1105 116.722 1182.75 465.893
610 0 86.0584 13.4327 1156 115.907 1181.73 466.592
611 0 89.0627 13.2491 1180 118.081 1182.3 465.156
612 0 92.0748 14.1841 1306 116.488 1182.63 461.505
613 0 97.0729 14.1028 1369 122.893 1181.61 461.253
614 1 52.0554 12.3714 644 118.71 1182.54 482.776
615 0 54.1698 12.7931 693 118.938 1183.18 481.978
616 0 55.1167 12.7185 701 110.787 1184.6 482.91
617 0 56.0713 11.0038 617 116.039 1184.43 482.817
618 0 55.0439 11.0821 610 117.357 1184.34 483.039
619 0 56.0725 11.0036 617 118.585 1184.09 480.504
620 0 61.0806 11.7877 720 115.581 1184.12 480.579
621 0 63.0701 11.844 747 115.519 1184.97 479.614
622 0 64.1681 12.3426 792 114.087 1184.24 478.405
623 0 65.0518 11.9751 779 116.87 1184.97 475.615
624 0 69.074 12.3925 856 114.686 1184.07 474.364
625 0 71.0625 11.7362 834 115.856 1184.37 474.498
626 0 72.1186 12.1883 879 115.638 1184.5 473.688
627 0 75.1077 11.7431 882 117.375 1184.17 471.963
628 0 77.1022 12.7363 982 115.811 1184.14 471.597
629 0 81.083 12.4934 1013 116.856 1183.99 468.862
630 0 83.1199 13.4264 1116 113.805 1184.12 468.194
631 0 85.0909 11.4818 977 116.392 1182.93 466.565
632 0 88.072 12.8077 1128 116.486 1183.56 465.118
633 0 92.0995 13.4963 1243 114.136 1183.77 461.272
634 0 93.2194 11.8967 1109 118.74 1183.11 460.871
635 1 55.1068 11.4868 633 114.204 1183.23 482.772
636 0 57.0765 10.7049 611 117.668 1184.56 482.489
637 0 57.0308 11.2045 639 119.603 1184.73 479.133
638 0 59.267 12.7896 758 115.727 1183.09 477.389
639 0 62.1157 12.1708 756 116.365 1184.32 479.013
640 0 65.1656 13.366 871 113.049 1184.63 477.29
641 0 63.1256 11.5642 730 120.581 1183.4 476.484
642 0 68.1617 12.0302 820 117.995 1183.5 476.348
643 0 69.1768 12.2151 845 118.75 1183 475.935
644 0 73.1891 13.0347 954 116.247 1183.86 473.536
645 0 74.1866 13.156 976 116.552 1183.12 471.686
646 0 77.2286 13.0263 1006 116.621 1183.01 470.728
647 0 78.1705 12.2809 960 119.07 1183.32 470.312
648 0 82.2278 13.4869 1109 116.418 1183.29 467.968
649 0 84.1656 12.5229 1054 119.391 1182.3 465.934
650 0 87.228 12.1865 1063 123.082 1182.32 466.89
651 0 91.1832 13.4893 1230 118.156 1182.42 462.628
652 0 94.1595 12.7125 1197 119.823 1182.54 461.24
653 0 96.2066 14.2298 1369 88.2578 1183.38 463.989
654 1 48.265 12.2863 593 119.086 1183.9 482.39
655 0 50.0867 12.5981 631 118.089 1183.73 481.401
656 0 52.0844 12.4413 648 113.785 1184.36 482.633
657 0 54.076 12.1865 659 113.7 1183.9 483.181
658 0 54.0665 12.1702 658 113.392 1183.14 482.62
659 0 57.1668 10.8979 623 116.721 1183.12 481.856
660 0 57.0255 11.8017 673 114.16 1183.13 479.712
661 0 59.0677 12.4095 733 114.123 1183.23 479.379
662 0 61.1197 12.2546 749 115.243 1182.67 477.554
663 0 65.1328 12.3133 802 113.32 1182.59 478.534
664 0 67.1488 12.5989 846 111.726 1183.41 476.234
665 0 67.0336 11.8746 796 114.22 1182.61 475.925
666 0 70.08 12.2289 857 82.3489 1183.17 476.813
667 0 70.1264 12.2208 857 114.62 1182.56 473.222
668 0 73.053 12.7031 928 112.901 1182.62 473.587
669 0 77.1128 13.396 1033 111.498 1183.21 471.977
670 0 76.1679 12.5906 959 115.518 1182.62 473.483
671 0 78.0589 12.2087 953 118.084 1182.78 470.635
672 0 82.1259 13.4915 1108 114.347 1182.81 467.653
673 0 86.1346 13.2119 1138 114.703 1182.72 466.892
674 0 89.1217 12.9037 1150 115.991 1182.63 466.433
675 0 91.1633 12.9987 1185 121.57 1183.33 464.973
676 0 95.2536 15.3065 1458 111.429 1182.96 462.208
677 0 98.1367 13.5831 1333 117.419 1182.71 460
678 1 50.0761 12.3412 618 116.147 1183.17 484.604
679 0 50.0892 11.5594 579 119.872 1183.25 484.199
680 0 53.1458 11.7977 627 120.769 1182.69 481.472
681 0 58.095 14.0115 814 83.2936 1182.14 477.459
682 0 57.135 13.0043 743 124.039 1182.24 480.743
683 0 56.133 12.5951 707 126.628 1182.87 480.014
684 0 59.1918 13.7688 815 122.867 1182.51 478.028
685 0 61.1842 12.1273 742 126.077 1182.8 476.775
686 0 64.0462 12.0694 773 117.827 1182.32 478.054
687 0 66.0729 12.8797 851 116.089 1183.27 477.076
688 0 68.1027 13.3475 909 114.889 1182.54 476.976
689 0 67.0686 12.6587 849 118.522 1182.39 474.525
690 0 71.0959 13.3763 951 117.588 1182.59 471.749
691 0 72.1789 12.9955 938 119.313 1183.04 471.884
692 0 75.0989 12.7565 958 120.411 1182.72 472.263
693 0 77.0837 13.6475 1052 120.928 1182.96 468.046
694 0 82.0916 13.1682 1081 120.972 1182.82 468.565
695 0 84.1878 12.8522 1082 121.744 1182.87 467.587
696 0 87.1697 13.7089 1195 119.069 1182.46 462.543
697 0 91.3838 13.0986 1197 120.765 1182.31 462.588
698 0 94.1672 13.4017 1262 121.712 1182.64 458.418
699 0 100.334 13.6744 1372 119.015 1182.43 455.956
700 0 102.364 12.2797 1257 122.569 1182.71 452.881
701 0 106.45 12.8417 1367 120.444 1183.35 453.776
702 0 110.369 12.5941 1390 118.763 1183.12 452.374
703 1 59.0892 11.288 667 119.471 1182.62 475.955
704 0 60.0926 12.3476 742 114.306 1182.98 476.468
705 0 64.0515 12.6773 812 114.266 1183.03 474.898
706 0 64.0775 11.5953 743 118.157 1182.08 473.662
707 0 68.0952 11.2049 763 118.138 1182.68 473.394
708 0 68.1509 12.1202 826 117.384 1182.59 469.912
709 0 72.1758 12.7189 918 115.345 1181.95 468.479
710 0 74.1569 11.5701 858 118.598 1181.98 467.901
711 0 77.3567 12.2032 944 118.196 1182.34 462.613
712 0 80.4191 11.7136 942 117.846 1182.03 463.811
713 0 84.3742 12.3023 1038 117.87 1182 459.847
714 0 84.2974 11.8984 1003 120.175 1183.02 457.642
715 0 91.2517 12.8765 1175 115.591 1182.21 457.677
716 0 93.3796 12.0904 1129 118.451 1181.71 456.089
717 1 45.2008 11.4821 519 111.091 1182.3 479.274
718 0 47.2921 11.6087 549 111.293 1181.47 478.146
719 0 50.2191 11.9676 601 109.491 1182.07 478.198
720 0 50.1431 12.0854 606 110.493 1182.38 479.191
721 0 52.1221 12.087 630 111.027 1182.91 479.54
722 0 56.0786 11.4125 640 113.219 1182.9 480.128
723 0 57.0956 12.05 688 110.938 1183.7 478.276
724 0 57.0438 12.2362 698 111.318 1183.19 477.319
725 0 58.2088 12.8159 746 109.361 1182.69 476.188
726 0 59.1748 11.4914 680 114.249 1182.72 472.943
727 0 64.2476 12.374 795 111.021 1183.49 469.013
728 0 66.1591 12.1979 807 112.731 1183.42 467.586
729 0 68.175 12.7026 866 112.022 1183.44 467.906
730 0 70.3904 11.1521 785 114.755 1183.83 468.268
731 0 74.2983 12.3421 917 112.947 1183.8 466.088
732 0 76.2984 11.3502 866 116.343 1183.25 463.723
733 0 79.3412 11.6459 924 116.141 1183.49 461.302
734 0 81.1845 11.8126 959 117.48 1183.16 460.086
735 0 86.3614 12.2856 1061 115.239 1183.4 461.596
736 0 90.3365 12.6195 1140 114.945 1182.73 459.128
737 0 91.2695 11.1647 1019 119.215 1182.98 458.26
738 1 46.1966 9.50286 439 110.868 1183.89 481.367
739 0 48.1422 11.0921 534 109.064 1183.42 478.024
740 0 49.0818 11.0835 544 108.689 1181.97 482.487
741 0 52.1314 12.9097 673 103.462 1182.74 482.828
742 0 52.0593 10.1807 530 111.074 1182.22 480.428
743 0 54.0893 11.0743 599 108.861 1182.35 480.292
744 0 57.1246 12.2189 698 106.076 1182.83 479.798
745 0 57.2088 11.6765 668 108.367 1183.18 478.301
746 0 60.027 10.7452 645 109.026 1183.22 476.532
747 0 60.1544 10.9053 656 108.724 1182.8 476.953
748 0 64.0641 12.347 791 104.159 1181.87 474.253
749 0 66.2341 11.1423 738 103.615 1182.75 470.813
750 0 67.1469 10.544 708 107.874 1182.81 471.507
751 0 69.1326 9.92297 686 108.706 1183.17 472.085
752 0 71.1877 11.5891 825 105.474 1183.18 470.895
753 0 75.1992 10.8645 817 105.001 1183.15 465.269
754 0 77.0872 11.4546 883 105.975 1183.42 465.692
755 0 80.1321 12.2548 982 104.348 1182.6 463.488
756 0 85.1574 12.9055 1099 102.035 1183.51 463.559
757 1 42.0248 11.0411 464 97.8362 1183.85 484.506
758 0 42.0321 9.27862 390 100.754 1183.31 485.9
759 0 44.1571 9.94178 439 97.5831 1184.38 485.308
760 0 45.3592 10.1192 459 97.6253 1183.69 485.227
761 0 47.0762 9.15537 431 99.3736 1183.82 484.118
762 0 48.075 9.79719 471 98.4904 1183.41 482.741
763 0 50.0878 10.262 514 96.5428 1183.47 482.549
764 0 51.0536 10.0287 512 97.5625 1183.39 481.709
765 0 52.0808 10.3685 540 96.5759 1183.45 481.45
766 0 53.0601 9.12173 484 98.7603 1183.33 482.128
767 0 54.2162 9.72034 527 97.2125 1183.41 481.689
768 0 56.0935 9.85854 553 97.9476 1183.22 480.454
769 0 56.0399 9.17204 514 101.486 1183.53 477.72
770 0 59.0341 10.4855 619 97.8352 1182.72 477.055
771 0 62.042 12.7333 790 94.743 1182.79 475.248
772 0 61.1292 9.70076 593 101.946 1183.35 475.245
773 0 64.2117 10.2162 656 101.675 1183.67 470.544
774 0 67.094 10.7014 718 101.624 1183.18 473.301
775 0 69.1339 11.4416 791 101.2 1182.71 472.053
776 0 70.1284 11.1795 784 101.894 1183.07 469.791
777 0 72.0943 10.4863 756 105.242 1183.25 471
778 0 74.096 11.1072 823 105.526 1183.52 466.327
779 0 75.1052 9.97268 749 110.08 1183.09 467.003
780 0 79.0808 10.9255 864 108.142 1183.26 465.681
781 0 82.0839 12.073 991 107.009 1183.26 464.906
782 0 83.1348 10.5251 875 111.778 1183.06 465.128
783 0 85.1638 9.81638 836 114.006 1183.11 463.011
784 0 88.1028 11.8838 1047 110.527 1183.25 461.436
785 0 93.0961 11.2035 1043 112.797 1183.67 460.426
786 0 95.0719 12.7062 1208 110.537 1183.94 458.675
787 0 99.1063 12.4614 1235 110.981 1182.56 458.308
788 0 103.159 13.0866 1350 109.081 1183.43 458.556
789 1 54.0864 10.927 591 109.42 1183.58 481.134
790 0 56.12 11.5289 647 107.185 1183.98 480.192
791 0 56.0515 11.7214 657 106.848 1182.61 481.062
792 0 57.0867 11.0534 631 111.555 1182.87 478.574
793 0 59.0534 11.1425 658 119.813 1181.66 474.798
794 0 62.1187 11.317 703 118.923 1182.07 474.906
795 0 65.1184 11.7478 765 116.765 1183.28 476.069
796 0 67.1532 13.834 929 112.464 1182.62 474.158
797 0 66.1924 11.8443 784 119.659 1182.78 469.903
798 0 70.2175 12.0198 844 118.203 1182.65 470.841
799 0 71.1886 11.912 848 119.67 1182.68 470.967
800 0 72.1442 10.5622 762 114.361 1183.71 472.916
801 0 77.11 11.6846 901 113.29 1183.79 468.852
802 0 78.1265 10.3422 808 117.261 1183.79 470.006
803 0 81.1053 12.1447 985 113.819 1184.12 464.625
804 0 83.1318 11.8607 986 114.57 1184.1 464.336
805 0 87.1086 11.2503 980 116.031 1183.13 464.132
806 0 90.0955 12.4201 1119 113.481 1182.69 462.527
807 0 94.129 12.3554 1163 113.561 1182.87 460.221
808 0 97.1668 12.8851 1252 111.812 1182.33 460.747
809 0 100.174 12.3784 1240 114.634 1183.32 456.425
810 0 106.173 13.6569 1450 111.26 1182.38 455.046
811 0 109.231 13.7232 1499 110.016 1183.44 452.66
812 1 68.3411 11.823 808 114.365 1182.97 472.312
813 0 69.2056 10.4182 721 117.031 1182.31 473.313
814 0 71.2337 11.8624 845 113.244 1183.1 470.97
815 0 73.1259 11.5554 845 105.742 1183.26 470.865
816 0 76.1773 13.4161 1022 100.592 1183.51 465.978
817 0 79.2045 11.5524 915 105.185 1183.28 468.278
818 0 81.1055 13.0817 1061 104.017 1182.8 465.157
819 0 85.1532 11.8375 1008 111.964 1183.24 464.719
820 0 87.2249 11.6824 1019 111.14 1182.89 465.675
821 0 89.1913 11.5931 1034 107.353 1183.14 463.207
822 0 91.1438 11.6409 1061 113.365 1183.27 459.386
823 0 96.1867 12.6629 1218 105.871 1183.68 457.896
824 0 99.1672 11.3546 1126 109.893 1182.96 456.855
825 0 101.146 10.2229 1034 111.277 1183.85 458.724
826 0 102.11 10.4495 1067 114.183 1183.04 453.873
827 1 51.0191 9.83946 502 107.49 1183.85 481.554
828 0 55.1005 10.5625 582 103.66 1184.87 480.125
829 0 56.059 12.1657 682 100.742 1183.73 480.249
830 0 57.0581 11.4971 656 102.442 1181.76 476.494
831 0 61.0438 11.7784 719 100.387 1182.89 477.363
832 0 63.145 11.2756 712 101.871 1182.49 474.67
833 0 64.1015 12.293 788 99.6777 1184.07 472.443
834 0 66.0493 12.1425 802 101.464 1182.92 473.298
835 0 68.0745 11.9722 815 101.152 1183.89 472.977
836 0 69.1438 11.2808 780 102.133 1183.61 470.419
837 0 70.0899 10.7576 754 103.131 1183.12 472.109
838 0 74.0769 12.6895 940 100.226 1182.72 468.756
839 0 78.1047 13.3283 1041 97.7291 1183.34 469.665
840 0 79.0887 12.2394 968 101.469 1183.98 466.17
841 0 83.0926 13.1901 1096 98.4234 1183.2 465.38
842 0 86.1063 11.7761 1014 101.756 1183.57 466.228
843 0 87.2 11.5826 1010 104.18 1183.3 463.392
844 0 90.0848 12.6436 1139 101.725 1182.98 461.002
845 0 94.1177 11.9319 1123 102.798 1182.59 462.581
846 0 95.1718 11.9783 1140 102.568 1182.1 461.732
847 0 100.138 11.4641 1148 103.865 1182.38 459.361
848 1 53.084 11.4347 607 101.936 1183.07 480.308
849 0 54.1319 11.5459 625 100.722 1180.26 478.742
850 0 54.0505 10.6752 577 102.003 1181.29 478.631
851 0 55.0557 11.0434 608 101.898 1180.86 477.817
852 0 58.0817 12.3963 720 99.4875 1181 477.715
853 0 61.086 12.2287 747 99.7858 1181.01 476.746
854 0 63.0727 11.9862 756 99.914 1181.11 475.455
855 0 65.0935 11.4604 746 101.985 1180.55 474.991
856 0 66.114 13.0683 864 98.8322 1181.2 474.935
857 0 67.0966 12.5938 845 101.65 1181.21 472.112
858 0 70.062 12.3462 865 102.454 1181.02 471.157
859 0 73.0852 12.2733 897 102.507 1180.78 468.217
860 0 76.0522 12.3205 937 103.497 1180.84 467.231
861 0 77.0466 11.24 866 106.627 1182.84 469.386
862 0 81.0691 11.7184 950 104.823 1183.46 468.098
863 0 85.095 14.2076 1209 98.1448 1182.53 467.216
864 0 86.1102 12.2634 1056 104.387 1182.84 466.121
865 1 45.031 11.6142 523 107.268 1183.55 484.109
866 0 48.065 12.3375 593 104.371 1182.55 484.776
867 0 49.0786 12.4698 612 103.351 1183.84 483.4
868 0 48.056 12.0901 581 108.699 1182.95 481.74
869 0 47.0717 10.4946 494 113.913 1183.98 482.229
870 0 49.0559 10.0701 494 114.585 1183.05 483.729
871 0 51.042 12.5387 640 109.981 1183.19 481.598
872 0 55.0943 12.4151 684 109.042 1183.2 481.14
873 0 56.1484 12.6451 710 109.287 1183.33 479.739
874 0 57.0679 11.425 652 112.791 1184.28 479.897
875 0 60.0663 11.8536 712 111.708 1183.76 478.249
876 0 59.0279 11.7402 693 114.124 1184.04 477.098
877 0 60.0262 11.8948 714 114.508 1183.55 475.151
878 0 65.0693 12.9247 841 109.834 1183.92 476.316
879 0 65.1801 11.9822 781 114.091 1182.67 473.042
880 0 68.0852 11.6765 795 113.776 1183.32 474.67
881 0 69.0906 11.5356 797 115.275 1183.04 471.452
882 0 74.058 11.7205 868 114.291 1182.7 471.547
883 0 77.0853 12.8299 989 112.248 1182.49 467.294
884 0 80.1021 13.3704 1071 110.761 1183.33 466.414
885 1 38.0466 10.7237 408 117.767 1183.52 485.5
886 0 40.0474 10.3627 415 153.345 1182.52 485.248
887 0 45.1229 11.79 532 111.44 1180.45 483.887
888 0 44.0398 11.7394 517 110.754 1181.31 482.876
889 0 46.0451 12.7049 585 108.665 1180.52 483.496
890 0 47.1155 12.3739 583 109.472 1180.79 483.209
891 0 48.0614 13.4828 648 107.54 1181.75 483.168
892 0 50.0754 12.0818 605 110.043 1181.86 481.536
893 0 53.0656 14.2654 757 103.345 1181.64 481.791
894 0 53.0643 13.3235 707 106.925 1181.87 481.194
895 0 55.108 15.3154 844 102.82 1182.06 479.642
896 0 56.046 14.2562 799 105.82 1182 479.617
897 0 58.1069 12.9761 754 109.694 1181.91 477.491
898 0 59.0445 14.3112 845 107.542 1181.89 475.795
899 0 61.1261 13.6767 836 108.048 1181.71 477.276
900 0 62.2046 13.9861 870 108.655 1181.62 474.275
901 0 64.1158 13.616 873 110.253 1181.9 474.37
902 0 66.1737 14.2806 945 108.365 1181.93 474.756
903 0 67.0566 13.7645 923 111.563 1181.89 472.701
904 0 69.1098 12.8636 889 113.39 1182.28 473.262
905 0 73.0918 13.1205 959 112.484 1182.26 470.718
906 0 74.0598 12.6654 938 114.541 1182.15 469.455
907 0 78.1974 13.9263 1089 110.657 1182.02 468.649
908 0 81.044 13.795 1118 111.927 1182.11 467.032
909 0 83.0835 13.9378 1158 110.953 1182.15 466.883
910 0 86.1568 13.5683 1169 111.951 1182.99 464.345
911 0 89.1858 13.8139 1232 112.653 1182.64 461.412
912 1 44.0473 12.1233 534 110.365 1181.92 485.545
913 0 44.0645 11.2335 495 105.737 1181.28 483.366
914 0 45.0879 13.0634 589 105.122 1181.73 481.657
915 0 47.1172 13.2011 622 106.035 1182.15 482.141
916 0 49.0666 12.6359 620 106.46 1181.44 482.035
917 0 50.058 14.1236 707 104.298 1181.4 480.113
918 0 51.0938 12.4477 636 108.275 1181.03 480.167
919 0 55.1064 12.8116 706 105.773 1181.83 479.663
920 0 57.0645 13.6512 779 104.29 1181 477.919
921 0 57.0381 13.4121 765 105.859 1181.56 475.844
922 0 59.1302 13.225 782 106.519 1181.87 474.322
923 0 62.1684 13.3026 827 105.179 1181.79 475.091
924 0 64.0627 12.3785 793 106.707 1181.55 474.29
925 0 65.0428 14.0677 915 104.151 1181.89 472.519
926 0 67.0428 13.5138 906 105.657 1180.77 471.368
927 0 68.0648 11.6653 794 109.981 1180.96 471.848
928 0 71.102 14.2612 1014 104.052 1181.54 471.115
929 0 72.0714 12.5015 901 108.515 1181.9 468.737
930 0 76.1599 13.8393 1054 105.122 1181.54 466.959
931 0 77.1313 12.3296 951 109.819 1181.21 465.094
932 0 81.0966 13.5024 1095 105.595 1181.08 463.921
933 0 83.0579 14.4718 1202 104.419 1181.68 461.423
934 0 86.0782 13.1508 1132 106.957 1181.58 460.178
935 0 88.059 13.1616 1159 107.558 1181.61 460.264
936 1 46.0239 10.3424 476 107.567 1182.35 478.931
937 0 46.0247 9.69045 446 106.339 1182.86 472.98
938 0 46.1055 11.3219 522 104.375 1182.66 471.408
939 0 51.0707 10.3386 528 100.197 1182.97 474.79
940 0 55.0325 11.6295 640 103.558 1183.42 478.116
941 0 54.0832 11.9631 647 104.27 1183.1 475.312
942 0 59.0731 11.9174 704 102.891 1182.76 475.594
943 0 61.0467 12.0236 734 102.619 1182.85 475.162
944 0 62.1437 13.1791 819 102.176 1182.94 472.153
945 0 64.0723 12.3454 791 103.135 1182.82 472.56
946 0 66.0586 12.4586 823 102.772 1182.7 472.07
947 0 68.1877 11.571 789 104.631 1183.18 469.715
948 0 73.1645 13.2305 968 100.364 1182.96 467.006
949 0 75.2016 12.4199 934 103.286 1183.28 465.331
950 0 76.0904 12.5377 954 103.836 1182.84 464.889
951 0 80.0743 12.4884 1000 103.753 1182.86 466.167
952 0 82.1066 11.9479 981 105.563 1182.75 463.653
953 0 85.1151 12.7357 1084 111.175 1182.03 463.031
954 1 44.0899 10.2064 450 106.469 1182.67 484.144
955 0 43.0517 10.4293 449 105.889 1182.53 483.332
956 0 44.0444 11.8063 520 103.046 1183.77 480.923
957 0 48.1018 11.4757 552 100.226 1183.14 482.688
958 0 48.0258 11.827 568 100.706 1182.93 481.891
959 0 49.1207 11.6651 573 102.361 1182.98 479.129
960 0 51.1181 12.7743 653 101.161 1180.98 479.881
961 0 52.0731 11.8487 617 103.462 1180.95 481.047
962 0 54.0475 11.1939 605 106.929 1180.5 479.57
963 0 56.1069 12.6009 707 104.502 1180.79 477.652
964 0 58.1212 12.0782 702 106.383 1181.56 477.349
965 0 58.0688 13.2257 768 104.34 1181.13 475.4
966 0 62.1155 12.7504 792 104.504 1181.23 476.234
967 0 63.1292 13.0843 826 105.568 1181.2 475.289
968 0 65.0825 13.3216 867 106.328 1180.9 473.042
969 0 67.0801 11.9559 802 109.439 1180.85 473.358
970 0 69.0767 12.1459 839 110.16 1181.68 470.257
971 0 70.0835 10.8014 757 113.559 1180.46 470.518
972 0 75.1445 13.5073 1015 106.646 1180.71 469.375
973 0 78.0895 12.2936 960 110.588 1181.9 466.918
974 1 42.0201 10.7806 453 113.616 1183.4 482.74
975 0 44.0938 12.6775 559 108.41 1182.95 484.957
976 0 44.0372 11.3086 498 106.102 1181.36 484.014
977 0 46.0584 11.7894 543 104.888 1181.52 482.284
978 0 48.1073 11.5783 557 105.898 1182.36 483.217
979 0 49.0803 11.5321 566 106.767 1181.83 481.694
980 0 49.0629 13.1056 643 104.754 1182.23 481.289
981 0 51.1035 12.2888 628 106.669 1181.77 481.549
982 0 53.0815 13.2061 701 105.394 1182.61 479.742
983 0 54.0558 11.4881 621 111.767 1181.4 479.409
984 0 56.1053 10.6764 599 111.741 1181.86 482.073
985 0 57.0777 12.7195 726 109.107 1181.57 479.208
986 0 58.057 11.7988 685 111.178 1182.12 477.023
987 0 61.0458 12.5643 767 106.214 1182.11 477.4
988 0 62.1239 11.6219 722 109.485 1182.03 478.176
989 0 63.0356 11.2476 709 111.157 1182.43 475.068
990 0 67.0655 12.3909 831 107.773 1182.52 473.327
991 0 69.0523 12.4833 862 108.189 1182.69 470.52
992 0 72.0265 12.301 886 108.679 1182.6 471.029
993 1 145.321 14.1067 2050 111.615 1183.1 435.119
994 1 77.1676 12.7515 984 108.69 1182.01 465.687
995 0 80.0604 12.1158 970 109.723 1182.4 467.239
996 0 81.0759 12.2231 991 109.796 1182.54 463.769
997 1 48.0321 11.4299 549 111.186 1182.68 483.408
998 0 50.0319 12.6719 634 108.397 1183.36 482.292
999 0 49.0166 11.1595 547 114.413 1183.28 480.872
1000 0 53.0467 12.1026 642 116.291 1183.9 480.307
1001 0 55.0712 12.7108 700 116.069 1182.36 478.343
1002 0 57.1802 12.312 704 116.643 1182.18 478.22
1003 0 58.1607 12.5342 729 116.845 1182.21 477.278
1004 0 60.0413 14.2568 856 112.611 1181.64 475.529
1005 0 62.1417 12.9704 806 115.831 1182.36 475.82
1006 0 64.1897 13.9275 894 113.796 1182.01 474.115
1007 0 65.0724 13.4312 874 115.257 1182.12 471.132
1008 0 69.0789 14.8236 1024 110.937 1181.45 471.373
1009 0 71.2925 13.8865 990 113.082 1182.92 470.805
1010 0 72.1137 13.4094 967 113.938 1181.27 470.646
1011 0 75.158 13.5581 1019 114.265 1181.59 467.933
1012 0 77.185 13.3834 1033 113.748 1181.32 468.335
1013 0 80.1441 12.6896 1017 114.989 1181.85 465.938
1014 0 82.2547 13.9323 1146 112.729 1181.38 462.222
1015 0 87.3326 13.1337 1147 114.034 1182.01 464.122
1016 0 89.3477 13.8224 1235 110.982 1181.4 461.328
1017 0 91.1192 12.5769 1146 106.993 1182.45 461.027
1018 1 47.1302 11.882 560 106.739 1182.37 483.552
1019 0 48.1612 11.4407 551 107.688 1183.11 483.419
1020 0 49.0955 12.6692 622 106.711 1182.8 481.096
1021 0 52.0605 12.5431 653 106.628 1183.06 480.677
1022 0 53.0377 13.0096 690 105.565 1182.63 479.858
1023 0 55.0552 12.7508 702 107.07 1182.35 479.205
1024 0 56.0871 12.8907 723 106.452 1182.37 479.501
1025 0 57.0602 11.2513 642 109.441 1183.19 478.835
1026 0 59.1515 12.4595 737 107.757 1182.46 475.885
1027 0 62.0186 12.3189 764 105.497 1182.77 475.247
1028 0 64.0289 11.6354 745 106.721 1182.51 476.274
1029 0 66.0848 12.8169 847 100.738 1182.31 471.451
1030 0 68.0748 12.8682 876 100.369 1182.44 470.47
1031 0 70.1245 12.8201 899 101.218 1183 468.25
1032 0 73.1038 11.8325 865 103.054 1183.43 468.318
1033 0 77.055 13.6396 1051 102.311 1182.97 468.961
1034 0 79.1495 13.0513 1033 105.08 1183.13 467.372
1035 0 81.2283 13.3451 1084 105.863 1182.52 467.034
1036 0 82.2104 11.203 921 110.87 1182.7 466.797
1037 0 85.1228 12.7698 1087 111.005 1182.87 462.007
1038 1 45.0264 12.0596 543 111.6 1183.33 483.389
1039 0 49.1699 12.2433 602 110.233 1183.13 481.468
1040 0 48.0411 12.3852 595 111.938 1182.59 480.097
1041 0 50.0547 12.786 640 110 1183.57 480.944
1042 0 51.0965 13.2103 675 108.157 1182.96 480.69
1043 0 51.1582 12.8034 655 110.203 1183.26 479.905
1044 0 53.1092 13.0486 693 110.501 1182.81 479.789
1045 0 55.0721 12.529 690 111.51 1183.27 479.017
1046 0 57.0548 13.5133 771 110.048 1182.88 477.086
1047 0 58.0774 12.6211 733 113.855 1183.49 476.206
1048 0 58.0733 12.7081 738 114.851 1183.1 475.091
1049 0 64.0374 12.7894 819 111.358 1183.32 476.116
1050 0 64.0361 13.836 886 111.08 1183.09 473.848
1051 0 64.0361 13.8984 890 137.919 1183.09 473.772
1052 0 68.1088 14.3887 980 110.649 1182.65 471.838
1053 0 71.1102 14.5408 1034 110.035 1182.88 470.993
1054 0 73.0369 14.1025 1030 111.039 1182.77 471.441
1055 0 76.1024 14.9141 1135 109.784 1182.75 468.433
1056 0 79.0812 13.8086 1092 111.838 1182.64 466.528
1057 0 80.0776 13.1622 1054 114.205 1182.73 465.816
1058 0 82.129 13.0405 1071 114.752 1182.39 464.998
1059 0 86.11 12.7627 1099 115.611 1182.56 463.443
1060 0 88.1132 13.8799 1223 113.508 1182.83 461.969
1061 0 92.117 15.0244 1384 111.24 1182.31 457.949
1062 0 93.0626 13.4426 1251 113.958 1181.79 456.794
1063 1 53.0406 12.0285 638 112.693 1181.83 475.677
1064 0 52.143 12.2931 641 111.161 1182.59 472.817
1065 0 56.1369 13.6452 766 105.654 1181.84 471.501
1066 0 56.0452 12.5078 701 104.696 1182.22 475.053
1067 0 58.0096 12.2221 709 106.252 1182.38 472.413
1068 0 59.0935 13.521 799 104.593 1182.55 470.716
1069 0 62.0686 12.9051 801 105.538 1182.61 471.356
1070 0 62.0541 12.618 783 107.368 1182.29 469.839
1071 0 66.0866 14.1784 937 104.25 1183.12 469.134
1072 0 69.0878 13.6638 944 105.692 1182.47 471.371
1073 0 70.055 12.6472 886 109.537 1182.4 470.094
1074 0 74.2448 14.5061 1077 104.997 1182.4 467.677
1075 0 75.0984 13.4757 1012 111.987 1181.78 470.076
1076 0 76.0322 12.1791 926 116.294 1182.04 469.91
1077 0 81.1523 13.4439 1091 109.184 1181.56 466.368
1078 0 84.0566 13.5623 1140 112.486 1181.94 467.151
1079 0 87.1104 12.6965 1106 114.544 1182.44 466.47
1080 0 89.1004 13.0527 1163 114.592 1182.76 464.349
1081 1 42.0895 10.7153 451 119.408 1181.92 486.33
1082 0 43.1543 11.007 475 113.432 1182.01 477.427
1083 0 45.027 12.2149 550 114.851 1182.25 480.295
1084 0 47.072 12.5127 589 113.489 1181.12 484.832
1085 0 51.0496 12.9286 660 109.63 1181.88 483.595
1086 0 50.053 11.9873 600 113.445 1181.96 484.088
1087 0 53.0589 12.8536 682 111.144 1182.01 482.575
1088 0 53.1056 11.5242 612 113.471 1181.49 478.208
1089 0 55.0625 11.7866 649 114.869 1182.18 481.451
1090 0 58.0545 12.4538 723 111.909 1182.48 480.115
1091 0 59.0436 13.5662 801 110.792 1182.21 476.301
1092 0 61.0535 12.6283 771 113.131 1181.96 475.315
1093 0 64.0289 12.6193 808 112.309 1181.18 476.168
1094 0 66.0649 12.6391 835 112.407 1181.2 475.293
1095 0 70.102 13.3805 938 109.565 1181.04 473.083
1096 0 72.102 14.0773 1015 108.38 1181.92 472.136
1097 0 73.0488 13.3883 978 111.045 1181.98 470.185
1098 0 76.0473 12.5054 951 111.984 1182.26 471.35
1099 0 80.0914 13.8592 1110 109.658 1182.38 468.549
1100 0 82.056 13.7102 1125 110.113 1182.17 465.96
1101 0 87.2484 14.7854 1290 105.465 1182.38 462.225
1102 0 88.0747 14.8851 1311 105.999 1181.67 461.232
1103 0 90.1209 13.493 1216 111.679 1181.86 460.644
1104 0 92.1066 12.9198 1190 116.828 1181.08 460.59
1105 0 95.0953 13.1868 1254 116.053 1181.72 458.737
1106 1 51.1748 11.4705 587 112.567 1182.12 482.365
1107 0 52.1136 12.6263 658 111.112 1182.09 480.52
1108 0 56.0941 13.3882 751 108.943 1182.13 478.322
1109 0 56.0212 13.3699 749 110.076 1182.46 478.681
1110 0 59.0792 12.8472 759 110.401 1182.42 478.36
1111 0 60.133 13.1708 792 110.713 1181.65 476.117
1112 0 62.0964 13.2214 821 110.571 1182.07 474.787
1113 0 66.1096 13.402 886 109.393 1181.94 473.598
1114 0 70.1621 13.6113 955 107.591 1182.12 472.724
1115 0 69.1702 12.7801 884 111.098 1182.29 472.958
1116 0 73.0425 13.1978 964 109.784 1181.5 471.018
1117 0 76.046 14.912 1134 105.062 1181.67 467.979
1118 0 78.0462 13.7867 1076 109.002 1181.72 467.285
1119 0 82.1171 13.9435 1145 107.893 1182.23 467.72
1120 0 83.1872 11.7686 979 114.573 1181.72 466.105
1121 0 85.2124 12.3104 1049 114.941 1181.92 466.48
1122 0 88.123 11.8584 1045 118.038 1181.79 463.261
1123 0 92.1813 12.1608 1121 117.431 1181.6 461.439
1124 0 96.1483 12.0335 1157 117.605 1181.42 459.91
1125 0 99.1457 13.5054 1339 114.571 1181.46 459.002
1126 1 48.0475 10.2399 492 115.026 1181.21 482.154
1127 0 52.0471 11.7201 610 110.2 1180.88 480.69
1128 0 51.0649 10.9077 557 107.28 1181.14 479.061
1129 0 55.1673 11.9274 658 105.409 1181.21 479.457
1130 0 56.0884 11.7671 660 106.527 1180.94 478.048
1131 0 59.0686 13.1373 776 103.485 1180.88 476.626
1132 0 60.0861 12.1992 733 104.705 1180.98 475.381
1133 0 60.075 11.6854 702 107.597 1181.01 475.516
1134 0 65.0773 12.2316 796 104.143 1180.87 473.97
1135 0 67.0624 13.1221 880 104.197 1181.62 473.473
1136 0 68.2223 12.1221 827 114.469 1181.35 471.505
1137 0 70.096 12.3688 867 106.226 1181.44 467.751
1138 0 73.0426 11.7055 855 106.193 1181.77 467.492
1139 0 72.2339 10.5491 762 108.661 1182.72 465.492
1140 0 76.0599 11.8985 905 108.506 1183.22 463.177
1141 0 81.2579 11.4943 934 109.736 1183.46 463.262
1142 0 83.3202 11.1738 931 111.131 1183.24 461.214
1143 0 85.3963 10.3869 887 112.21 1182.67 461.213
1144 0 88.1536 11.4006 1005 110.336 1182.8 460.465
1145 0 93.1075 12.9313 1204 105.945 1181.92 459.901
1146 1 47.0156 10.89 512 103.559 1182.19 482.295
1147 0 47.0587 10.71 504 107.22 1182.52 481.905
1148 0 51.0806 11.6483 595 106.906 1182.5 480.613
1149 0 54.0544 12.8574 695 105.447 1182.52 479.308
1150 0 54.034 11.9184 644 108.578 1182.23 479.961
1151 0 56.0915 12.1944 684 107.611 1182.35 478.409
1152 0 58.1365 12.7287 740 107.042 1180.84 477.161
1153 0 60.145 12.2205 735 107.452 1180.49 475.456
1154 0 61.1364 12.7911 782 106.147 1180.35 474.744
1155 0 65.1498 12.6631 825 104.484 1179.99 474.503
1156 0 65.1153 12.3473 804 105.988 1180.81 474.47
1157 0 67.1269 11.8432 795 108.142 1179.95 471.274
1158 0 70.0716 11.9735 839 107.313 1180.08 470.676
1159 0 74.1159 12.7908 948 104.615 1180.08 468.599
1160 0 76.1003 12.996 989 105.946 1180.37 467.855
1161 0 77.0929 13.0881 1009 107.482 1179.93 466.929
1162 0 80.077 12.6503 1013 107.6 1180.08 467.249
1163 0 84.1553 12.0729 1016 109.28 1180.42 465.684
1164 0 86.1528 11.9787 1032 110.117 1180.38 463.083
1165 0 89.1251 12.8583 1146 108.147 1180.93 460.624
1166 1 46.0565 12.2458 564 103.954 1179.48 484.803
1167 0 46.0786 11.9361 550 105.418 1179.97 483.353
1168 0 46.068 10.2457 472 103.4 1180.57 484.525
1169 0 48.1881 11.2268 541 100.699 1179.79 483.652
1170 0 49.021 9.77131 479 95.7307 1180.69 482.1
1171 0 51.0769 9.37802 479 102.973 1180.97 481.946
1172 0 52.0513 11.1621 581 98.346 1180.62 482.439
1173 0 52.0513 11.2389 585 118.096 1180.63 482.424
1174 0 56.029 9.19166 515 100.353 1181.84 478.812
1175 0 57.0643 8.95481 511 99.0078 1181.65 479.125
1176 0 60.1025 10.1327 609 99.2808 1181.92 477.365
1177 0 61.0648 11.6761 713 97.0743 1182.47 474.537
1178 0 63.0374 10.121 638 99.7147 1182.21 476.038
1179 0 65.1697 10.1121 659 101.41 1181.33 473.46
1180 0 70.066 11.1038 778 99.2571 1181.43 472.864
1181 0 72.139 10.0085 722 103.066 1181.88 469.886
1182 0 75.1401 10.7666 809 101.593 1181.98 468.836
1183 0 81.0774 12.0749 979 101.588 1181.94 465.267
1184 0 82.0874 12.706 1043 104.1 1181.85 464.839
1185 1 43.2864 10.6269 460 100.465 1181.49 481.622
1186 0 44.0212 11.4263 503 102.581 1181.79 485.851
1187 0 45.1603 11.8024 533 102.021 1181.54 484.182
1188 0 46.193 10.9324 505 104.982 1181.69 483.121
1189 0 46.2081 10.6908 494 106.733 1182.02 481.686
1190 0 48.0636 9.82032 472 107.915 1181.13 483.172
1191 0 49.0202 11.5055 564 105.86 1181.34 482.142
1192 0 53.0827 11.2278 596 106.74 1181.34 479.777
1193 0 53.1672 10.608 564 109.28 1181.15 479.222
1194 0 54.2539 9.87948 536 110.517 1181.74 480.164
1195 0 58.1004 11.4629 666 108.586 1181.96 477.258
1196 0 58.1954 11.6848 680 109.784 1182.77 475.143
1197 0 60.1084 12.4442 748 109.122 1182.54 473.886
1198 0 64.1455 12.5028 802 108.17 1182.21 472.908
1199 0 65.1347 12.4358 810 109.728 1182.08 471.173
1200 0 67.1022 12.7716 857 110.41 1181.93 471.545
1201 0 69.1798 12.3591 855 112.166 1181.8 471.919
1202 0 72.1004 12.76 920 111.952 1182.15 468.277
1203 0 72.0862 11.7776 849 119.27 1181.84 466.985
1204 0 76.2652 12.7057 969 116.345 1181.03 467.91
1205 0 78.239 12.334 965 118.743 1180.78 465.416
1206 0 81.2776 12.3281 1002 118.742 1180.83 461.71
1207 0 84.1763 12.2362 1030 118.868 1180.56 461.346
1208 1 99.4519 15.9273 1584 100.773 1181.57 452.222
1209 0 99.3959 16.6003 1650 101.403 1181.21 451.91
1210 0 99.2358 15.1558 1504 108.033 1180.78 454.712
1211 1 49.1593 11.1474 548 114.993 1181.6 478.754
1212 0 50.1168 11.9122 597 112.998 1182.09 477.43
1213 0 52.0799 11.4056 594 113.478 1181.23 478.037
1214 0 57.0938 11.595 662 111.609 1181.7 478.128
1215 0 56.1501 13.2146 742 107.77 1181.36 477.507
1216 0 58.1051 11.6685 678 110.553 1181.62 475.199
1217 0 59.0877 10.4252 616 113.425 1182.16 475.672
1218 0 62.1083 12.607 783 108.811 1181.91 473.06
1219 0 64.0755 11.6113 744 111.332 1180.99 473.12
1220 0 66.0494 11.8396 782 111.258 1181.83 470.639
1221 0 67.2204 11.3954 766 112.399 1182.05 470.283
1222 0 71.1346 12.7083 904 109.447 1182.14 470.158
1223 0 71.0465 10.2609 729 115.689 1181.79 465.951
1224 0 71.0465 10.2327 727 130.732 1180.79 466.087
1225 0 77.151 12.2357 944 112.136 1182.32 464.843
1226 0 79.12 11.451 906 114.912 1182.16 465.991
1227 0 83.1574 12.6146 1049 112.506 1182.1 464.067
1228 0 85.0757 10.3672 882 117.286 1182 463.9
1229 0 90.2696 11.2773 1018 116.307 1182.14 460.83
1230 1 50.1664 11.7808 591 107.257 1181.81 482.386
1231 0 52.2288 11.9666 625 106.291 1182.15 482.304
1232 0 53.1794 12.204 649 107.356 1181.86 481.937
1233 0 53.2871 13.2302 705 108.776 1181.4 478.843
1234 0 54.1557 12.1871 660 104.786 1182.88 478.591
1235 0 57.0873 12.1568 694 104.122 1182.37 479.372
1236 0 58.0706 13.4836 783 102.621 1182.3 478.364
1237 0 59.1401 12.4112 734 105.222 1181.75 477.981
1238 0 60.0325 12.3266 740 105.686 1181.74 477.811
1239 0 62.0292 12.3974 769 105.662 1182.01 474.704
1240 0 64.1266 12.179 781 105.95 1181.3 474.467
1241 0 67.1156 12.1134 813 105.328 1181.67 475.207
1242 0 72.1867 12.1629 878 104.992 1181.85 471.747
1243 0 72.2326 13.6642 987 102.656 1181.5 469.274
1244 0 74.1125 12.7509 945 104.687 1181.48 469.054
1245 0 77.2257 12.5606 970 105.246 1181.47 465.841
1246 0 82.242 13.059 1074 102.899 1181.96 465.887
1247 0 84.2517 12.617 1063 104.738 1181.63 464.845
1248 0 87.2274 13.5049 1178 102.554 1181.93 461.711
1249 1 49.0679 10.6791 524 105.792 1181.71 482.739
1250 0 50.1887 10.0023 502 105.645 1181.38 478.514
1251 0 49.1564 10.314 507 107.426 1180.21 477.469
1252 0 52.048 10.6632 555 108.616 1180.25 476.324
1253 0 52.0206 10.9956 572 109.274 1180.59 475.769
1254 0 55.063 10.3155 568 113.044 1181.54 475.942
1255 0 58.0873 11.0523 642 118.132 1182.76 468.899
1256 0 60.1056 12.3283 741 114.984 1182.45 468.414
1257 0 61.0878 13.5215 826 112.298 1182.41 468.54
1258 0 63.0577 13.1626 830 112.693 1182.36 474.269
1259 0 62.096 11.3373 704 119.23 1182.5 471.435
1260 0 66.1153 12.2362 809 115.901 1182.17 471.81
1261 0 67.0616 12.3618 829 116.221 1181.97 470.468
1262 0 69.0703 11.9154 823 116.509 1181.95 470.459
1263 0 71.1422 12.3836 881 114.995 1182.52 469.422
1264 0 73.0795 12.4522 910 114.58 1182.71 468.215
1265 0 79.1401 12.4589 986 112.952 1181.97 466.703
1266 0 79.2141 11.9423 946 109.007 1182.13 466.459
1267 0 83.1752 12.9846 1080 107.566 1182.25 461.543
1268 0 84.1581 11.6447 980 111.285 1182.02 463.072
1269 0 86.129 10.8674 936 112.933 1181.91 460.402
1270 0 90.1077 12.1743 1097 109.418 1181.64 459.112
1271 0 93.1052 12.3409 1149 108.385 1181.62 457.995
1272 0 96.172 11.3547 1092 110.337 1181.97 456.256
1273 0 99.1158 11.6228 1152 109.762 1182.16 451.72
1274 0 100.121 10.2776 1029 111.731 1182.15 450.739
1275 0 107.162 11.7392 1258 106.502 1182.19 452.721
1276 1 55.0519 11.4437 630 103.552 1182.88 477.859
1277 0 58.1243 11.6819 679 103.063 1182.39 476.191
1278 0 59.1529 11.4618 678 100.476 1182.72 474.052
1279 0 61.0668 11.2172 685 100.755 1182.44 474.756
1280 0 65.1129 12.0867 787 98.7929 1181.66 471.84
1281 0 66.1928 11.9197 789 100.466 1182.55 470.308
1282 0 67.1492 10.8564 729 103.374 1182.26 470.857
1283 0 70.1085 12.3095 863 100.306 1182.76 469.603
1284 0 72.0861 11.8192 852 101.89 1182.37 467.893
1285 0 74.126 11.0892 822 103.493 1182.92 465.482
1286 0 78.0978 12.3947 968 101.084 1182.71 465.473
1287 0 80.0661 12.9518 1037 100.116 1182.33 464.997
1288 0 84.0747 11.8228 994 102.824 1182.64 461.743
1289 0 87.0803 11.9545 1041 102.974 1181.81 461.65
1290 0 90.1027 10.8987 982 105.662 1182.34 458.188
1291 0 93.1513 11.3901 1061 104.421 1182.2 457.016
1292 0 97.203 11.8618 1153 103.875 1181.7 453.513
1293 1 54.1118 10.7925 584 106.322 1182.75 478.401
1294 0 56.1776 12.2291 687 106.295 1181.52 474.159
1295 0 58.3184 12.3632 721 105.584 1181.85 472.828
1296 0 60.1465 11.7214 705 101.365 1180.31 472.443
1297 0 62.1902 11.7221 729 101.674 1180.38 470.989
1298 0 64.2124 12.3808 795 100.011 1179.73 471.185
1299 0 66.1869 12.9482 857 98.7503 1180.2 470.347
1300 0 67.1437 12.2573 823 100.649 1181.74 469.961
1301 0 69.1009 10.709 740 104.764 1182.56 471.178
1302 0 72.0749 11.7239 845 102.046 1181.87 467.71
1303 0 74.0413 10.5617 782 104.399 1182.04 466.809
1304 0 78.0792 13.1277 1025 98.7239 1182.61 464.285
1305 0 80.1559 12.1513 974 100.769 1182.42 463.826
1306 0 82.1155 11.6421 956 102.44 1181.74 459.059
1307 0 86.1095 11.4738 988 102.734 1181.81 460.223
1308 0 90.0916 12.8314 1156 99.436 1181.6 460.747
1309 0 91.1468 12.7816 1165 100.484 1180.43 460.731
1310 0 95.1467 12.9064 1228 101.085 1179.79 457.177
1311 0 96.1471 12.5121 1203 102.846 1180.13 456.159
1312 0 98.0966 12.0901 1186 104.413 1180.76 454.852
1313 0 102.317 11.5133 1178 105.436 1180.6 453.343
1314 0 107.171 12.3541 1324 103.888 1180.26 453.93
1315 0 110.099 12.5886 1386 104.789 1180.51 451.131
1316 0 112.191 11.3021 1268 109.191 1180.92 450.466
1317 0 115.098 12.5719 1447 107.921 1180.32 447.026
1318 0 120.095 13.2228 1588 107.616 1180.39 441.7
1319 0 125.139 13.1294 1643 107.73 1180.14 443.975
1320 0 130.164 12.2231 1591 109.431 1180.73 443.244
1321 0 133.17 13.2312 1762 110.831 1179.65 437.979
1322 0 138.24 12.5868 1740 112.995 1179.77 435.599
1323 0 143.285 13.2463 1898 111.185 1180.11 434.673
1324 0 149.277 13.8266 2064 110.492 1179.8 431.048
1325 0 152.318 13.741 2093 112.622 1179.73 430.791
1326 0 156.409 14.0018 2190 113.179 1180.12 428.472
1327 0 159.341 13.8131 2201 114.13 1179.9 425.612
1328 0 166.343 14.428 2400 111.719 1180.06 424.616
1329 0 170.375 14.8848 2536 111.03 1180.53 421.345
1330 1 89.1827 11.7063 1044 114.364 1180.66 461.664
1331 0 92.2796 12.8848 1189 112.069 1180.24 460.149
1332 0 97.0987 13.4399 1305 111.932 1180.84 456.474
1333 0 96.243 13.4244 1292 112.55 1180.06 458.042
1334 0 98.1305 12.8095 1257 114.928 1180.44 456.263
1335 0 103.129 12.6638 1306 115.073 1180.01 455.216
1336 0 104.195 12.659 1319 115.467 1180.02 454.085
1337 0 106.196 11.9213 1266 118.916 1180.33 451.338
1338 0 109.183 12.9325 1412 116.026 1180.32 449.325
1339 0 116.152 13.2929 1544 114.496 1179.39 446.62
1340 0 119.476 13.1742 1574 115.313 1180.36 446.755
1341 0 124.371 13.701 1704 113.837 1181.16 440.756
1342 1 50.2029 11.8917 597 107.626 1182.11 477.482
1343 0 52.3027 10.6878 559 110.215 1182.73 478.011
1344 0 56.1648 12.766 717 103.616 1182.56 477.986
1345 0 56.0435 11.6874 655 108.412 1183.24 475.933
1346 0 57.0797 12.2636 700 107.763 1182.84 475.589
1347 0 60.1183 12.6085 758 104.687 1182.85 475.393
1348 0 61.0741 11.5761 707 108.059 1184.08 475.158
1349 0 63.0986 12.9638 818 105.352 1183.47 473.555
1350 0 64.1119 11.7295 752 108.205 1182.57 473.185
1351 0 66.0852 12.5747 831 106.563 1183.42 471.486
1352 0 68.1274 12.8436 875 106.081 1183.24 471.337
1353 0 70.1209 12.6496 887 106.521 1183.26 469.142
1354 0 74.1831 12.4287 922 105.511 1183.24 467.836
1355 0 77.0657 13.0927 1009 103.582 1182.63 466.085
1356 1 41.0375 11.0631 454 101.172 1182.79 484.656
1357 0 40.0071 11.398 456 97.1908 1183.41 485.485
1358 0 42.0231 11.3271 476 94.0231 1183.08 484.958
1359 0 40.0369 10.815 433 98.0323 1183.12 483.984
1360 0 44.0385 11.2175 494 95.7389 1182.85 485.01
1361 0 46.0422 11.9021 548 94.1515 1182.89 483.341
1362 0 46.0414 10.9684 505 96.1129 1182.52 481.812
1363 0 47.0395 11.4585 539 96.3358 1182.24 480.388
1364 0 50.0918 12.1577 609 94.422 1182.4 480.038
1365 0 52.0216 12.5717 654 93.5963 1181.88 479.391
1366 0 54.0418 12.0092 649 95.3035 1182.7 479.766
1367 0 56.1039 13.1542 738 93.294 1182.69 478.589
1368 0 54.07 10.8933 589 100.604 1182.13 477.548
1369 0 61.0683 12.8053 782 94.3261 1181.91 476.884
1370 0 59.1399 12.2591 725 97.5228 1182.37 475.986
1371 0 62.047 10.895 676 101.257 1182.25 474.225
1372 0 65.0664 12.9406 842 96.8254 1182.14 473.15
1373 0 67.0367 13.1421 881 96.5789 1182.78 473.6
1374 0 68.0549 12.3724 842 99.1532 1182.33 471.828
1375 0 71.0787 12.5495 892 97.7489 1182.31 471.657
1376 0 74.0524 12.113 897 97.8774 1182.04 468.516
1377 0 77.1232 12.0975 933 98.1158 1182.29 469.31
1378 1 39.0673 10.162 397 102.562 1182.22 487.781
1379 0 40.0272 10.5428 422 98.5853 1182.13 486.095
1380 0 39.0368 10.5541 412 97.6359 1181.9 485.92
1381 0 42.0769 11.8117 497 94.6459 1182.11 484.089
1382 0 42.0109 10.7353 451 96.5122 1182.29 484.661
1383 0 42.06 10.3186 434 98.7972 1182.23 483.797
1384 0 46.0595 12.0496 555 93.3694 1182.83 480.78
1385 0 47.0483 11.4563 539 95.2839 1182.34 481.399
1386 0 47.0359 11.353 534 95.8652 1182.65 480.15
1387 0 50.0488 10.8094 541 96.9593 1182.67 479.035
1388 0 52.0704 12.195 635 93.3465 1183.18 480.31
1389 0 52.0949 12.0165 626 95.0559 1183.2 477.474
1390 0 54.1127 12.3631 669 94.006 1183.07 476.154
1391 0 57.155 12.1249 693 93.7316 1182.85 475.722
1392 0 56.059 12.362 693 94.811 1182.79 475.431
1393 0 56.1511 11.3444 637 98.3265 1182.65 475.02
1394 0 59.0752 11.7308 693 96.658 1182.36 473.853
1395 0 60.0858 11.2339 675 98.2578 1182.59 470.744
1396 0 64.0914 11.2964 724 97.4917 1182.34 470.547
1397 0 64.0728 10.8002 692 99.909 1182.17 469.464
1398 0 68.0962 12.1593 828 95.9988 1182.51 469.615
1399 0 71.2 11.5169 820 97.3159 1182.22 465.935
1400 0 73.1894 11.0808 811 98.9618 1182.4 465.349
1401 0 75.0939 11.0262 828 100.022 1182.48 464.849
1402 0 77.1049 11.2314 866 101.005 1181.91 462.933
1403 0 81.1444 11.5473 937 99.7321 1182.37 466.513
1404 0 82.1768 11.8038 970 100.711 1181.54 461.766
1405 0 91.154 14.6785 1338 92.3423 1181.84 455.774
1406 0 94.2114 13.5971 1281 96.0164 1182.03 456.372
1407 1 46.0334 10.7748 496 103.776 1182.14 479.302
1408 0 49.0594 10.579 519 103.214 1182.82 478.387
1409 0 50.1043 12.1347 608 99.5543 1181.89 477.569
1410 0 52.0665 11.6774 608 100.998 1181.37 477.75
1411 0 52.0842 11.8078 615 101.722 1181.76 475.476
1412 0 54.1443 11.7095 634 101.397 1182.12 476.066
1413 0 56.0729 11.6812 655 102.933 1181.56 473.879
1414 0 58.1541 11.6071 675 103.79 1180.91 472.351
1415 0 59.1459 12.6805 750 101.864 1181.38 473.472
1416 0 61.1398 11.1711 683 102.59 1181.53 472.52
1417 0 63.1229 13.2915 839 99.1061 1182.19 470.774
1418 0 65.0864 11.3234 737 103.194 1181.59 468.767
1419 0 68.1065 12.8622 876 99.8276 1181.43 468.326
1420 0 71.0639 12.6787 901 100.05 1181.32 469.397
1421 0 72.1404 12.545 905 102.502 1180.85 465.877
1422 0 74.1484 12.1243 899 103.065 1181.54 468.375
1423 0 77.0927 12.4785 962 102.207 1181.73 466.05
1424 0 75.0738 11.2023 841 106.65 1181.18 462.675
1425 0 80.1335 12.7787 1024 102.362 1182 461.914
1426 0 80.1233 11.5447 925 105.932 1182.78 461.288
1427 0 86.1116 12.7973 1102 102.247 1181.63 462.709
1428 0 86.137 11.5978 999 106.36 1182.54 458.148
1429 0 93.0944 14.6196 1361 98.2961 1182.41 457.079
1430 0 93.0877 13.4819 1255 102.757 1182.41 453.977
1431 0 95.2008 11.4075 1086 108.096 1182.45 456.6
1432 0 96.0951 11.6967 1124 108.93 1182.14 451.76
1433 0 102.187 12.2912 1256 106.971 1181.64 450.541
1434 0 103.162 11.322 1168 110.143 1181.77 448.886
1435 0 108.165 12.786 1383 107.328 1181.78 446.669
1436 0 109.151 12.4598 1360 108.883 1181.42 444.051
1437 0 114.153 11.3094 1291 111.277 1181.1 442.672
1438 0 119.165 12.4869 1488 108.05 1181.6 442.88
1439 0 120.148 12.7259 1529 109.083 1181.24 439.605
1440 0 125.177 13.405 1678 108.552 1181.57 435.293
1441 0 128.112 11.4821 1471 112.572 1181.77 435.869
1442 0 135.161 12.5332 1694 109.586 1181.31 435.945
1443 0 139.331 12.0361 1677 112.113 1181.81 430.893
1444 0 142.271 11.7241 1668 113.571 1181.11 427.614
1445 0 149.353 12.6813 1894 111.264 1181.36 424.265
1446 1 75.1133 9.51896 715 110.628 1181.86 463.255
1447 0 81.25 11.8646 964 104.553 1180.48 459.629
1448 0 83.1748 12.1431 1010 103.392 1179.74 456.793
1449 0 85.1015 10.7989 919 106.917 1179.39 457.295
1450 0 89.1015 11.414 1017 105.981 1179.93 454.608
1451 0 92.1622 11.8161 1089 105.406 1179.85 453.217
1452 0 94.0896 10.4262 981 108.367 1179.54 453.271
1453 0 98.13 12.4733 1224 105.35 1179.55 450.049
1454 0 100.292 12.0648 1210 106.976 1179.96 450.831
1455 0 105.223 11.7655 1238 107.599 1179.62 449.213
1456 1 55.0583 9.68064 533 112.3 1179.25 471.589
1457 0 59.0293 13.3154 786 101.618 1181.08 474.753
1458 0 60.1119 11.595 697 104.62 1181.97 474.188
1459 0 62.1203 12.2504 761 103.485 1181.72 471.858
1460 0 63.0775 11.5414 728 106.58 1181.92 471.228
1461 0 66.1007 13.1617 870 101.744 1181.97 470.067
1462 0 69.0433 13.8319 955 99.5089 1182.91 468.835
1463 0 71.0772 13.422 954 100.196 1182.27 468.969
1464 0 71.0407 12.4999 888 103.264 1181.72 467.48
1465 0 74.0567 13.5572 1004 100.764 1181.56 467.29
1466 0 77.0672 14.8312 1143 97.3841 1181.45 466.886
1467 0 78.1125 13.0453 1019 102.598 1181.22 464.336
1468 0 79.1468 12.3694 979 105.046 1181.55 462.485
1469 0 82.0973 12.948 1063 103.281 1180.65 462.364
1470 0 87.1968 13.6702 1192 101.544 1181.23 458.437
1471 0 90.1938 13.5264 1220 102.209 1181.16 458.743
1472 0 91.1038 12.9962 1184 104.426 1181.18 456.148
1473 0 95.2162 12.6764 1207 103.963 1180.81 455.114
1474 0 100.265 12.3573 1239 103.836 1180.89 453.91
1475 1 53.1872 11.0929 590 103.619 1180.71 477.392
1476 0 52.1297 10.9726 572 100.336 1181.3 478.603
1477 0 57.2917 13.5622 777 96.5676 1179.66 472.427
1478 0 57.055 12.4967 713 95.2216 1181.41 476.195
1479 0 58.1251 11.5097 669 97.9253 1182.05 473.293
1480 0 60.0573 11.6222 698 97.5602 1181.47 475.112
1481 0 61.1628 11.7555 719 97.9694 1181.27 472.063
1482 0 63.1106 13.4367 848 95.1639 1181.77 471.401
1483 0 64.1556 12.6256 810 96.3482 1181.57 472.085
1484 0 69.0768 12.5078 864 95.7917 1182.06 469.603
1485 0 70.1195 12.2933 862 97.1995 1181.68 468.282
1486 0 70.1691 11.4723 805 99.8832 1181.65 467.404
1487 0 75.177 11.0007 827 100.8 1181.4 465.417
1488 0 75.151 12.0424 905 99.821 1180.76 464.655
1489 0 80.0739 13.9121 1114 95.6804 1181.17 464.324
1490 0 84.0825 15.2826 1285 92.5829 1181.31 464.026
1491 0 85.0887 12.2931 1046 99.9608 1181.57 463.165
1492 0 87.3138 12.1859 1064 107.546 1181.07 462.144
1493 0 91.1795 12.3164 1123 104.477 1181.16 460.564
1494 0 93.2262 12.1318 1131 106.364 1181.35 459.704
1495 0 93.2364 12.1412 1132 139.966 1181.32 459.569
1496 1 50.0678 12.6229 632 101.104 1181 481.28
1497 0 49.1005 10.9164 536 106.782 1180.9 480.379
1498 0 52.111 11.4563 597 105.397 1180.58 478.975
1499 0 52.0978 10.4227 543 106.144 1181.22 479.707
1500 0 55.2081 12.317 680 101.231 1179.15 476.99
1501 0 56.1962 11.7268 659 102.87 1178.77 477.492
1502 0 60.1889 12.7765 769 99.7425 1179.4 475.626
1503 0 60.0866 12.8981 775 96.5406 1180.23 473.68
1504 0 60.144 13.0188 783 97.152 1180.71 472.637
1505 0 62.0346 12.6542 785 99.5338 1180.53 473.992
1506 0 62.0788 13.1607 817 100.047 1180.52 472.88
1507 0 62.0314 12.5743 780 104.638 1180.74 473.127
1508 0 64.0881 13.3878 858 102.276 1180.65 471.494
1509 0 62.1018 12.5922 782 107.246 1179.92 473.454
1510 0 66.0415 11.6745 771 108.332 1179.71 471.048
1511 0 69.1162 12.7177 879 104.392 1179.99 470.527
1512 0 70.06 12.5607 880 103.795 1179.99 469.998
1513 0 74.0826 12.891 955 101.732 1180.3 468.998
1514 0 76.052 12.1364 923 103.014 1180.68 467.953
1515 0 78.1585 12.078 944 102.59 1181.08 466.522
1516 0 80.1842 12.6334 1013 102.185 1181.25 466.42
1517 0 83.1005 12.9602 1077 102.323 1181.03 464.409
1518 0 83.1221 12.4275 1033 104.365 1181.26 463.718
1519 0 84.161 11.5136 969 109.317 1180.59 460.474
1520 0 87.0638 11.0149 959 111.784 1180.87 463.634
1521 0 91.0847 13.2075 1203 108.813 1180.35 460.656
1522 0 95.2067 12.058 1148 111.744 1180.68 459.056
1523 1 50.0173 12.0158 601 108.374 1180.51 481.206
1524 0 50.0744 13.8194 692 105.068 1181.15 480.734
1525 0 52.0474 12.1044 630 109.794 1181.39 482.087
1526 0 52.094 12.823 668 109.841 1181.37 479.692
1527 0 57.0699 12.2657 700 111.161 1181.74 480.023
1528 0 58.0963 12.5826 731 111.276 1181.83 479.845
1529 0 59.1163 12.8053 757 111.877 1181.77 478.35
1530 0 57.1349 12.6718 724 115.033 1181.26 477.425
1531 0 60.0957 13.8779 834 111.633 1180.68 477.132
1532 0 64.1185 13.6154 873 111.704 1180.22 477.733
1533 0 63.0833 13.0304 822 115.114 1180.78 475.642
1534 0 66.1085 13.0694 864 115.15 1180.31 474.67
1535 0 66.1254 12.7788 845 118.393 1179.85 473.617
1536 0 68.0874 12.9833 884 117.779 1179.73 473.051
1537 0 70.1029 13.9367 977 115.638 1179.7 470.709
1538 0 73.0874 12.5466 917 119.05 1179.63 470.206
1539 0 75.121 13.0057 977 118.169 1179.61 470.786
1540 0 77.1313 12.0314 928 122.095 1180.09 468.721
1541 0 80.1151 12.4945 1001 121.179 1179.74 467.3
1542 0 84.0785 12.6548 1064 119.976 1178.78 467.61
1543 0 88.1595 13.0445 1150 119.479 1179.34 463.88
1544 1 46.1851 12.4283 574 123.551 1179.99 484.058
1545 0 48.1923 11.9936 578 124.787 1179.45 482.208
1546 0 47.1511 11.8343 558 119.486 1179.51 483.724
1547 0 50.0788 12.1808 610 117.149 1178.91 484.41
1548 0 50.1205 12.5098 627 117.265 1178.75 483.47
1549 0 51.0483 11.9886 612 120.062 1179.53 481.877
1550 0 54.0628 13.0589 706 115.534 1179.24 481.116
1551 0 55.1281 12.5707 693 116.734 1179.25 479.29
1552 0 55.0889 12.2892 677 118.606 1179.12 479.287
1553 0 58.1263 11.9051 692 118.548 1178.93 476.582
1554 0 62.1407 13.6947 851 111.807 1179.43 475.651
1555 0 64.0963 14.9307 957 107.871 1179.02 474.598
1556 0 65.1065 13.1477 856 113.479 1179.01 472.842
1557 0 67.1857 13.3064 894 112.764 1179.34 471.139
1558 0 68.1971 12.9331 882 113.677 1178.85 470.349
1559 0 72.0936 12.1509 876 115.363 1178.6 468.321
1560 0 74.0845 12.7152 942 114.111 1178.76 468.477
1561 0 79.171 14.374 1138 108.001 1178.82 466.255
1562 0 80.2558 13.457 1080 111.082 1178.99 462.625
1563 0 84.2052 12.6714 1067 112.401 1179.06 464.504
1564 1 44.1079 11.6986 516 113.866 1180.5 483.752
1565 0 44.1069 11.9029 525 115.735 1177.55 483.446
1566 0 47.0358 11.7995 555 114.989 1177.96 483.681
1567 0 46.1122 11.4937 530 117.77 1178.57 482.262
1568 0 50.0948 12.5163 627 111.285 1178.82 483.579
1569 0 53.0432 12.7443 676 110.827 1177.15 478.985
1570 0 53.072 12.7751 678 111.643 1177.57 480.108
1571 0 55.0565 12.2056 672 114 1177.67 478.06
1572 0 55.0276 13.4296 739 112.277 1176.73 476.083
1573 0 56.0386 12.2059 684 115.379 1177.03 476.895
1574 0 58.0408 12.4051 720 113.888 1177.09 476.571
1575 0 61.0689 12.1011 739 114.445 1176.51 474.116
1576 0 64.0657 13.7671 882 109.978 1177.07 473.808
1577 0 65.0675 13.1709 857 111.664 1177.01 473.824
1578 0 68.2291 14.1289 964 110.457 1176.91 470.588
1579 0 69.1899 13.687 947 112.452 1176.58 467.91
1580 0 74.1432 13.9595 1035 110.855 1176.23 467.768
1581 0 76.3403 12.9289 987 113.748 1176.76 466.533
1582 0 79.1933 13.6628 1082 111.648 1178.23 467.572
1583 0 82.1648 12.621 1037 113.584 1178.83 465.874
1584 0 83.1133 13.4274 1116 112.206 1178.23 463.379
1585 0 87.1472 13.9764 1218 110.569 1178.28 462.144
1586 1 43.0548 10.3357 445 115.996 1179.42 485.11
1587 0 45.052 11.8752 535 141.798 1180.43 483.305
1588 0 48.1672 12.6227 608 110.464 1176.87 480.666
1589 0 48.2275 12.7313 614 111.425 1176.83 479.723
1590 0 49.1307 12.7415 626 111.947 1176.68 479.42
1591 0 52.0437 14.0075 729 108.889 1178.28 480.675
1592 0 52.0289 12.6276 657 113.98 1179.27 478.461
1593 0 54.0337 13.0844 707 112.027 1179.46 480.468
1594 0 57.0649 11.5482 659 116.226 1178.58 478.225
1595 0 59.1629 13.6741 809 110.834 1178.82 476.904
1596 0 61.1086 13.7951 843 111.391 1178.1 475.657
1597 0 61.101 12.4548 761 116.355 1177.59 474.491
1598 0 65.1018 13.3944 872 114.601 1177.86 473.695
1599 0 66.0916 13.5267 894 115.067 1177.88 472.745
1600 0 67.1575 13.5056 907 116.905 1177.88 471.466
1601 0 70.0911 13.6108 954 117.916 1177.91 471.003
1602 0 71.0468 13.1181 932 119.967 1177.24 469.681
1603 0 73.1338 13.3591 977 121.113 1177.02 465.589
1604 0 77.1882 12.8258 990 122.027 1176.81 466.792
1605 0 80.1262 14.1901 1137 119.143 1177.48 466.548
1606 0 84.0947 13.1756 1108 121.31 1178.23 466.602
1607 0 86.0513 15.0492 1295 117.991 1177.64 464.87
1608 0 88.0815 13.3399 1175 123.934 1178.14 462.517
1609 1 47.0263 12.7376 599 117.317 1178.04 483.94
1610 0 48.0343 11.8249 568 118.842 1178.11 484.37
1611 0 49.1162 12.6435 621 114.755 1179.81 480.866
1612 0 50.0266 13.2729 664 111.7 1180.14 482.625
1613 0 53.0743 13.3963 711 111.241 1179.3 481.716
1614 0 54.0753 12.2977 665 114.586 1178.41 480.299
1615 0 55.0681 13.4198 739 112.823 1179.25 479.854
1616 0 57.03 12.9406 738 113.741 1178.91 479.626
1617 0 59.0809 13.8454 818 111.412 1178.78 477.853
1618 0 61.0483 13.7268 838 111.079 1179.02 477.258
1619 0 62.0802 13.5309 840 112.92 1179.33 476.377
1620 0 64.0444 13.8029 884 112.441 1177.92 475.652
1621 0 65.122 13.1906 859 115.001 1178.56 472.828
1622 0 68.0781 11.8687 808 117.77 1178.71 473.186
1623 0 72.0833 14.5803 1051 109.771 1178.77 472.382
1624 0 75.0664 12.8952 968 113.37 1178.68 469.798
1625 0 75.1145 13.2864 998 113.82 1178.15 467.399
1626 0 78.0948 12.7409 995 115.942 1178.16 466.464
1627 0 83.1008 13.4535 1118 114.985 1178.38 466.238
1628 0 85.2229 13.5058 1151 115.254 1177.7 463.048
1629 1 42.1402 11.3906 480 118.319 1178.13 482.846
1630 0 41.0895 10.2459 421 115.936 1178.79 479.278
1631 0 43.0594 11.1242 479 110.547 1178.11 478.188
1632 0 41.0534 9.86519 405 115.975 1178.58 475.798
1633 0 47.0848 11.4262 538 109.394 1178.75 476.959
1634 0 45.034 11.4358 515 112.124 1178.87 476.392
1635 0 47.0465 10.2877 484 112.746 1178.3 476.733
1636 0 49.0791 10.4321 512 112.371 1178.49 476.475
1637 0 50.0752 11.7623 589 109.956 1178.51 475.431
1638 0 53.0829 10.0597 534 106.89 1178.16 475.511
1639 0 56.1113 10.996 617 103.695 1178.48 475.653
1640 0 57.1159 11.3629 649 112.342 1179.02 479.479
1641 0 59.1574 11.0891 656 112.726 1178.6 477.747
1642 0 61.1764 12.5212 766 108.383 1178.38 477.748
1643 0 63.1071 11.1715 705 111.841 1179.5 476.448
1644 0 63.1385 12.4805 788 110.563 1178.42 473.97
1645 0 66.055 10.6578 704 113.824 1178.78 475.233
1646 0 67.1222 11.4418 768 113.768 1178.68 470.486
1647 0 68.1062 10.4543 712 115.904 1178.45 470.108
1648 0 72.0868 10.4041 750 115.732 1178.84 469.933
1649 0 75.1345 11.4461 860 113.408 1179.22 469.456
1650 0 76.1029 10.1573 773 116.542 1178.76 468.488
1651 0 82.1068 12.569 1032 110.21 1179.12 463.372
1652 1 43.0355 9.87556 425 115.475 1179.12 485.207
1653 0 44.1229 10.6294 469 114.49 1179.38 483.546
1654 0 47.0402 11.7346 552 113.62 1179.15 481.163
1655 0 49.0502 13.7614 675 104.123 1176.5 479.105
1656 0 49.0339 11.3799 558 109.837 1176.85 480.004
1657 0 49.0339 11.3595 557 128.984 1176.84 480.018
1658 0 53.1819 11.8461 630 108.197 1176.92 480.133
1659 0 56.0864 12.6412 709 106.437 1176.7 478
1660 0 57.1567 12.562 718 106.577 1176.85 476.054
1661 0 58.1012 12.3405 717 107.948 1176.44 476.456
1662 0 61.0477 11.8923 726 108.569 1177.27 475.186
1663 0 63.0767 13.8086 871 104.703 1176.72 473.865
1664 0 66.0889 12.7858 845 106.463 1176.53 473.563
1665 0 67.1223 13.2147 887 107.219 1177.29 471.796
1666 0 68.0867 12.6603 862 108.601 1177.68 473.128
1667 0 72.0757 13.6662 985 106.304 1177.37 470.04
1668 0 72.1001 12.441 897 110.071 1177.29 468.926
1669 0 77.1937 12.3974 957 89.9321 1177.52 469.735
1670 0 78.1636 12.3971 969 118.241 1177.08 466.214
1671 0 81.1141 12.1557 986 116.552 1176.5 467.994
1672 0 84.1451 13.6074 1145 107.824 1177.72 461.011
1673 0 86.122 12.3081 1060 111.68 1177.18 466.085
1674 0 96.1703 15.6493 1505 98.9535 1177.96 453.076
1675 1 46.0314 11.0577 509 112.564 1176.4 483.585
1676 0 49.0202 10.9343 536 105.257 1178.47 480.8
1677 0 48.1905 12.5958 607 110.262 1178.91 482.012
1678 0 52.1618 12.5187 653 117.15 1178.27 480.865
1679 0 54.1274 11.1034 601 102.855 1178.65 481.779
1680 0 55.2146 12.4243 686 118.417 1178.9 478.518
1681 0 57.2283 12.8608 736 116.762 1179.21 478.795
1682 0 56.1696 12.7471 716 119.348 1179.08 476.803
1683 0 59.1225 11.8229 699 120.512 1179.08 477.349
1684 0 62.1866 13.1057 815 116.261 1179.04 475.848
1685 0 63.1602 11.3837 719 121.57 1179.25 473.693
1686 0 64.1762 13.1357 843 117.399 1178.75 473.375
1687 0 66.3052 13.0457 865 117.328 1178.38 472.436
1688 0 70.2387 13.1551 924 116.213 1178.81 470.59
1689 0 72.1638 12.8735 929 116.4 1178.98 469.402
1690 0 75.1943 12.0488 906 117.376 1178.92 468.711
1691 0 76.1743 11.8019 899 118.963 1179.06 465.801
1692 0 81.1892 12.0459 978 116.971 1179.02 466.167
1693 0 83.2746 13.7137 1142 112.29 1178.42 465.201
1694 0 87.223 12.8063 1117 114.509 1178.11 463.715
1695 1 48.0386 11.7405 564 112.644 1179.32 481.819
1696 0 48.2378 11.9823 578 113.405 1176.81 479.853
1697 0 50.1834 12.1953 612 106.296 1176.78 480.158
1698 0 52.0447 12.9696 675 105.541 1176.57 478.887
1699 0 53.0281 12.8422 681 105.408 1176.79 478.103
1700 0 56.0619 13.4851 756 102.63 1176.75 476.108
1701 0 58.0589 13.3141 773 102.732 1177.26 476.317
1702 0 59.0627 12.4783 737 105.863 1176.91 474.365
1703 0 61.0507 11.9245 728 106.666 1176.6 473.937
1704 0 63.1728 11.0649 699 105.521 1176.01 472.9
1705 0 65.125 12.2534 798 102.768 1176.69 470.847
1706 0 67.132 12.2594 823 102.307 1177.3 470.237
1707 0 69.0788 13.7958 953 98.7954 1176.83 469.138
1708 0 72.0838 13.9699 1007 97.9603 1176.46 468.622
1709 0 74.1518 12.2856 911 101.891 1175.95 468.852
1710 0 78.1922 13.1982 1032 98.8702 1176.25 467.194
1711 0 82.1608 12.8772 1058 99.4272 1176.9 465.26
1712 0 84.2004 14.1329 1190 97.0899 1176.85 462.416
1713 0 88.213 13.6941 1208 98.5364 1177.31 462.07
1714 1 44.2271 11.4636 507 101.053 1177.53 476.556
1715 0 44.1942 10.1144 447 99.8277 1176.44 475.208
1716 0 43.132 10.4795 452 101.631 1177.16 474.759
1717 0 47.165 9.90142 467 93.2934 1178.53 477.096
1718 0 48.0352 10.9087 524 91.626 1178.49 477.725
1719 0 48.0564 9.28077 446 96.0718 1178.27 475.419
1720 0 49.073 9.76096 479 96.1566 1178 471.687
1721 0 53.1202 10.1845 541 94.8632 1178.08 472.421
1722 0 54.0283 10.4205 563 97.0604 1177.27 474.899
1723 0 55.0515 11.3712 626 106.077 1178.42 477.955
1724 0 56.1216 12.954 727 103.443 1178.99 474.072
1725 0 58.1617 11.7087 681 106.593 1179.23 473.427
1726 0 60.0812 12.4332 747 105.139 1178.77 473.371
1727 0 62.1355 11.2657 700 108.537 1178.98 472.246
1728 0 66.1643 12.9526 857 105.159 1178.73 469.893
1729 0 68.1071 13.1264 894 104.607 1178.95 471.285
1730 0 70.1684 13.0971 919 106.159 1180.05 467.219
1731 0 72.0922 12.7337 918 107.495 1179.53 466.649
1732 0 75.1149 11.6355 874 109.685 1178.84 467.086
1733 0 77.0997 12.5422 967 108.472 1178.51 463.636
1734 0 80.1736 12.3981 994 109.647 1176.87 460.645
1735 0 83.1773 11.8302 984 111.17 1176.79 461.443
1736 0 88.1347 12.2426 1079 109.913 1176.86 459.018
1737 0 90.0578 13.4691 1213 106.023 1176.71 456.684
1738 1 48.0877 10.564 508 105.053 1176.69 480.646
1739 0 49.1176 10.994 540 108.948 1176.48 481.156
1740 0 52.3945 12.0242 630 108.827 1177.77 479.478
1741 0 51.0823 11.0214 563 114.174 1178.17 482.135
1742 0 56.1061 11.9595 671 110.523 1178.73 479.668
1743 0 58.0982 12.4444 723 109.492 1178.47 479.801
1744 0 58.1872 11.1708 650 113.966 1178.48 478.597
1745 0 60.1294 11.5085 692 114.496 1178.75 477.383
1746 0 61.12 12.3691 756 111.005 1177.89 478.372
1747 0 63.2105 12.229 773 112.684 1178.48 473.913
1748 0 64.2676 11.8255 760 113.336 1178.44 474.088
1749 0 67.1622 12.7899 859 109.425 1178.63 475.23
1750 0 69.1986 11.1996 775 114.818 1178.08 471.574
1751 0 71.2191 13.8025 983 107.938 1177.32 472.056
1752 0 74.2669 12.482 927 112.453 1177.88 469.02
1753 0 77.2452 12.4539 962 111.093 1177.41 469.43
1754 0 80.2931 13.4383 1079 110.261 1177.6 467.514
1755 0 81.2779 12.2666 997 114.213 1178.3 464.965
1756 0 85.2446 12.9275 1102 111.711 1178.46 463.828
1757 1 45.3073 10.8371 491 113.864 1178.22 482.301
1758 0 48.3857 11.181 541 110.765 1178 482.786
1759 0 51.1753 12.1934 624 91.3365 1179.01 481.889
1760 0 51.0966 14.0127 716 106.557 1178.84 482.485
1761 0 51.0748 10.886 556 115.471 1178.63 481.98
1762 0 52.0579 12.4669 649 111.61 1179.16 480.408
1763 0 56.1706 12.462 700 111.169 1179.68 478.684
1764 0 57.1309 13.1277 750 109.937 1179.27 478.068
1765 0 57.106 12.328 704 111.953 1179.13 477.504
1766 0 58.1274 12.3694 719 112.508 1178.69 476.94
1767 0 60.2149 12.7543 768 110.38 1178.95 475.775
1768 0 59.288 11.5875 687 112.999 1179.24 477.189
1769 0 59.3124 12.0885 717 113.416 1179.11 475.983
1770 0 58.2112 9.72322 566 116.947 1179.5 478.085
1771 0 69.3498 14.0159 972 106.626 1178.84 472.342
1772 0 70.1489 12.502 877 110.462 1179 471.48
1773 0 72.1656 11.7646 849 111.461 1179.74 471.519
1774 0 74.1729 13.091 971 109.166 1178.37 467.681
1775 0 78.357 12.7238 997 108.242 1178.34 468.648
1776 0 81.2328 12.8273 1042 107.618 1178.88 467.673
1777 0 83.3198 12.338 1028 108.591 1177.75 466.741
1778 1 43.0298 11.3642 489 109.36 1179.33 482.603
1779 0 45.0598 11.629 524 106.779 1179.53 483.336
1780 0 46.0958 11.0639 510 109.91 1178.88 482.38
1781 0 48.0333 11.5961 557 99.0628 1178 482.013
1782 0 49.0896 11.8559 582 101.098 1178.17 482.68
1783 0 52.0457 12.489 650 99.8815 1179.29 479.826
1784 0 52.0469 11.5088 599 102.9 1178.74 479.391
1785 0 54.1644 12.3882 671 100.307 1178.7 477.985
1786 0 55.0664 12.3669 681 101.634 1178.89 477.463
1787 0 57.1727 12.8558 735 99.7959 1178.9 475.514
1788 0 59.0285 12.7057 750 99.1867 1178.4 475.621
1789 0 61.0839 12.8021 782 98.8606 1178.6 472.765
1790 0 64.0693 12.6894 813 99.4108 1178.66 473.983
1791 0 65.1076 12.5331 816 100.2 1178.7 472.987
1792 0 66.0778 11.9707 791 102.693 1177.65 471.999
1793 0 68.0596 11.7103 797 103.738 1178.23 471.499
1794 0 70.0592 12.2325 857 102.574 1177.77 470.145
1795 0 73.0548 13.921 1017 98.9597 1178.47 469.174
1796 0 77.0656 13.482 1039 100.307 1178.42 469.391
1797 0 80.1536 14.7467 1182 97.2597 1178.63 467.949
1798 0 84.1114 13.8626 1166 98.9528 1178.85 466.28
1799 1 46.0737 11.8506 546 106.487 1178.79 483.778
1800 0 47.1311 11.8605 559 106.809 1178.31 482.589
1801 0 46.0622 12.0055 553 94.8445 1178.67 479.479
1802 0 49.0668 11.9837 588 94.835 1179.03 480.041
1803 0 50.0823 12.5993 631 93.767 1178.36 479.128
1804 0 52.0754 11.8674 618 95.6262 1178.12 478.317
1805 0 54.0496 13.8761 750 97.8347 1177.44 479.359
1806 0 55.0575 13.3134 733 99.7217 1177.59 479.988
1807 0 59.0869 14.301 845 96.5621 1177.77 478.968
1808 0 59.0589 13.8506 818 98.8765 1177.95 477.529
1809 0 60.1162 13.7401 826 100.533 1178.04 476.317
1810 0 61.2704 12.8284 786 97.9707 1178.17 476.327
1811 0 65.134 13.4646 877 96.0068 1178.09 473.489
1812 0 66.1149 11.2985 747 100.752 1178.36 475.19
1813 0 68.0919 13.144 895 98.0715 1177.52 471.534
1814 0 70.0534 11.7339 822 100.642 1178.32 473.342
1815 0 73.1676 13.2162 967 97.3847 1178.41 470.112
1816 0 74.068 12.448 922 100.381 1177.87 469.637
1817 0 76.0623 12.2005 928 101.745 1177.84 468.759
1818 0 82.1972 13.1148 1078 98.7644 1178.01 468.213
1819 0 81.153 12.6428 1026 101.852 1178.02 465.588
1820 0 87.203 12.8207 1118 100.691 1177.98 464.909
1821 0 87.0939 12.986 1131 102.32 1178.11 461.753
1822 1 43.0536 10.9166 470 105.949 1178.07 483.168
1823 0 46.0373 11.0128 507 103.552 1177.56 481.854
1824 0 50.059 12.2256 612 103.967 1177.03 477.792
1825 0 50.0767 11.4824 575 105.39 1177.65 482.555
1826 0 50.06 12.6848 635 104.614 1177.53 481.762
1827 0 51.0531 12.5556 641 106.256 1177.29 480.663
1828 0 54.0211 12.9949 702 104.718 1178.2 479.534
1829 0 54.1496 12.2254 662 106.983 1178.15 480.03
1830 0 55.0691 11.876 654 109.043 1177.64 478.671
1831 0 57.0202 12.3991 707 107.782 1176.9 478.967
1832 0 60.0892 11.9656 719 108.542 1177.11 476.449
1833 0 60.0768 12.7004 763 107.216 1177.45 475.322
1834 0 62.1079 11.9469 742 108.047 1177.01 475.752
1835 0 64.0866 12.9512 830 107.548 1176.62 471.413
1836 0 65.0522 11.068 720 110.719 1177.78 472.361
1837 0 69.0544 10.7162 740 109.799 1177.79 474.13
1838 0 71.0615 12.6932 902 106.55 1177.46 470.656
1839 0 73.0929 12.231 894 107.161 1178.37 469.281
1840 0 76.0805 12.3028 936 106.818 1178.39 467.438
1841 0 79.1983 12.677 1004 107.265 1178 461.762
1842 0 82.2933 12.7957 1053 107.194 1178.14 461.965
1843 0 86.1946 13.7364 1184 105.405 1178.4 460.237
1844 0 87.289 12.1436 1060 108.557 1178.43 459.807
1845 0 89.2757 11.6381 1039 110.709 1177.78 457.479
1846 0 93.3855 11.9826 1119 109.006 1177.87 456.844
1847 1 50.14 12.7443 639 103.394 1178.74 478.757
1848 0 48.0184 11.7663 565 107.469 1177.55 480.412
1849 0 53.0688 12.757 677 103.681 1178.48 479.857
1850 0 58.0798 15.3754 893 94.2856 1178.46 476.974
1851 0 55.2448 11.3676 628 108.541 1178.71 478.871
1852 0 55.1964 11.6131 641 109.201 1178.73 478.022
1853 0 57.0491 11.271 643 110.238 1179.42 477.103
1854 0 60.0693 12.3857 744 106.571 1179.1 474.745
1855 0 62.1752 11.8053 734 108.424 1178.87 472.774
1856 0 64.2155 11.9909 770 107.971 1178.74 472.239
1857 0 67.143 11.617 780 108.54 1179.03 471.842
1858 0 68.1992 11.7157 799 110.308 1178.39 470.088
1859 0 71.0789 12.1274 862 109.613 1177.63 470.253
1860 0 72.0816 11.3205 816 113.539 1178.12 467.732
1861 0 76.2172 13.619 1038 109.145 1178.34 464.762
1862 0 77.2666 11.4021 881 114.642 1178.46 464.608
1863 0 80.2022 11.658 935 113.779 1178.57 463.297
1864 0 86.141 13.4547 1159 108.576 1178.54 462.041
1865 0 87.2385 12.5747 1097 111.492 1178.05 459.222
1866 0 89.1519 12.0132 1071 112.299 1178.85 459.065
1867 0 93.1751 12.5463 1169 111.627 1178.54 455.551
1868 0 96.2602 11.5832 1115 113.4 1177.95 454.411
1869 0 100.249 11.4215 1145 113.942 1178.48 451.9
1870 0 104.283 11.5264 1202 112.26 1178.38 453.794
1871 1 53.221 10.6913 569 107.9 1178.32 477.072
1872 0 54.0932 11.6835 632 103.767 1178.43 477.133
1873 0 56.1142 11.3875 639 103.632 1177.67 475.434
1874 0 60.1079 12.6772 762 99.336 1178.74 474.728
1875 0 58.0455 10.9742 637 104.622 1178.56 474.52
1876 0 62.162 12.2583 762 100.887 1178.75 471.017
1877 0 64.2546 12.4505 800 100.461 1178.05 469.938
1878 0 65.1816 11.7058 763 102.662 1178.09 469.25
1879 0 68.3076 12.0924 826 101.769 1178.9 467.392
1880 0 70.2188 11.692 821 103.212 1178.2 467.569
1881 0 74.1616 12.6211 936 99.9829 1178.51 464.12
1882 0 75.1788 12.3838 931 100.963 1178.54 463.811
1883 0 80.285 12.7297 1022 98.7006 1178.47 464.255
1884 0 81.2939 13.076 1063 98.2023 1178.41 462.111
1885 0 83.255 12.3116 1025 99.5317 1178.49 462.409
1886 0 87.2944 14.0788 1229 96.2099 1177.84 459.744
1887 0 87.1454 11.739 1023 103.687 1177.66 457.561
1888 0 90.1643 11.5789 1044 104.568 1178.25 455.038
1889 0 94.2249 11.844 1116 103.832 1178.8 457.05
1890 0 98.2738 11.9462 1174 105.647 1178.47 452.56
1891 0 100.138 12.3829 1240 106.146 1178.07 450.141
1892 0 105.399 12.9793 1368 106.273 1178.15 450.212
1893 0 106.226 12.6711 1346 108.743 1178.28 446.657
1894 0 111.324 12.9173 1438 107.401 1177.63 445.85
1895 0 114.312 12.6059 1441 108.57 1178.62 441.579
1896 1 64.2583 9.61743 618 102.324 1178.23 472.215
1897 0 64.2153 9.93532 638 102.785 1178.47 468.757
1898 0 69.1901 10.6229 735 100.008 1178.33 468.571
1899 0 72.2464 11.3224 818 98.2115 1178.5 468.379
1900 0 72.3608 11.8572 858 98.6562 1178.59 465.85
1901 0 74.156 11.5702 858 100.562 1179.57 465.425
1902 0 75.1301 10.7414 807 101.606 1179.36 463.999
1903 0 80.2202 11.4435 918 99.4041 1179.51 464.232
1904 0 83.1962 11.8034 982 98.5122 1178.86 463.072
1905 0 84.2293 11.6587 982 100.648 1178.7 460.028
1906 0 86.3419 10.9796 948 102.638 1178.47 459.092
1907 0 91.2794 11.4593 1046 104.047 1178.15 458.569
1908 0 94.2183 12.609 1188 102.56 1178.41 455.564
1909 0 99.2826 11.2507 1117 103.868 1178.14 457.978
1910 0 100.183 10.391 1041 106.556 1177.99 453.78
1911 1 56.2219 10.9566 616 99.9302 1178.68 475.195
1912 0 58.1527 10.8507 631 99.4548 1179.28 473.984
1913 0 60.1562 10.772 648 100.532 1178.88 474.25
1914 0 59.1022 10.6933 632 102.296 1178.67 471.582
1915 0 63.0271 11.0905 699 100.937 1177.93 471.607
1916 0 66.1078 11.0577 731 100.773 1178.77 468.91
1917 0 67.0919 12.4307 834 98.2398 1178.56 469.416
1918 0 69.125 11.226 776 101.102 1178.45 467.805
1919 0 73.1736 12.5592 919 97.5582 1178.79 467.81
1920 0 73.2702 12.8019 938 97.7601 1178.77 467.248
1921 0 77.1297 12.4984 964 97.8849 1178.67 464.953
1922 0 76.2511 11.8162 901 100.65 1178.75 463.921
1923 0 80.2252 11.6173 932 100.768 1178.87 462.397
1924 0 83.2202 11.9562 995 100.344 1179.05 461.722
1925 0 87.098 12.5835 1096 98.4124 1178.78 459.703
1926 0 90.0894 12.3766 1115 101.653 1178.91 456.944
1927 1 46.0658 8.72664 402 103.823 1179.25 480.746
1928 0 50.1406 11.2284 563 98.913 1178.77 478.524
1929 0 50.1202 9.45726 474 102.232 1179.28 477.468
1930 0 53.0752 11.7757 625 92.4432 1180.47 478.186
1931 0 54.0326 11.5486 624 94.1923 1180.04 476.444
1932 0 55.0342 9.88476 544 100.316 1179.74 475.34
1933 0 57.1092 10.7864 616 97.9464 1179.61 473.701
1934 0 57.0937 10.3864 593 99.6661 1179.4 474.838
1935 0 60.0247 10.4124 625 98.6528 1179.14 473.749
1936 0 59.095 9.7301 575 101.09 1180.08 471.704
1937 0 62.098 11.5624 718 96.7437 1179.57 470.829
1938 0 66.0397 10.6451 703 97.2831 1179.29 472.788
1939 0 69.1352 11.8463 819 94.9597 1179.52 471.802
1940 0 70.1474 11.3048 793 95.5372 1179.2 468.373
1941 0 70.0672 10.3329 724 98.1851 1178.41 468.599
1942 0 72.0735 11.2524 811 97.3379 1178.41 466.599
1943 0 75.1547 11.6826 878 95.7768 1178.8 466.06
1944 0 77.0844 11.6885 901 96.717 1178.87 463.465
1945 0 78.2511 10.9647 858 98.697 1178.41 461.709
1946 0 82.1554 11.2835 927 99.7077 1178.84 459.259
1947 0 85.2804 11.6439 993 99.2981 1178.68 459.202
1948 0 86.3106 10.8909 940 103.432 1178.15 456.794
1949 0 91.2451 12.3294 1125 100.18 1178.11 457.667
1950 0 94.2405 11.3009 1065 102.812 1177.56 456.075
1951 1 50.2134 10.1367 509 98.6542 1178.54 477.285
1952 0 51.1571 10.3602 530 99.3 1177.49 474.804
1953 0 50.1806 9.64516 484 105.667 1178.73 476.94
1954 0 53.1672 9.85569 524 104.053 1179.22 477.24
1955 0 56.185 10.0739 566 103.77 1178.2 475.348
1956 0 57.1272 11.1856 639 101.703 1178.58 475.554
1957 0 58.3058 10.9766 640 103.377 1178.64 472.664
1958 0 60.1613 10.9705 660 103.326 1178.48 471.748
1959 0 61.1193 10.1277 619 105.816 1178.97 471.168
1960 0 61.2574 9.53353 584 107.457 1178.45 471.586
1961 0 66.1906 10.9683 726 103.652 1179.03 470.526
1962 0 68.2138 12.109 826 101.286 1179.34 467.948
1963 0 70.1084 10.9545 768 104.141 1179.2 466.215
1964 0 73.2519 9.89735 725 106.134 1179.3 463.723
1965 0 74.1039 10.5662 783 105.443 1179.33 464.466
1966 0 75.2009 11.6754 878 103.782 1179.3 462.74
1967 0 79.2347 11.1567 884 104.405 1179.08 462.966
1968 0 83.1726 12.3117 1024 102.406 1179.23 461.598
1969 0 83.203 10.9972 915 106.403 1178.9 460.685
1970 0 87.1681 11.8277 1031 105.016 1178.82 458.431
1971 0 92.1973 12.3106 1135 103.65 1178.44 457.385
1972 0 93.1974 10.805 1007 108.88 1178.79 456.862
1973 0 94.2331 11.185 1054 109.839 1179.28 456.732
1974 0 103.268 11.3491 1172 108.159 1179.26 455.213
1975 0 102.443 11.5089 1179 110.628 1177.56 447.365
1976 1 56.2587 11.2871 635 105.017 1178.03 472.392
1977 0 58.2238 11.7478 684 103.972 1177.86 471.523
1978 0 60.1003 12.5124 752 103.217 1177.13 470.972
1979 0 60.1614 11.2863 679 112.339 1177.08 473.186
1980 0 64.0453 12.1008 775 109.312 1176.16 472.947
1981 0 65.1076 13.5775 884 107.238 1176.92 470.403
1982 0 70.1023 13.409 940 106.459 1176.62 469.451
1983 0 71.1215 12.7809 909 109.791 1176.24 468.715
1984 0 71.0809 11.8879 845 111.038 1176.82 469.625
1985 0 73.1564 12.6441 925 111.084 1177.01 466.131
1986 0 77.0954 12.9191 996 109.788 1176.77 466.288
1987 0 77.1682 11.8831 917 113.68 1176.98 466.352
1988 0 79.0716 13.7597 1088 110.824 1176.5 463.896
1989 0 83.1167 12.5847 1046 113.842 1176 461.665
1990 0 84.2553 12.4265 1047 115.928 1176.43 459.125
1991 0 89.3928 12.529 1120 114.652 1177.18 460.929
1992 0 91.2765 12.4676 1138 115.1 1177.64 461.018
1993 0 94.3999 13.411 1266 113.652 1177.32 457.314
1994 1 51.2256 10.1121 518 114.456 1176.55 478.79
1995 0 53.3368 10.818 577 114.031 1177.13 476.419
1996 0 53.362 11.6 619 113.916 1178.25 474.173
1997 0 55.3594 11.3802 630 114.625 1178.39 471.992
1998 0 58.4213 12.1017 707 112.382 1176.83 472.53
1999 0 58.2847 11.1693 651 117.011 1176.88 470.978
2000 0 59.5342 11.7244 698 116.162 1177.15 467.119
2001 0 61.3822 12.7887 785 111.627 1178.3 469.702
2002 0 64.5356 12.3653 798 112.95 1177.61 466.959
2003 0 65.2802 13.2199 863 111.235 1177.83 468.185
2004 0 65.3629 11.1225 727 116.955 1177.44 466.029
2005 0 68.2131 12.1824 831 113.9 1177.9 468.333
2006 0 68.2251 12.063 823 115.492 1177.69 467.795
2007 0 72.2209 12.8495 928 113.122 1177.69 466.539
2008 0 73.1602 11.837 866 116.416 1177.55 464.367
2009 0 75.183 12.0772 908 115.617 1177.92 464.323
2010 0 77.2318 11.3943 880 117.201 1177.61 462.462
2011 0 78.3747 10.8453 850 119.618 1177.64 461.727
2012 0 81.3266 12.4928 1016 116.041 1177.63 460.597
2013 0 82.327 12.5111 1030 117.085 1177.36 457.699
2014 0 86.2762 12.1586 1049 117.084 1177.49 460.31
2015 0 85.3213 10.8765 928 122.987 1177.55 455.496
2016 0 91.3168 11.9036 1087 119.754 1178.09 452.942
2017 0 93.474 10.6126 992 123.728 1177.4 452.117
2018 0 97.5423 10.7338 1047 122.251 1178.04 452.175
2019 0 102.266 11.2648 1152 111.784 1178.27 451.372
2020 0 103.253 9.53972 985 119.037 1178.76 449.576
2021 0 107.192 9.94475 1066 117.688 1178.33 448.18
2022 0 111.227 10.7798 1199 114.548 1177.27 449.369
2023 0 115.166 11.9827 1380 111.362 1178.18 445.057
2024 1 66.1108 10.1345 670 110.94 1179.09 470.269
2025 0 69.1664 9.96148 689 110.91 1179.08 469.91
2026 0 72.3154 11.602 839 107.178 1178.11 462.898
2027 0 74.1762 11.7019 868 107.646 1177.76 463.657
2028 0 75.1055 12.103 909 106.972 1177.13 460.366
2029 0 78.1367 12.0046 938 106.404 1176.68 463.191
2030 0 82.3049 12.3322 1015 105.582 1177.05 460.198
2031 0 80.1254 11.4446 917 109.541 1177.89 458.79
2032 0 84.1558 12.2867 1034 107.875 1177.54 458.393
2033 0 86.2246 12.1311 1046 108.899 1177.27 457.784
2034 0 89.0984 12.1551 1083 108.677 1177.2 456.621
2035 0 89.1409 12.0483 1074 110.799 1176.37 454.715
2036 0 93.1094 12.2437 1140 109.286 1176.21 453.304
2037 0 96.1098 13.4326 1291 106.623 1177.04 452.73
2038 0 97.1478 12.0744 1173 111.382 1176.42 449.316
2039 0 101.107 12.195 1233 111.302 1176.4 449.651
2040 0 105.119 12.4431 1308 111.095 1176.18 447.262
2041 1 47.0973 10.0643 474 112.116 1175.9 476.179
2042 0 47.0427 10.3735 488 113.855 1176.32 475.34
2043 0 46.0702 10.0716 464 110.509 1176.77 470.2
2044 0 49.1391 11.2741 554 109.114 1176.62 469.857
2045 0 47.0903 11.7009 551 109.984 1176.83 469.281
2046 0 52.0291 11.7626 612 109.173 1176.94 468.196
2047 0 53.0222 9.61861 510 115.39 1177.43 469.265
2048 0 55.1019 11.7963 650 109.425 1177.25 467.762
2049 0 56.0467 10.9195 612 113.935 1176.6 465.6
2050 0 56.0449 10.2953 577 115.905 1176.31 465.768
2051 0 63.0245 11.678 736 110.492 1175.97 465.545
2052 0 61.0467 10.6476 650 115.782 1176.57 462.346
2053 0 66.0192 10.5424 696 115.655 1176.32 463.756
2054 0 67.1073 11.802 792 113.364 1176.21 462.744
2055 0 68.0244 12.5984 857 111.564 1176.81 460.411
2056 0 71.0521 11.6112 825 113.502 1176.6 460.235
2057 0 68.1241 9.80564 668 120.993 1176.87 458.969
2058 0 76.1336 12.084 920 116.972 1177.66 462.926
2059 0 80.2209 13.1761 1057 113.834 1177.71 460.445
2060 0 81.1839 12.6996 1031 116.155 1177.46 461.493
2061 0 84.1433 12.348 1039 118.152 1177.57 458.686
2062 0 85.1287 11.7352 999 119.741 1176.75 457.865
2063 0 89.1545 12.6298 1126 116.749 1176.91 459.469
2064 0 92.2163 11.4405 1055 121.387 1176.31 456.493
2065 1 51.0472 10.598 541 117.691 1176.41 477.604
2066 0 52.1743 9.77493 510 115.216 1176.89 475.724
2067 0 53.1554 10.4599 556 108.225 1178.14 473.162
2068 0 53.0468 10.0666 534 117.702 1176.43 469.264
2069 0 54.0694 10.542 570 114.119 1176.74 469.691
2070 0 55.1313 10.1576 560 116.102 1176.61 468.805
2071 0 58.1209 9.82435 571 116.014 1178.27 475.394
2072 0 59.2152 11.6017 687 113.483 1178.25 467.421
2073 0 62.1988 10.9166 679 115.194 1178.84 465.252
2074 0 65.2214 10.8553 708 114.277 1178.83 468.061
2075 0 65.1697 10.4343 680 117.516 1178.32 466.228
2076 0 67.173 10.6739 717 117.07 1178.69 465.22
2077 0 69.2799 11.5041 797 115.252 1179.36 464.745
2078 0 72.2579 11.971 865 114.395 1178.87 461.401
2079 0 73.1556 11.5097 842 114.898 1178.19 464.856
2080 0 75.1871 11.3849 856 115.354 1177.83 464.467
2081 0 78.1083 10.3446 808 116.793 1177.72 465.339
2082 0 77.2682 10.703 827 118.236 1178.13 457.141
2083 0 83.2053 11.3935 948 114.257 1177.51 457.897
2084 0 85.3196 10.6306 907 116.478 1178.35 457.332
2085 0 90.1194 11.7844 1062 112.579 1178.04 457.197
2086 1 52.0886 10.7893 562 113.267 1179.29 474.206
2087 0 53.1098 10.3747 551 115.325 1179.18 472.891
2088 0 55.1381 9.48528 523 115.857 1179.18 471.918
2089 0 58.1465 10.7487 625 110.246 1178.87 473.01
2090 0 59.1563 10.7512 636 105.679 1178.85 471.478
2091 0 60.1439 10.292 619 107.543 1178.04 470.006
2092 0 60.2176 9.31622 561 110.362 1177.91 469.007
2093 0 63.279 11.0147 697 106.892 1178 466.102
2094 0 66.2595 10.3834 688 108.714 1178.18 465.683
2095 0 67.1686 10.1684 683 110.6 1177.93 463.846
2096 0 69.2518 10.8734 753 108.761 1178.4 465.57
2097 0 69.1356 10.7036 740 110.046 1178.15 462.689
2098 0 73.2814 9.92066 727 111.461 1178.7 460.604
2099 0 76.2369 11.8578 904 107.322 1178.49 460.886
2100 0 78.1943 11.6377 910 110.726 1177.84 461.624
2101 0 80.092 10.7751 863 110.813 1177.11 459.107
2102 0 81.1358 10.1188 821 114.396 1178.62 454.611
2103 0 84.1826 11.3325 954 111.116 1178.32 456.079
2104 0 86.2094 11.0197 950 112.245 1178.31 455.159
2105 0 91.2218 9.92088 905 114.234 1178.56 452.798
2106 0 93.2333 11.5946 1081 110.426 1177.57 453.934
2107 0 96.228 11.0779 1066 113.178 1177.19 448.696
2108 0 101.239 10.9049 1104 112.377 1177.73 449.039
2109 1 57.1468 9.30936 532 107.209 1177.55 472.91
2110 0 57.0731 10.5654 603 110.582 1177.31 471.824
2111 0 58.1481 11.7803 685 115.953 1176.35 470.756
2112 0 61.1541 10.1874 623 118.772 1177.41 472.04
2113 0 64.0456 10.9453 701 115.16 1178.68 471.004
2114 0 64.0477 8.13456 521 124.367 1178.68 467.82
2115 0 68.0451 11.2866 768 114.188 1178.73 468.91
2116 0 71.2408 11.2295 800 116.451 1179.53 466.922
2117 0 72.2013 11.2325 811 117.306 1179.53 465.1
2118 0 71.143 10.1064 719 120.572 1179.51 464.293
2119 0 76.1888 11.2221 855 115.357 1179.92 464.694
2120 0 77.1068 11.9185 919 115.072 1179.19 462.847
2121 0 81.2723 12.1197 985 111.901 1178.54 464.766
2122 0 80.1768 10.7637 863 117.628 1178.13 460.078
2123 0 84.3877 11.305 954 115.826 1178.7 458.933
2124 0 86.3378 11.6867 1009 114.939 1178.72 456.356
2125 0 89.3353 12.1229 1083 113.773 1179.01 457.262
2126 0 93.3383 12.1279 1132 113.624 1178.84 457.586
2127 0 92.2277 11.0921 1023 117.962 1178.32 452.718
2128 0 96.3139 11.5144 1109 115.73 1177.94 454.121
2129 0 98.3582 11.7733 1158 116.352 1178.15 449.724
2130 0 103.455 12.0632 1248 113.788 1177.73 452.685
2131 0 104.358 11.9972 1252 115.516 1177.7 452.167
2132 0 107.342 12.3064 1321 115.803 1177.82 449.171
2133 0 111.566 13.5884 1516 113.638 1178.01 446.755
2134 0 115.594 13.0629 1510 112.841 1177.83 446.64
2135 0 118.579 12.3378 1463 114.521 1177.84 444.945
2136 0 120.625 11.9627 1443 116.292 1177.92 440.037
2137 0 124.345 13.1248 1632 109.853 1178.38 437.855
2138 1 69.459 9.44442 656 110.875 1178.42 467.976
2139 0 71.1142 10.8277 770 108.974 1179.41 462.61
2140 0 74.1402 11.5727 858 107.645 1178.93 458.342
2141 0 73.0876 10.7953 789 110.428 1175.59 457.644
2142 0 77.0376 11.0725 853 107.113 1176.06 459.591
2143 0 80.056 12.5537 1005 104.195 1176.22 455.706
2144 0 84.0535 12.6467 1063 104.086 1176.11 456.181
2145 0 84.1435 11.7062 985 107.396 1176.13 452.995
2146 0 87.1136 12.1336 1057 106.484 1176.05 452.19
2147 0 90.0867 11.8774 1070 106.983 1176.6 450.713
2148 0 94.0667 12.1403 1142 107.371 1175.55 450.896
2149 0 97.1221 12.2217 1187 108.088 1176.4 447.121
2150 0 98.089 11.9483 1172 108.701 1176.2 446.349
2151 0 105.284 12.7845 1346 105.801 1175.91 449.072
2152 0 108.192 13.2911 1438 105.682 1176.28 446.965
2153 0 111.427 11.9091 1327 110.025 1176.55 447.055
2154 0 113.408 11.5777 1313 110.725 1176.28 446.902
2155 1 65.3323 9.91853 648 111.304 1176.58 466.65
2156 0 67.3006 10.416 701 109.388 1176.87 463.884
2157 0 67.2838 11.2211 755 107.751 1177.31 459.599
2158 0 68.3212 10.8019 738 109.908 1176.35 459.366
2159 0 69.2118 11.7321 812 107.707 1176.66 459.445
2160 0 73.1165 9.88833 723 110.14 1176.64 467.355
2161 0 76.1659 12.0789 920 105.114 1176.86 465.141
2162 0 80.1127 11.0469 885 107.432 1176.92 464
2163 0 79.1317 10.9943 870 109.395 1176.2 460.043
2164 0 83.1078 11.1662 928 108.495 1175.56 460.082
2165 0 85.1636 10.7558 916 108.675 1175.38 460.168
2166 0 88.103 10.6693 940 110.741 1174.57 457.153
2167 0 92.0645 11.7852 1085 108.143 1174.7 456.453
2168 0 94.0722 12.7136 1196 107.12 1175.43 452.645
2169 0 95.0633 10.5403 1002 111.308 1175.17 456.909
2170 0 99.1088 12.229 1212 107.931 1174.76 455.144
2171 0 99.0741 10.9514 1085 113.696 1175.37 450.47
2172 0 102.128 11.2799 1152 112.646 1175.57 449.115
2173 0 106.162 11.1622 1185 113.705 1176.11 447.446
2174 0 107.068 11.4694 1228 113.665 1175.84 444.295
2175 0 110.081 11.7277 1291 114.095 1175.61 442.994
2176 0 106.067 10.616 1126 119.615 1175.32 437.479
2177 0 113.039 11.1289 1258 117.11 1175 437.638
2178 0 117.128 10.2538 1201 118.56 1175.42 438.267
2179 0 121.138 11.7305 1421 116.41 1175.88 434.766
2180 0 120.346 10.1458 1221 122.038 1176.51 431.218
2181 0 127.269 11.0082 1401 120.762 1176.38 430.669
2182 0 129.191 10.9295 1412 120.761 1176.13 423.871
2183 1 70.1007 9.85725 691 110.809 1176.55 458.971
2184 0 78.0439 11.4423 893 107.009 1176.37 456.788
2185 0 78.1456 10.6212 830 110.355 1175.99 455.964
2186 0 81.0913 11.0123 893 112.194 1176.22 453.912
2187 0 83.0686 10.9789 912 113.6 1175.26 452.328
2188 0 85.0642 11.1563 949 114.759 1176.58 451.273
2189 0 89.0728 12.8771 1147 110.784 1176.01 450.472
2190 0 91.0924 12.2733 1118 113.018 1175.64 448.87
2191 0 90.0914 11.8324 1066 117.407 1176.08 444.315
2192 0 96.0769 12.1465 1167 116.498 1175.89 446.896
2193 0 98.0522 11.759 1153 119.279 1175.23 445.034
2194 0 101.073 11.9814 1211 119.161 1175.38 445.164
2195 0 103.088 11.495 1185 122.797 1175.45 441.37
2196 0 106.037 12.2692 1301 122.583 1175.91 438.83
2197 0 109.089 12.1461 1325 124.174 1176.24 438.4
2198 0 112.21 12.8687 1444 119.963 1175.82 443.785
2199 0 118.196 13.6976 1619 117.256 1175.7 439.014
2200 0 119.125 12.5834 1499 121.744 1176.19 436.593
2201 0 123.124 12.1747 1499 122.058 1175.76 435.991
2202 0 120.419 10.1396 1221 130.121 1176.06 426.916
2203 1 70.2065 9.57176 672 121.476 1177.59 457.183
2204 0 72.0895 10.3344 745 118.954 1178.02 458.981
2205 0 73.2384 9.70802 711 119.917 1177.42 456.461
2206 0 76.1004 10.289 783 119.522 1178.26 457.988
2207 0 79.1815 11.1768 885 117.908 1178.3 457.108
2208 0 82.0651 11.564 949 117.083 1177.56 454.521
2209 0 78.1208 12.1351 948 118.889 1176.28 448.523
2210 0 86.082 11.9189 1026 117.463 1176.62 449.758
2211 0 88.1358 11.2327 990 120.515 1176.51 450.19
2212 0 90.1395 11.9149 1074 119.841 1177.45 447.027
2213 0 91.121 11.6987 1066 121.072 1176.61 445.954
2214 0 92.1596 12.0443 1110 121.777 1176.48 445.322
2215 0 97.061 11.91 1156 122.221 1176.71 443.316
2216 0 100.055 13.2327 1324 118.403 1176.23 442.897
2217 0 101.102 12.8287 1297 120.143 1176.39 440.251
2218 0 104.136 12.1188 1262 121.765 1176.1 438.922
2219 0 108.087 12.2772 1327 121.054 1175.95 438.051
2220 0 111.094 12.3319 1370 121.309 1175.99 434.399
2221 1 58.0175 7.54944 438 118.329 1176.64 462.712
2222 0 58.0482 8.71689 506 117.972 1176.76 460.318
2223 0 61.0438 9.46861 578 114.773 1177.04 460.777
2224 0 63.0363 10.6764 673 112.046 1176.67 460.309
2225 0 66.1132 9.25684 612 108.348 1177.99 458.699
2226 0 69.0564 10.4118 719 105.57 1177.82 459.426
2227 0 71.0405 11.0923 788 103.939 1177.99 456.004
2228 0 72.0873 9.19718 663 108.054 1177.87 457.635
2229 0 73.0735 8.79936 643 108.602 1177.66 456.863
2230 0 79.0452 9.76656 772 107.33 1176.85 457.154
2231 0 78.0719 9.70899 758 108.681 1177.22 452.293
2232 0 83.1664 10.4249 867 107.296 1176.64 453.003
2233 0 90.0971 10.7995 973 104.963 1176.98 454.673
2234 0 89.1635 10.7667 960 105.373 1176.48 454.464
2235 0 90.1707 9.58183 864 109.889 1176.84 450.363
2236 0 93.1157 10.3634 965 109.439 1176.96 448.173
2237 0 99.1247 11.0063 1091 107.923 1177.07 446.857
2238 0 101.187 9.7937 991 111.242 1176.78 448.749
2239 1 56.1276 9.46059 531 102.303 1178.63 472.034
2240 0 57.0671 11.2324 641 105.392 1178.34 471.376
2241 0 61.1227 12.0904 739 104.647 1178.95 470.993
2242 0 62.1334 11.4109 709 104.008 1178.77 473.15
2243 0 61.1332 10.6489 651 107.137 1178.02 470.114
2244 0 66.1376 12.4589 824 101.167 1178.33 469.029
2245 0 67.2773 11.683 786 103.592 1179.28 469.064
2246 0 70.1492 11.2617 790 104.584 1178.76 465.206
2247 0 71.2256 11.3864 811 105.962 1178.26 465.872
2248 0 73.1529 11.5785 847 105.515 1178.18 465.9
2249 0 74.2207 11.1963 831 107.132 1178.24 463.385
2250 0 78.1912 11.9707 936 106.528 1178.59 462.793
2251 0 81.1547 12.7165 1032 104.823 1178.01 462.513
2252 0 82.2125 11.8109 971 107.991 1178.26 461.502
2253 0 84.1901 11.5928 976 109.424 1177.72 459.835
2254 0 87.1435 12.1868 1062 108.509 1178.35 458.901
2255 0 90.1886 12.7067 1146 108.851 1177.76 456.55
2256 0 93.202 13.6156 1269 107.126 1178.9 454.005
2257 0 97.2292 13.4733 1310 107.837 1177.96 455.931
2258 0 98.1439 12.7873 1255 110.822 1178.26 453.845
2259 0 100.116 12.955 1297 111.49 1177.94 453.939
2260 0 103.15 11.4105 1177 115.643 1177.76 453.466
2261 0 108.267 12.0535 1305 114.87 1177.2 452.883
2262 0 110.178 12.1167 1335 115.797 1176.99 452.99
2263 1 63.081 10.1615 641 110.378 1177.93 480.162
2264 0 60.0525 9.22525 554 117.264 1177.36 479.843
2265 0 63.169 9.98907 631 116.788 1177.72 478.905
2266 0 67.1201 11.9487 802 111.44 1176.97 478.956
2267 0 69.1777 11.7523 813 112.753 1176.89 480.028
2268 0 72.2218 11.1324 804 113.474 1176.64 479.447
2269 0 75.1334 12.2183 918 109.786 1176.34 479.682
2270 0 77.0708 13.0919 1009 109.404 1175.7 478.401
2271 0 80.1745 12.4354 997 109.485 1176.08 480.223
2272 0 81.1802 12.4045 1007 112.118 1175.04 475.978
2273 0 82.1518 10.4806 861 117.501 1175.21 475.901
2274 0 86.1759 13.2404 1141 111.083 1175.24 473.792
2275 0 90.1846 13.0288 1175 111.274 1174.97 473.718
2276 0 87.1062 10.9177 951 119.96 1174.3 470.24
2277 0 92.1308 11.2557 1037 118.488 1173.85 469.883
2278 0 94.1282 11.325 1066 120.082 1174.03 466.084
2279 0 96.0881 12.2492 1177 118.94 1174.03 466.127
2280 0 99.1557 11.6786 1158 120.094 1173.03 463.802
2281 0 100.228 11.0049 1103 123.409 1173.11 460.539
2282 0 102.161 11.5896 1184 122.34 1172.58 458.655
2283 0 107.178 12.4839 1338 120.169 1172.93 460.14
2284 0 111.12 12.383 1376 121.125 1172.26 457.469
2285 0 112.225 11.5304 1294 124.653 1171.35 455.726
2286 0 116.169 12.1203 1408 123.29 1171.73 450.69
2287 0 120.215 11.729 1410 123.877 1171.42 449.279
2288 1 68.219 11.3898 777 113.797 1170.19 476.224
2289 0 70.2394 10.2934 723 118.68 1170.71 473.683
2290 0 69.1914 10.218 707 112.467 1171.83 478.173
2291 0 72.1294 10.8278 781 111.28 1172.47 480.656
2292 0 75.1129 12.4612 936 109.08 1172.25 479.259
2293 0 77.0998 12.2309 943 109.674 1171.94 477.385
2294 0 80.1285 12.9168 1035 107.72 1173.31 475.449
2295 0 82.1931 11.9596 983 110.033 1172.76 475.191
2296 0 85.0712 11.7901 1003 109.865 1172.6 473.717
2297 0 87.134 11.1552 972 111.224 1172.74 471.638
2298 0 90.2072 11.6399 1050 109.812 1172.88 471.071
2299 0 92.27 11.022 1017 111.042 1172.73 469.785
2300 0 99.2239 13.656 1355 102.525 1173.07 464.778
2301 0 101.148 13.9893 1415 100.416 1171.89 458.611
2302 0 101.197 11.0971 1123 109.744 1171.78 463.5
2303 0 106.191 12.2986 1306 105.982 1171.3 462.484
2304 0 105.243 9.98641 1051 111.562 1171.84 462.435
2305 0 108.122 11.2928 1221 110.549 1171 460.609
2306 0 111.173 11.3427 1261 110.059 1171.63 461.071
2307 0 114.155 12.0276 1373 109.037 1171.73 456.577
2308 0 118.207 10.8538 1283 111.609 1171.21 456.693
2309 0 121.229 11.9361 1447 109.977 1171.24 450.536
2310 0 123.233 10.4598 1289 113.142 1171.21 449.621
2311 0 128.166 11.095 1422 112.297 1171.69 447.757
2312 0 135.21 11.7225 1585 111.011 1171.68 443.913
2313 0 140.275 11.8125 1657 111.042 1171.11 443.683
2314 1 77.1445 10.4739 808 106.467 1172.75 476.291
2315 0 77.1343 9.9437 767 109.497 1172.02 473.102
2316 0 81.0748 11.9519 969 104.766 1172.33 472.649
2317 0 84.1455 12.0268 1012 102.499 1170.06 472.208
2318 0 87.2028 11.3758 992 103.02 1169.2 468.71
2319 0 86.21 12.4695 1075 102.623 1169.03 467.564
2320 0 87.295 10.3099 900 109.022 1169.85 467.328
2321 0 91.2161 11.7742 1074 105.953 1171.7 468.783
2322 0 95.1936 12.4378 1184 104.866 1172.07 466.704
2323 0 95.1315 9.95464 947 112.897 1172.17 464.946
2324 0 98.0917 11.4383 1122 110.115 1173.32 466.391
2325 0 101.291 12.4493 1261 108.604 1172.46 462.025
2326 0 105.075 12.3911 1302 108.694 1172.34 463.157
2327 0 106.174 11.3964 1210 111.873 1173.26 459.055
2328 0 108.101 9.96294 1077 116.626 1172.61 455.732
2329 0 113.129 12.5963 1425 110.512 1172.39 456.318
2330 0 114.254 12.1309 1386 112.696 1172.15 454.31
2331 0 118.215 11.4875 1358 114.11 1172.54 452.818
2332 0 123.198 11.4612 1412 112.844 1172.54 451.283
2333 0 122.188 11.7033 1430 113 1172.48 446.151
2334 0 128.249 13.4582 1726 107.878 1172.02 448.217
2335 0 133.224 12.19 1624 111.735 1172.45 442.048
2336 0 138.204 11.2081 1549 112.708 1171.81 444.895
2337 0 141.297 12.6329 1785 110.081 1172.51 441.444
2338 1 83.2265 11.0902 923 107.522 1173.35 470.319
2339 0 86.3263 11.0163 951 109.647 1173.6 465.777
2340 0 89.2471 11.3953 1017 108.892 1173.36 464.792
2341 0 92.3173 11.7963 1089 103.999 1172.07 460.468
2342 0 92.3023 10.0648 929 109.546 1171.74 458.538
2343 0 97.437 10.5299 1026 109.069 1171.55 457.315
2344 0 99.4024 12.1023 1203 107.125 1171.46 454.254
2345 0 101.364 10.2404 1038 110.745 1172.04 454.533
2346 0 106.531 13.6016 1449 103.119 1171.99 452.916
2347 0 110.43 12.4695 1377 106.232 1172.69 451.234
2348 0 112.399 12.9004 1450 106.406 1172.06 448.705
2349 0 114.41 13.0146 1489 106.71 1172.35 446.253
2350 0 116.337 12.8678 1497 108.174 1172.35 445.526
2351 0 119.385 10.931 1305 113.005 1173.17 442.119
2352 0 123.176 12.267 1511 111.152 1172.8 442.847
2353 0 127.178 11.6844 1486 113.277 1172.68 438.821
2354 0 130.217 10.782 1404 114.974 1172.35 440.183
2355 0 134.143 11.2343 1507 116.225 1173.14 435.127
2356 0 134.254 10.8526 1457 119.272 1172.59 427.772
2357 0 142.305 13.2251 1882 112.558 1172.82 429.281
2358 0 145.5 12.2612 1784 115.647 1173.04 427.718
2359 0 150.371 13.367 2010 113.72 1173.02 426.018
2360 0 154.261 12.615 1946 116.664 1172.98 422.185
2361 0 158.315 11.4392 1811 119.384 1173.48 420.494
2362 0 163.19 11.9002 1942 119.194 1173.38 418.303
2363 0 168.258 11.9162 2005 119.272 1173.45 415.322
2364 0 174.213 12.1747 2121 119.794 1173.88 411.565
2365 0 177.404 12.3785 2196 120.266 1174.38 407.507
2366 0 183.413 12.2511 2247 121.507 1174.16 402.016
2367 0 191.564 13.4107 2569 118.937 1173.71 399.161
2368 0 195.438 13.283 2596 119.808 1173.96 398.604
2369 0 201.406 12.6759 2553 122.412 1173.82 395.078
2370 1 47.013 9.16768 431 100.794 1173.07 471.387
2371 0 47.1304 8.91145 420 103.638 1175.27 480.905
2372 0 48.1219 8.18754 394 107.66 1174.65 478.292
2373 0 50.2608 10.2465 515 103.614 1175.87 476.089
2374 0 50.1551 8.13476 408 109.125 1174.35 475.676
2375 0 53.1875 10.4724 557 103.025 1174.6 475.307
2376 0 55.1505 9.68259 534 104.667 1173.45 475.008
2377 0 55.1674 9.37148 517 106.855 1172.84 474.273
2378 0 57.1156 9.68211 553 107.288 1173.73 472.141
2379 0 61.1148 11.2739 689 104.061 1174.01 469.771
2380 1 20.0086 6.64715 133 93.3459 1176.78 493.226
2381 0 23.0482 7.37586 170 91.3235 1179.27 491.124
2382 0 22.0199 7.53864 166 92.9639 1179.18 489.56
2383 0 24.0582 7.98066 192 91.9948 1179.61 490.109
2384 0 22.007 6.63426 146 95.6233 1178.93 492.247
2385 0 24.0123 8.87047 213 91.9484 1178.8 491.85
2386 0 23.0128 9.60333 221 108.805 1178.85 491.896
2387 0 25.0068 8.63765 216 91.2454 1178.38 492.745
2388 0 27.0181 8.88294 240 90.9792 1177.95 492.708
2389 0 26.0099 6.80509 177 95.3446 1177.51 493.141
2390 0 25.0346 9.5468 239 92.9749 1177.47 490.69
2391 0 26.0252 8.56861 223 93.9282 1177.24 489.861
2392 0 27.0598 7.31712 198 95.505 1175.77 489.303
2393 0 25.0429 7.62692 191 96.377 1175.6 489.482
2394 0 28.0255 7.6716 215 94.5674 1176.95 492.144
2395 0 29.0204 9.1315 265 91.8906 1177.64 492.106
2396 0 29.0685 9.18521 267 90.8502 1177 490.536
2397 0 28.0441 7.95177 223 93.5605 1176.04 491.242
2398 0 27.0147 8.84702 239 93.7113 1176.27 492.276
2399 0 30.0181 7.42886 223 96.0269 1178.12 490.987
2400 0 27.1579 8.10078 220 96.1364 1173.55 480.05
2401 0 30.0955 10.0015 301 90.8771 1173.58 486.92
2402 0 27.0441 7.17347 194 97.8814 1175.39 489.247
2403 0 30.0174 8.79491 264 92.6477 1177 490.553
2404 0 36.1324 7.7216 279 91.6057 1175.63 489.717
2405 0 28.0402 8.73744 245 89.6612 1174.52 487.935
2406 0 31.126 8.28889 258 87.3915 1174.93 487.853
2407 0 35.1706 6.68172 235 90.0638 1176.06 486.651
2408 0 37.0554 6.01801 223 91.8879 1173.09 483.408
2409 0 37.0661 6.58283 244 91.4959 1172.77 485.73
2410 0 30.0631 7.05183 212 92.9481 1173.37 487.377
2411 0 34.0392 7.72638 263 91.3688 1174.1 487.981
2412 0 25.0091 7.07743 177 89.3107 1174.16 481.209
2413 0 26.0075 6.34433 165 89.9818 1173.92 482.552
2414 0 29.038 8.54054 248 84.0726 1174.3 482.516
