time division length width area intensity CMx CMy
0 0 41.052 13.9823 574 109.603 1188.05 474.073
1 0 41.0624 15.0259 617 106.942 1188.73 474.248
2 0 41.0221 14.7725 606 109.487 1188.79 474.71
3 0 43.0358 14.4531 622 110.99 1189.5 473.957
4 0 42.03 15.6555 658 110.462 1189.45 473.733
5 0 44.0178 14.1761 624 114.973 1189.3 474.22
6 0 46.0343 15.7491 725 111.477 1188.43 472.403
7 0 46.0343 15.7491 725 149.978 1188.43 472.403
8 0 46.0382 15.7478 725 149.483 1188.43 472.403
9 0 50.0249 16.1719 809 110.21 1189.15 471.544
10 0 51.0477 16.0634 820 112.107 1189.16 470.817
11 0 50.0291 15.371 769 115.871 1189.05 471.541
12 0 51.0808 14.6435 748 119.143 1188.65 471.349
13 0 54.0255 16.7328 904 112.113 1188.48 471.062
14 0 55.08 15.6318 861 115.475 1188.28 470.892
15 0 57.0453 15.6718 894 115.734 1188.07 469.912
16 0 58.0578 15.7429 914 115.418 1188.1 470.015
17 0 60.0291 16.8085 1009 116.907 1188.17 470.481
18 0 62.0274 16.7507 1039 121.519 1187.06 471.096
19 0 66.0496 17.1992 1136 118.685 1188.05 469.968
20 0 66.0481 16.3063 1077 118.82 1187.7 467.604
21 0 71.0986 18.9877 1350 86.7007 1187.44 466.226
22 0 70.0371 15.9344 1116 121.744 1186.38 467.551
23 0 74.0441 16.8008 1244 121.049 1186.6 467.953
24 0 74.0653 15.7699 1168 121.384 1186.54 465.071
25 0 76.0635 15.1584 1153 122.056 1186.36 463.093
26 1 39.02 11.917 465 121.269 1186.39 482.942
27 0 41.0226 11.579 475 123.945 1185.88 482.352
28 0 44.0526 12.5305 552 120.207 1186.76 482.078
29 0 45.0172 14.1723 638 126.224 1186.06 483.966
30 0 44.0431 12.8965 568 128.662 1185.78 483.863
31 0 44.0407 13.1015 577 131.841 1186.35 483.735
32 0 48.058 13.8374 665 127.439 1186.48 482.011
33 0 49.057 13.5964 667 127.324 1185.85 482.492
34 0 51.016 14.1132 720 126.385 1186.23 481.825
35 0 52.0717 13.0205 678 130.658 1186.05 481.942
36 0 52.0647 14.3667 748 128.814 1185.61 480.529
37 0 54.0387 14.212 768 129.027 1185.88 480.233
38 0 54.0718 13.7225 742 131.154 1185.37 479.159
39 0 59.0501 15.9018 939 122.764 1185.79 478.603
40 0 60.0612 14.3021 859 128.576 1186.65 476.637
41 0 64.0479 14.7077 942 126.241 1185.83 476.964
42 0 65.0311 15.2235 990 126.741 1185.33 475.568
43 0 68.106 15.4612 1053 125.861 1186.29 474.745
44 0 69.0258 14.6467 1011 129.564 1186 472.839
45 0 71.0585 15.2832 1086 127.625 1185.08 473.483
46 0 74.0482 14.8552 1100 132.45 1184.64 471.262
47 0 75.1295 15.4134 1158 133.206 1185.22 470.594
48 0 81.1005 16.0172 1299 129.607 1185.72 469.456
49 0 82.1193 14.9051 1224 132.772 1185.29 467.412
50 0 85.105 15.0872 1284 131.127 1184.51 466.198
51 0 87.0654 15.0576 1311 131.372 1184.5 464.06
52 0 93.1581 15.2751 1423 128.611 1184.58 462.8
53 0 93.1785 15.4435 1439 129.123 1184.95 461.415
54 0 97.1039 14.6132 1419 131.672 1184.71 458.489
55 0 103.157 15.5587 1605 127.491 1184.04 456.303
56 0 104.124 15.4046 1604 128.471 1183.95 452.682
57 1 55.2515 13.1218 725 127.502 1184.31 481.241
58 0 58.1091 13.9737 812 126.994 1184.51 478.832
59 0 57.1391 13.7209 784 130.911 1183.79 477.898
60 0 60.071 14.1166 848 124.295 1184.17 478.646
61 0 62.0738 14.95 928 124.349 1184.57 476.787
62 0 64.152 13.811 886 128.879 1185.05 476.446
63 0 68.1292 15.2211 1037 122.275 1184.76 476.262
64 0 69.1009 14.3558 992 125.775 1184.16 473.891
65 0 73.1816 14.5938 1068 124.105 1183.97 472.325
66 0 75.1724 15.7904 1187 121.683 1184.88 469.922
67 0 76.032 13.6916 1041 127.556 1184.09 470.719
68 0 79.1237 14.7996 1171 124.348 1183.3 470.122
69 0 83.1369 14.422 1199 125.001 1183.71 468.085
70 0 86.0959 15.0414 1295 122.82 1183.69 469.278
71 0 87.1318 14.1854 1236 127.195 1184.08 465.906
72 0 89.1564 15.0859 1345 125.065 1183.86 464.987
73 0 92.0934 15.0934 1390 124.392 1183.86 463.605
74 0 95.0869 14.8706 1414 127.505 1184.37 459.912
75 0 99.1359 15.3728 1524 125.06 1184.19 459.11
76 0 103.096 15.5873 1607 125.885 1184.18 456.772
77 0 107.099 15.0701 1614 126.207 1183.86 455.98
78 0 109.145 14.8793 1624 127.548 1183.84 456.293
79 0 112.131 14.7417 1653 129.884 1183.6 453.281
80 0 116.166 15.0044 1743 129.122 1183.74 450.957
81 0 122.127 15.2219 1859 128.784 1183.77 448.455
82 0 126.107 14.8129 1868 129.537 1183.49 446.121
83 0 130.174 15.0875 1964 128.996 1183.74 446.051
84 0 134.172 15.4876 2078 129.104 1183.98 442.118
85 0 139.189 15.7915 2198 128.782 1183.52 438.108
86 0 145.148 15.5634 2259 130.147 1182.69 435.127
87 0 150.436 14.9897 2255 132.137 1182.52 433.432
88 0 155.135 14.7614 2290 133.308 1182.64 431.12
89 0 161.358 14.6816 2369 134.612 1182.62 426.694
90 0 166.185 15.6813 2606 132.726 1182.5 421.147
91 0 172.238 15.8386 2728 131.551 1182.01 420.552
92 1 89.1336 12.5654 1120 131.945 1182.21 463.98
93 0 89.139 12.5198 1116 133.22 1182.6 461.676
94 0 92.0983 12.9427 1192 132.102 1182.2 460.195
95 0 96.1739 12.4358 1196 133.694 1182.71 458.167
96 0 100.125 13.4332 1345 129.575 1182.86 457.446
97 0 104.187 13.7157 1429 128.26 1182.08 455.298
98 0 108.178 13.8013 1493 128.843 1181.62 453.061
99 0 113.249 13.2805 1504 130.144 1181.91 450.258
100 0 119.233 14.09 1680 126.571 1182.23 448.323
101 0 122.273 14.4349 1765 123.704 1182.26 445.009
102 0 126.231 13.0871 1652 126.85 1182.52 442.982
103 0 132.192 12.7844 1690 126.941 1182.24 443.26
104 0 137.263 13.0771 1795 127.173 1182.27 439.359
105 0 139.17 12.4811 1737 127.763 1182.93 436.613
106 0 148.147 12.8386 1902 124.982 1182.51 434.184
107 0 153.265 14.5434 2229 121.55 1182.02 430.473
108 0 157.191 13.983 2198 123.415 1182.22 425.576
109 0 163.229 13.0491 2130 125.401 1181.48 426.591
110 0 168.183 13.3902 2252 125.507 1181.92 420.106
111 0 173.323 12.9758 2249 125.329 1181.38 419.986
112 0 181.305 13.993 2537 122.821 1181.32 417.035
113 0 187.29 14.3467 2687 122.336 1182.11 408.852
114 0 194.308 13.808 2683 122.494 1182.59 406.704
115 0 199.334 13.9214 2775 122.45 1182.13 403.467
116 0 206.376 13.2137 2727 124.144 1181.95 399.168
117 1 111.27 12.7977 1424 118.407 1182.23 445.659
118 0 117.143 12.4122 1454 118.48 1182.37 445.282
119 0 122.193 12.8813 1574 120.382 1183.39 446.896
120 0 125.171 12.415 1554 122.05 1182.9 442.485
121 0 130.172 12.8369 1671 119.139 1182.49 442.159
122 0 134.194 12.9663 1740 119.522 1181.92 439.108
123 0 143.327 14.289 2048 115.508 1182.62 438.219
124 1 81.0655 11.3735 922 112.882 1183.38 468.364
125 0 83.1818 11.6732 971 113.739 1183.11 466.118
126 0 84.0956 12.7474 1072 113.278 1183.03 463.388
127 0 89.1378 12.318 1098 106.688 1182.65 466.617
128 0 90.2231 10.9728 990 108.247 1183.16 465.928
129 0 94.1786 11.5419 1087 107.948 1182.94 462.848
130 0 97.2373 12.3101 1197 106.582 1182.28 461.956
131 0 100.125 10.6466 1066 110.415 1183.13 458.95
132 0 104.167 12.2015 1271 106.009 1182.68 457.55
133 0 110.156 12.9816 1430 103.776 1181.84 453.775
134 0 113.179 13.2622 1501 102.654 1181.75 452.444
135 0 116.203 13.3215 1548 103.238 1182.25 451.016
136 0 122.222 12.5346 1532 104.025 1182.09 449.806
137 0 124.322 10.7302 1334 109.317 1182.19 447.936
138 1 66.141 9.93333 657 107.277 1183.26 476.96
139 0 67.0917 11.4768 770 106.714 1183.57 474.577
140 0 71.268 12.446 887 102.501 1182.05 472.762
141 0 71.1959 11.6439 829 103.66 1182.44 473.996
142 0 75.2428 12.3999 933 103.069 1182.26 471.1
143 0 76.2128 13.1474 1002 101.258 1182.95 469.829
144 0 77.1528 11.7041 903 105.807 1182.51 468.159
145 0 83.3444 13.2822 1107 101.898 1182.84 465.969
146 0 81.365 11.1473 907 109.605 1183.31 463.871
147 0 86.2694 12.4146 1071 106.897 1183.28 464.225
148 0 89.2838 13.0707 1167 105.588 1183.21 464.165
149 0 94.1768 12.88 1213 105.958 1182.52 462.443
150 0 96.1697 12.9563 1246 106.26 1181.67 459.949
151 0 100.292 14.1686 1421 105.197 1181.26 460.166
152 0 103.32 12.6791 1310 108.227 1181.92 460.897
153 0 105.272 13.4413 1415 107.881 1181.94 456.971
154 0 107.337 11.9065 1278 112.959 1182.08 455.424
155 0 112.196 12.4425 1396 111.21 1182.35 452.145
156 1 59.0862 9.07149 536 111.8 1183.09 480.453
157 0 62.2555 10.5212 655 98.2366 1183.89 474.079
158 0 62.1676 9.12051 567 101.332 1183.16 472.441
159 0 65.1338 11.4226 744 102.082 1182.93 477.571
160 0 67.0489 11.335 760 104.425 1181.1 474.472
161 0 70.0969 11.9121 835 103.511 1180.98 474.59
162 0 71.0568 12.2296 869 105.476 1180.89 471.648
163 0 74.0522 12.0726 894 105.031 1181.37 471.67
164 0 76.1518 13.8276 1053 100.99 1181.98 470.418
165 0 80.1773 12.7468 1022 104.144 1182.12 468.088
166 0 82.1349 11.9194 979 105.284 1182.23 469.494
167 0 85.1578 12.0365 1025 106.315 1182.18 466.036
168 0 89.1603 12.6738 1130 104.476 1181.89 464.882
169 0 93.1953 12.3826 1154 105.136 1181.66 462.694
170 0 95.1601 12.6524 1204 104.35 1181.74 460.409
171 0 102.313 12.7159 1301 104.268 1181.75 460.694
172 0 102.195 13.1317 1342 103.765 1181.99 460.956
173 0 107.206 12.5179 1342 105.592 1181.58 456.354
174 1 54.2338 10.4363 566 107.504 1182.56 479.187
175 0 56.2542 11.0214 620 97.4758 1182.41 477.294
176 0 56.0905 10.7861 605 100.676 1182.41 473.739
177 0 58.2542 11.3125 659 100.637 1182.51 472.775
178 0 61.2757 10.6894 655 100.431 1182.74 475.157
179 0 59.1113 10.7424 635 103.006 1182.47 472.836
180 0 63.0996 11.569 730 101.96 1181.82 472.197
181 0 65.1118 10.9043 710 103.024 1182.45 470.137
182 0 67.1957 10.5215 707 104.313 1181.72 468.01
183 0 71.1216 11.9373 849 101.429 1182.19 468.717
184 0 73.1424 12.1954 892 101.659 1182.22 467.266
185 0 76.1478 11.4777 874 103.656 1182.26 466.578
186 0 78.2814 11.8164 925 104.021 1182.73 466.412
187 0 81.1673 11.7289 952 104.811 1182.55 466.42
188 0 82.178 12.3147 1012 105.296 1181.9 462.576
189 0 87.1463 13.1847 1149 103.111 1182.46 462.793
190 0 88.1698 12.0109 1059 112.619 1182.65 464.295
191 0 92.1728 12.444 1147 112.622 1182.01 461.221
192 0 94.16 11.7566 1107 114.407 1182.22 458.776
193 0 97.1231 12.1907 1184 103.413 1183.38 461.378
194 1 50.0369 11.7913 590 103.524 1183.5 482.912
195 0 52.039 10.9533 570 107.714 1183.71 481.709
196 0 51.1131 10.9365 559 108.59 1183.79 479.333
197 0 53.0775 12.5665 667 105.817 1184.45 478.271
198 0 57.1221 12.0794 690 100.765 1182.31 479.616
199 0 57.141 11.3754 650 103.463 1181.6 479.052
200 0 59.0592 11.6832 690 103.03 1181.31 478.813
201 0 61.0635 11.6109 709 102.458 1182.71 478.027
202 0 63.0386 11.8975 750 102.501 1182.84 475.736
203 0 65.095 11.1376 725 104.401 1182.96 475.473
204 0 67.1269 12.8264 861 101.753 1183.09 475.021
205 0 68.0462 12.3445 840 103.449 1182.68 475.125
206 0 71.1272 11.9364 849 105.208 1182.05 472.747
207 0 74.0468 13.2484 981 101.451 1182.51 471.691
208 0 74.0982 12.389 918 104.034 1182.52 471.749
209 0 77.0911 12.5436 967 104.183 1182.2 470.666
210 0 81.1449 13.7532 1116 101.203 1182.13 470.309
211 0 85.1151 13.9341 1186 102.132 1182.3 466.833
212 0 86.1208 13.6669 1177 103.444 1182.27 466.504
213 0 90.2087 14.6993 1326 101.984 1181.93 464.771
214 0 91.1162 13.5322 1233 107.065 1182.25 462.839
215 0 96.1393 14.375 1382 105.66 1182.74 461.679
216 0 98.204 14.4597 1420 106.432 1181.77 461.644
217 1 49.0619 11.1696 548 109.162 1182.18 484.783
218 0 53.2326 12.5111 666 107.122 1181.79 483.614
219 0 54.1026 12.8829 697 103.39 1182.75 483.007
220 0 55.0683 12.4936 688 103.391 1182.84 482.532
221 0 58.1846 14.4884 843 72.6145 1182.42 480.584
222 0 56.0607 12.094 678 105.963 1183.13 480.676
223 0 60.0683 12.6523 760 103.603 1183.01 479.668
224 0 60.0336 12.5929 756 104.706 1183.01 478.242
225 0 63.0849 12.4911 788 104.704 1182.18 479.14
226 0 67.1081 13.3665 897 102.498 1181.91 475.431
227 0 67.063 12.451 835 106.605 1181.76 474.847
228 0 69.096 12.4609 861 107.274 1182.33 474.707
229 0 72.0776 13.2774 957 107.392 1182.25 471.884
230 0 76.0622 13.6336 1037 107.038 1182.56 472.088
231 0 79.153 14.1372 1119 110.757 1182.74 469.158
232 0 81.1174 13.425 1089 112.88 1182.8 469.043
233 0 84.1915 13.2555 1116 113.507 1182.62 464.871
234 0 84.189 12.7451 1073 115.735 1182.98 462.87
235 0 88.1849 14.1634 1249 112.148 1183.08 462.574
236 0 92.1835 13.2996 1226 114.208 1182.6 462.548
237 0 96.1604 14.3822 1383 112.189 1182.1 458.949
238 0 100.139 14.7595 1478 110.614 1181.71 457.185
239 1 52.0944 10.9033 568 111.729 1182.59 481.232
240 0 55.1519 12.7829 705 108.718 1182.88 479.994
241 0 57.0544 12.4618 711 109.893 1182.9 480.418
242 0 59.0265 13.4346 793 109.008 1182.74 479
243 0 60.0884 13.5134 812 110.525 1182.78 477.624
244 0 63.0479 14.4811 913 107.388 1182.68 476.118
245 0 66.0514 11.7181 774 112.619 1183.05 477.425
246 0 66.193 13.5966 900 110.028 1182.52 472.256
247 0 69.2144 13.1186 908 111.112 1182.19 471.167
248 0 69.289 13.0035 901 112.873 1182.4 466.776
249 0 74.3442 13.3702 994 110.975 1182.16 468.177
250 0 74.2919 11.5356 857 116.092 1182.24 467.734
251 0 78.1924 12.8785 1007 113.611 1181.59 464.69
252 0 79.2435 13.0736 1036 113.866 1182.16 463.389
253 0 83.2125 13.087 1089 114.099 1182.35 461.613
254 0 87.3196 12.7577 1114 113.763 1182.12 461.572
255 0 89.4504 12.6327 1130 113.875 1181.73 461.452
256 0 91.3125 12.7803 1167 115.555 1182.29 457.332
257 0 95.2701 12.5433 1195 116.505 1182.29 456.9
258 0 100.411 13.375 1343 113.407 1181.89 454.81
259 0 104.461 13.4213 1402 112.062 1182.19 453.047
260 0 107.383 13.3727 1436 113.008 1182.31 450.391
261 0 112.47 14.7773 1662 108.424 1182.03 450.708
262 1 58.2355 11.2818 657 105.995 1181.84 477.702
263 0 60.1435 10.4916 631 106.242 1182.49 475.582
264 0 61.0707 11.2165 685 103.601 1181.67 475.835
265 0 63.0474 12.4985 788 101.496 1182.65 475.203
266 0 65.0643 12.3263 802 102.271 1183.46 475.18
267 0 67.09 12.3863 831 102.875 1183.77 473.639
268 0 68.0853 10.9715 747 106.024 1183.06 472.233
269 0 75.0825 12.746 957 101.212 1183.75 473.032
270 0 74.0858 12.499 926 107.753 1183.37 468.764
271 0 77.158 12.9475 999 105.36 1183.23 469.578
272 0 81.0216 11.8981 964 107.81 1183.66 467.396
273 0 82.172 11.9749 984 108.628 1183.58 463.216
274 0 87.0743 12.3573 1076 106.517 1182.26 466.082
275 0 89.1721 11.3264 1010 109.836 1182.23 462.976
276 0 90.2085 11.3737 1026 111.18 1182.07 459.157
277 0 95.2589 12.0724 1150 111.45 1182.8 455.502
278 0 99.2129 12.1355 1204 111.425 1182.28 454.374
279 0 104.32 13.0944 1366 109.504 1182.08 453.625
280 1 55.3454 11.2024 620 103.868 1181.7 480.074
281 0 55.2016 11.2859 623 106.271 1182.19 480.141
282 0 56.0685 11.8783 666 107.716 1182.93 478.631
283 0 61.1101 12.2402 748 107.23 1182.64 477.722
284 0 57.0433 10.2904 587 105.675 1181.24 479.98
285 0 62.0063 11.6924 725 102.07 1181.23 477.629
286 0 63.0339 11.1845 705 104.387 1181.47 476.094
287 0 66.0526 11.0669 731 106.053 1180.72 475.607
288 0 68.1022 11.703 797 105.004 1180.72 473.373
289 0 70.0849 11.4575 803 105.552 1181.48 472.679
290 0 72.0483 11.5062 829 105.55 1181.07 472.478
291 0 75.0736 11.522 865 105.321 1181.33 472.882
292 0 77.0426 12.201 940 104.503 1181.04 471.386
293 0 78.0978 11.7545 918 107.502 1181.22 468.694
294 0 82.06 11.7597 965 106.144 1181.07 469.702
295 0 85.0794 13.1994 1123 103.913 1181.88 466.009
296 0 85.1081 11.5383 982 109.542 1181.56 464.018
297 0 90.0821 10.9678 988 108.658 1181.64 466.051
298 0 94.0842 12.5951 1185 106.657 1182.28 460.146
299 0 95.0796 11.8953 1131 107.37 1181.53 459.143
300 0 100.116 11.7863 1180 107.98 1181.88 457.388
301 1 53.07 10.1187 537 108.099 1181.93 480.214
302 0 55.0487 10.9903 605 106.736 1181.42 479.666
303 0 54.0958 8.61435 466 104.2 1180.53 481.264
304 0 56.0436 9.42124 528 103.093 1181.94 481.742
305 0 57.0533 9.99065 570 102.475 1182.35 480.663
306 0 59.0349 10.3837 613 102.739 1182.97 479.217
307 0 62.1575 10.5377 655 103.51 1182.98 477.647
308 0 65.0673 11.7724 766 103.05 1183.18 475.847
309 0 65.0489 11.6835 760 104.768 1184.48 474.949
310 0 69.0916 10.8262 748 105.33 1184.19 474.959
311 0 72.0905 12.0127 866 103.674 1184.15 473.242
312 0 73.1402 11.4575 838 104.518 1183.6 475.539
313 0 74.0584 12.4631 923 105.413 1183.4 472.751
314 0 78.0623 12.3747 966 108.177 1183.19 468.936
315 0 80.0855 11.5252 923 110.737 1183.02 469.801
316 0 81.1371 12.9904 1054 107.591 1182.24 469.625
317 0 84.1334 12.3257 1037 110.647 1182.74 466.851
318 0 87.0997 11.5959 1010 112.802 1183.64 466.835
319 0 92.185 12.2037 1125 110.419 1183.24 463.723
320 1 49.0394 10.7261 526 106.175 1182.52 486.125
321 0 51.0563 11.2229 573 103.197 1181.77 485.079
322 0 48.0229 10.9531 526 105.894 1182.08 482.574
323 0 51.0542 11.6934 597 103.291 1182.93 485.253
324 0 52.0489 10.6246 553 105.403 1182.5 485.754
325 0 52.1687 9.85264 514 109.899 1183.04 482.778
326 0 56.0822 11.0195 618 106.764 1183.11 482.937
327 0 57.057 11.4272 652 106.69 1183.74 482.097
328 0 56.0772 10.8244 607 110.222 1183.73 481.577
329 0 60.0602 11.7216 704 107.778 1183.93 480.287
330 0 62.1511 12.4535 774 105.351 1183.14 480.822
331 0 64.1088 11.2933 724 109.917 1182.96 478.693
332 0 65.2151 11.6997 763 110.172 1183.38 476.519
333 0 68.1731 11.7055 798 108.872 1182.72 477.383
334 0 72.1751 11.486 829 108.445 1182.6 476.83
335 0 71.0809 10.5795 752 111.327 1183.46 477.799
336 0 75.2514 11.9732 901 109.614 1182.5 473.604
337 0 75.1593 12.1209 911 110.342 1182.83 468.855
338 0 81.0843 11.3586 921 107.043 1181.8 471.357
339 0 82.0923 11.7307 963 107.148 1181.18 469.106
340 0 86.0956 12.068 1039 106.337 1181.67 469.025
341 1 42.0404 10.1331 426 111.892 1181.45 486.817
342 0 44.1707 11.116 491 110.084 1181.71 485.633
343 0 43.1184 11.0858 478 104.169 1181.35 483.23
344 0 42.0442 10.6079 446 108.128 1183.14 489.493
345 0 44.0606 10.7806 475 108.187 1183.11 488.206
346 0 44.0152 10.4282 459 109.826 1183.88 488.026
347 0 43.0705 8.8924 383 114.159 1183.26 488.525
348 0 48.0448 12.1345 583 106.499 1182.64 486.293
349 0 48.047 11.905 572 108.154 1183.1 485.26
350 0 50.051 10.4494 523 109.862 1182.06 486.511
351 0 54.0861 12.1288 656 106.163 1182.19 483.747
352 0 55.0302 11.6663 642 107.187 1183.24 483.813
353 0 55.023 11.6679 642 108.491 1182.47 483.156
354 0 55.0202 10.8869 599 111.117 1182.22 481.3
355 0 59.0145 11.8784 701 108.006 1181.84 479.441
356 0 60.0264 11.3117 679 108.591 1181.64 479.424
357 0 63.0697 11.9075 751 106.129 1181.33 478.76
358 0 64.1256 11.2436 721 106.094 1182.15 478.456
359 0 68.0664 11.3125 770 104.556 1183.88 475.425
360 0 70.0562 11.4337 801 104.519 1183.33 475.71
361 0 72.1613 11.2803 814 103.241 1183.8 476.426
362 0 75.1555 10.6313 799 105.561 1183.48 473.766
363 1 42.0678 10.8159 455 103.369 1183.18 489.646
364 0 44.0339 11.9908 528 99.2273 1182.92 488.265
365 0 44.0242 12.5613 553 97.2622 1182.01 487.24
366 0 44.0633 10.4168 459 102.81 1182.73 487.46
367 0 45.1269 10.9691 495 101.867 1182.46 485.98
368 0 49.0136 14.0369 688 94.3692 1182.8 484.635
369 0 50.0431 12.8289 642 96.8692 1182.98 482.941
370 0 54.0257 13.1789 712 94.4944 1182.5 483.853
371 0 52.0359 11.7803 613 99.0734 1182.35 483.46
372 0 53.0572 11.5347 612 100.25 1183.65 482.951
373 0 55.0439 12.2266 673 98.211 1183.08 481.801
374 0 57.027 11.7664 671 99.608 1182.47 480.939
375 0 60.038 12.0757 725 98.2786 1181.29 481.018
376 0 62.0688 13.5495 841 95.0547 1181.38 477.954
377 0 65.0521 12.9896 845 95.303 1181.7 480.127
378 0 66.0581 13.0037 859 96.1071 1181.79 477.666
379 0 68.0338 11.656 793 99.1475 1182.17 476.26
380 0 72.1571 13.4013 967 94.5408 1181.8 472.907
381 0 74.0961 12.1464 900 98.7356 1181.27 473.45
382 0 74.0698 12.2317 906 99.0419 1182.48 471.958
383 1 40.0463 11.7864 472 97.4767 1181.85 490.926
384 0 42.054 11.2237 472 99.9703 1182.47 489.492
385 0 42.0609 11.4833 483 96.6066 1182.84 490.304
386 0 42.0164 12.0429 506 95.2727 1182.83 488.573
387 0 41.0613 10.9105 448 99.6719 1184.52 487.261
388 0 44.0623 11.3703 501 98.1297 1182.85 487.752
389 0 47.0491 12.0087 565 96.6071 1182.22 486.189
390 0 49.0887 11.9376 586 96.9915 1182.97 484.696
391 0 50.1326 11.709 587 98.1039 1182.89 484.591
392 0 52.1 12.2841 640 97.0406 1183.07 484.055
393 0 54.0661 11.5599 625 99.3088 1183.62 481.584
394 0 54.0539 14.0045 757 95.3593 1183.44 481.642
395 0 55.1069 12.3034 678 98.9543 1183.2 483.156
396 0 57.0567 12.4087 708 100.295 1183.47 479.484
397 0 58.1098 11.4783 667 102.477 1183.31 478.913
398 0 60.0447 11.5081 691 102.174 1183.88 476.751
399 0 62.0762 11.4859 713 102.181 1183.21 478.499
400 0 64.1221 12.2423 785 101.824 1183.05 476.382
401 0 69.084 12.5355 866 99.2367 1183.11 476.348
402 0 69.1671 12.3614 855 100.646 1183.27 473.847
403 0 72.2049 11.412 824 101.591 1183.9 475.268
404 0 75.1321 11.553 868 101.631 1183.6 472.287
405 0 77.1427 11.4982 887 103.151 1183.82 470.689
406 1 41.0347 10.2109 419 103.53 1184.31 489.449
407 0 43.0801 11.1885 482 99.0685 1184.61 489.624
408 0 44.0414 11.3984 502 105.002 1184.76 487.277
409 0 45.0628 11.4951 518 100.143 1184.26 488.568
410 0 46.0198 12.2121 562 99.6708 1184.1 487.037
411 0 46.0771 11.6761 538 102.206 1184.53 486.229
412 0 50.0672 12.4632 624 100 1184.49 486.05
413 0 51.0757 12.3542 631 100.981 1184.43 484.65
414 0 50.0931 12.8561 644 101.683 1183.86 484.132
415 0 51.1499 11.1828 572 104.619 1184.12 484.552
416 0 54.1672 12.9229 700 100.049 1183.94 481.306
417 0 57.0837 12.1926 696 101.191 1184.13 481.772
418 0 58.1887 12.6141 734 99.2643 1184.17 483.056
419 0 59.1154 11.5706 684 101.262 1184.16 481.654
420 0 63.0422 12.674 799 97.8022 1183.27 481.061
421 0 63.098 12.2825 775 100.334 1183.77 478.237
422 0 66.1207 12.8099 847 98.1995 1183.82 478.241
423 0 66.0796 11.6526 770 101.316 1184.35 477.088
424 0 69.0468 13.0491 901 98.5805 1184.08 475.262
425 0 69.1988 11.5464 799 101.952 1184.39 474.626
426 0 74.1497 13.0277 966 98.383 1183.53 473.316
427 0 79.071 12.8871 1019 96.5113 1183.41 473.721
428 0 79.1132 11.1486 882 100.639 1183.08 472.173
429 0 81.0867 12.1845 988 100.103 1183.56 469.039
430 1 42.0376 10.2052 429 101.788 1182.01 489.296
431 0 45.0289 9.43839 425 101.675 1182.1 488.621
432 0 46.0194 10.5825 487 99.193 1182.22 487.879
433 0 46.0206 11.3427 522 98.0517 1182.37 484.563
434 0 50.0653 11.1055 556 97.0324 1181.7 485.854
435 0 50.0957 11.6178 582 97.5911 1182.14 484.832
436 0 51.0591 11.5552 590 96.4678 1182.65 483.327
437 0 53.0244 13.0695 693 93.7446 1183.66 481.86
438 0 56.0931 13.2637 744 92.3629 1183.63 482.099
439 0 57.1176 13.4635 769 91.2198 1183.48 481.408
440 0 59.0532 12.5649 742 93.1725 1182.95 480.652
441 0 59.0281 11.8418 699 95.3562 1183.37 479.449
442 0 60.1453 11.0399 664 96.9473 1183.98 479.92
443 0 64.0618 12.4879 800 94.275 1183.1 478.686
444 0 66.0964 12.3607 817 94.2387 1183.43 475.673
445 0 68.0629 12.1358 826 95.2542 1183.05 474.973
446 0 69.0658 11.6121 802 96.5885 1183.94 473.443
447 0 71.0463 11.3025 803 98.4545 1183.5 475.437
448 0 73.2669 11.2193 822 98.6654 1183.88 474.85
449 0 77.1909 12.2553 946 97.3309 1183.36 473.017
450 0 78.078 11.5141 899 98.5684 1183.16 473.749
451 0 83.1932 11.4673 954 98.4277 1183.3 471.382
452 0 86.2446 11.7457 1013 98.7167 1183.03 467.735
453 0 87.1153 10.8936 949 100.915 1182.61 467.357
454 0 91.2957 11.1287 1016 99.8681 1183.03 468.661
455 1 46.0206 11.2341 517 99.9981 1182.61 486.443
456 0 48.0676 10.8805 523 100.541 1182.15 485.78
457 0 48.0298 11.597 557 99.2118 1182.44 486.122
458 0 52.086 12.153 633 95.9984 1183.11 485.719
459 0 49.0506 11.0702 543 99.337 1182.43 484.328
460 0 52.0736 11.3685 592 98.5591 1182.6 485.421
461 0 52.0478 11.3549 591 99.6887 1182.78 484.79
462 0 55.2367 11.1701 617 99.5284 1182.86 483.019
463 0 55.0446 10.9366 602 101.515 1182.32 482.045
464 0 58.0847 11.9653 695 98.9655 1182.37 480.659
465 0 60.0664 11.7537 706 99.2096 1182.4 480.533
466 0 64.0742 11.2526 721 99.7434 1182.23 479.38
467 0 63.112 11.3132 714 100.183 1182.19 479.483
468 0 67.0757 12.8064 859 96.5343 1182.21 476.482
469 0 67.0639 11.5114 772 99.4702 1181.89 476.417
470 0 69.1724 11.8111 817 98.3219 1181.93 475.213
471 0 73.0738 11.4679 838 98.432 1181.7 473.436
472 0 75.0567 11.1249 835 99.0467 1182.51 472.552
473 0 78.1058 12.4703 974 96.9661 1182.63 471.73
474 0 80.1467 12.9762 1040 97.0087 1182.08 468.111
475 0 83.1751 12.5037 1040 96.9606 1182.45 470.114
476 0 86.1458 11.0162 949 100.109 1182.58 468.671
477 0 88.0386 11.8584 1044 98.842 1182.22 464.717
478 0 91.2415 11.6394 1062 99.5358 1181.82 464.476
479 0 94.1332 12.5992 1186 97.2732 1182.54 463.53
480 0 97.1921 11.8837 1155 107.168 1182.43 459.555
481 0 104.132 12.7435 1327 104.564 1182.7 460.806
482 0 104.13 12.1194 1262 108.18 1182.89 458.834
483 0 108.081 12.1668 1315 108.735 1181.95 457.564
484 0 113.222 12.8862 1459 107.79 1182.11 452.936
485 0 115.11 12.6488 1456 108.933 1182.32 451.224
486 0 120.104 12.7473 1531 108.197 1182.45 449.649
487 1 61.1923 10.181 623 105.199 1182.12 480.371
488 0 64.0244 12.6358 809 96.5723 1182.64 478.225
489 0 69.1118 12.4147 858 95.5746 1182.04 477.855
490 0 69.1126 12.9933 898 103.306 1183 474.131
491 0 71.1191 12.5423 892 104.543 1183.4 474.485
492 0 72.0909 13.1223 946 105.052 1183.53 471.957
493 0 75.1704 11.7599 884 107.722 1183.26 471.102
494 0 78.1474 12.4252 971 106.567 1183.39 468.979
495 0 78.0691 11.8485 925 108.437 1183.74 468.679
496 0 84.1981 12.6844 1068 105.41 1183.98 467.795
497 0 86.1689 12.7192 1096 105.563 1183.83 466.177
498 0 87.1657 12.0575 1051 108.438 1184.22 463.419
499 0 92.1832 13.5166 1246 105.374 1183.59 462.453
500 0 91.1276 12.2466 1116 112.013 1183.51 460.832
501 0 96.1777 11.9154 1146 114.872 1183.7 459.575
502 0 99.1256 12.0554 1195 113.351 1182.72 456.968
503 0 102.102 11.6746 1192 113.362 1182.73 456.724
504 0 104.096 9.27033 965 117.965 1182.05 455.989
505 0 108.106 12.3767 1338 111.31 1182.63 456.598
506 0 111.135 11.2926 1255 115.994 1183.23 451.578
507 0 114.09 12.4376 1419 112.35 1183.42 450.572
508 0 120.21 11.6047 1395 108.615 1183.97 446.636
509 0 121.107 10.5527 1278 112.218 1182.91 442.7
510 0 128.178 11.2812 1446 109.571 1182.78 444.94
511 0 131.11 10.5179 1379 112.037 1182.61 441.732
512 0 134.1 11.6182 1558 111.031 1182.98 438.094
513 0 140.202 11.7759 1651 111.127 1182.99 440.693
514 0 146.342 12.3819 1812 112.512 1182.52 433.841
515 0 149.146 11.3446 1692 115.369 1183.2 433.099
516 0 154.457 11.22 1733 115.436 1182.98 427.2
517 1 82.3035 12.4175 1022 107.61 1183.17 468.209
518 0 82.3035 12.4418 1024 129.456 1182.13 467.985
519 0 87.119 12.1902 1062 114.86 1182.29 467.598
520 0 90.1086 14.3494 1293 111.667 1182.81 464.094
521 0 94.1753 12.4024 1168 117.402 1182.56 463.211
522 0 96.1973 12.807 1232 116.645 1181.89 460.208
523 0 100.093 13.2876 1330 115.502 1181.45 458.998
524 0 102.174 12.9877 1327 117.76 1181.81 456.809
525 0 105.063 12.7542 1340 118.344 1182.38 458.574
526 0 108.121 13.1426 1421 118.295 1181.93 454.779
527 0 111.083 13.2334 1470 118.314 1181.9 453.486
528 0 113.137 13.2052 1494 118.909 1182.34 452.98
529 0 117.115 12.5603 1471 121.544 1182.98 450.516
530 0 120.088 12.724 1528 121.075 1182.28 451.503
531 0 125.175 12.2868 1538 122.826 1182.59 447.606
532 0 130.114 12.3046 1601 121.089 1181.95 445.305
533 0 135.142 12.4092 1677 119.269 1181.76 445.007
534 0 139.151 11.8504 1649 120.763 1182.15 440.152
535 0 144.199 11.2136 1617 115.671 1182.7 440.942
536 1 77.1941 11.2832 871 108.789 1183.3 472.497
537 0 79.0549 12.3838 979 108.06 1183.39 470.005
538 0 79.1796 11.8086 935 118.155 1183.64 469.938
539 0 82.0809 13.2065 1084 115.431 1183.47 467.89
540 0 85.15 13.9753 1190 113.229 1183.4 467.677
541 0 90.3236 12.2006 1102 123.39 1183.88 466.385
542 0 92.1811 11.6293 1072 125.64 1184.19 464.272
543 0 96.1657 12.5616 1208 123.925 1184.32 461.911
544 0 99.1499 12.3752 1227 125.676 1183.72 461.358
545 0 101.176 12.0483 1219 125.287 1183.62 461.94
546 0 108.144 12.3447 1335 122.966 1183.31 458.052
547 0 108.145 12.6867 1372 120.982 1184.07 455.432
548 0 110.053 13.6752 1505 119.715 1183.98 453.284
549 0 113.152 12.576 1423 122.286 1183.26 453.564
550 0 116.148 12.1655 1413 114.194 1182.57 453.044
551 0 120.167 13.0569 1569 112.236 1183.63 446.483
552 0 122.257 10.7724 1317 116.807 1183.22 451.422
553 0 124.15 11.6553 1447 117.451 1182.1 444.588
554 0 130.187 12.2823 1599 116.8 1182.22 444.03
555 0 136.284 13.5085 1841 114.204 1182.22 439.916
556 0 140.146 11.7663 1649 121.488 1182.1 438.133
557 0 145.168 10.5189 1527 123.12 1183.42 439.79
558 1 82.0914 9.44069 775 115.252 1183.16 469.084
559 0 86.2369 11.364 980 111.148 1182.63 463.939
560 0 86.1051 9.97618 859 115.381 1181.76 461.661
561 0 94.1405 11.8865 1119 110.956 1182.81 465.377
562 0 96.0985 12.3831 1190 111.203 1182.91 461.687
563 0 97.1835 10.8763 1057 114.654 1182.49 461.264
564 0 101.108 11.552 1168 113.304 1182.7 458.722
565 0 104.061 10.5227 1095 115.854 1183.13 458.569
566 0 109.142 11.5446 1260 114.198 1183.31 456.519
567 0 113.184 10.991 1244 116.871 1182.67 455.606
568 0 117.247 11.6336 1364 116.071 1183.32 450.859
569 0 120.319 10.0982 1215 118.938 1183.53 449.944
570 1 69.2431 8.47738 587 110.475 1183.94 478.274
571 0 71.1535 10.119 720 109.462 1183.87 474.764
572 0 72.1126 9.97051 719 109.357 1183.98 472.762
573 0 76.0593 10.505 799 108.492 1183.08 472.498
574 0 77.079 11.8709 915 106.296 1183.03 470.562
575 0 78.0742 11.0024 859 109.022 1183.47 471.107
576 0 83.1783 12.2869 1022 106.015 1183.51 469.289
577 0 84.1004 11.9976 1009 107.505 1184.03 468.244
578 0 88.205 12.9584 1143 107.44 1183.86 466.605
579 0 90.0698 11.6354 1048 109.833 1181.92 465.905
580 0 91.1115 11.4036 1039 111.311 1182.23 463.834
581 0 94.0934 12.2538 1153 110.837 1182.55 460.925
582 0 98.0449 12.3923 1215 111.942 1182.9 460.973
583 0 98.0718 12.1646 1193 115.991 1183.49 460.826
584 0 101.118 11.4125 1154 116.27 1182.97 461.542
585 0 106.167 11.6421 1236 115.825 1182.69 460.303
586 0 108.282 12.1904 1320 113.665 1182.27 457.778
587 0 113.206 11.3775 1288 115.528 1182.98 454.917
588 1 62.1308 11.2505 699 113.205 1182.84 479.74
589 0 64.0692 11.3159 725 113.821 1183.82 477.407
590 0 65.0932 12.1518 791 108.451 1182.26 478.91
591 0 68.1024 11.4533 780 109.433 1181.85 477.173
592 0 65.087 11.3079 736 112.876 1181.61 477.95
593 0 70.1574 11.4599 804 110.072 1180.95 477.348
594 0 71.1673 11.2411 800 111.232 1180.72 475.134
595 0 74.2552 10.6525 791 111.912 1180.97 472.549
596 0 77.1939 12.0217 928 107.797 1181.22 471.637
597 0 79.2246 11.5242 913 108.158 1181.76 471.675
598 0 83.3039 11.248 937 108.143 1181.67 470.727
599 0 85.3563 11.3407 968 107.038 1181.43 470.889
600 0 89.1424 11.9696 1067 106.738 1181.79 465.351
601 0 93.1025 12.2553 1141 104.196 1182.26 467.7
602 0 95.2909 11.9109 1135 104.971 1182.32 463.344
603 0 96.2567 10.7006 1030 107.748 1182.33 461.686
604 0 103.16 13.009 1342 101.935 1182.48 459.471
605 1 53.1994 10.1317 539 103.655 1180.91 485.013
606 0 54.1936 11.6988 634 101.628 1181.17 483.8
607 0 55.1473 10.9343 603 97.9801 1182.27 482.841
608 0 54.1507 9.7875 530 99.9321 1182.25 481.872
609 0 55.0683 11.2224 618 97.3706 1182.53 481.116
610 0 57.0615 11.5665 660 97.503 1182.22 481.38
611 0 59.1368 11.5326 682 95.6818 1181.99 480.346
612 0 61.1341 11.2703 689 96.1596 1182.36 479.993
613 0 60.1051 10.7146 644 98.0761 1182.58 480.415
614 0 63.1466 11.0853 700 96.5514 1182.26 477.754
615 0 65.0951 11.1068 723 96.9142 1182.58 477.628
616 0 68.0392 11.3464 772 95.6736 1182.32 477.049
617 0 69.0651 10.2512 708 99.7754 1182.94 475.805
618 0 72.06 12.2259 881 95.9012 1182.54 473.876
619 0 72.0917 12.2206 881 97.4779 1183.18 472.793
620 0 74.0933 11.607 860 100.148 1183.67 473.97
621 0 79.1426 11.9278 944 98.8877 1183.05 473.842
622 0 82.1034 12.2528 1006 99.3748 1183.03 470.562
623 0 83.1004 11.5162 957 100.968 1182.36 470.913
624 0 84.1166 11.1869 941 103.384 1182.76 468.187
625 0 89.1038 12.3003 1096 101.276 1182.31 466.89
626 0 93.0517 11.6602 1085 102.423 1181.31 464.282
627 1 50.0229 9.73553 487 102.573 1181.49 487.832
628 0 51.1924 11.3689 582 102.856 1183.37 482.287
629 0 53.2195 11.5747 616 102.799 1183.65 482.008
630 0 55.044 12.6263 695 106.58 1181.78 483.909
631 0 56.0932 12.9962 729 108.037 1181.81 481.767
632 0 58.0373 12.7677 741 108.978 1181.79 483.097
633 0 60.0513 12.7891 768 110.389 1181.48 481.255
634 0 62.0465 12.0232 746 111.946 1181.61 480.673
635 0 63.0892 11.3173 714 114.798 1181.84 480.609
636 0 68.0652 13.4136 913 109.245 1181.91 478.314
637 0 69.0827 13.1437 908 110.463 1181.83 477.865
638 0 72.0706 13.7088 988 109.597 1182.34 476.419
639 0 73.1535 13.0001 951 112.127 1181.32 476.044
640 0 77.0567 14.6126 1126 108.328 1181.73 473.602
641 0 77.0897 12.933 997 114.319 1181.54 472.709
642 0 80.0958 13.6337 1092 112.979 1182.17 470.31
643 0 83.1217 13.0772 1087 114.474 1181.56 469.634
644 0 87.0926 14.6281 1274 111.395 1181.51 468.016
645 0 88.0838 13.226 1165 116.055 1181.94 467.427
646 0 91.0826 13.7019 1248 115.828 1182.06 464.704
647 0 94.0981 13.6985 1289 116.467 1182.47 462.501
648 0 98.1158 14.3504 1408 114.374 1182.16 464.558
649 0 99.1096 12.9856 1287 119.455 1182.6 462.918
650 0 104.12 15.2325 1586 113.583 1182.28 460.114
651 0 102.164 12.9009 1318 117.181 1181.97 462.866
652 0 108.104 13.1169 1418 114.024 1181.72 461.791
653 1 59.0534 12.1246 716 109.55 1181.31 484.221
654 0 60.0586 11.6553 700 111.971 1182.41 483.393
655 0 64.0454 13.4904 864 115.009 1182.14 481.177
656 0 65.1145 13.9907 911 115.025 1181.8 478.562
657 0 66.152 12.6829 839 119.465 1181.26 478.218
658 0 70.1247 13.4617 944 117.68 1181.65 476.898
659 0 73.0657 14.0011 1023 115.718 1181.81 478.105
660 0 74.1285 14.4884 1074 115.722 1181.85 477.214
661 0 75.1067 12.8218 963 123.746 1182.57 473.605
662 0 79.1525 13.9225 1102 121.179 1182.46 473.031
663 0 82.2214 13.9501 1147 121.147 1182.42 472.541
664 0 83.0659 13.7602 1143 121.062 1181.94 470.479
665 0 86.15 13.3256 1148 120.399 1182.19 471.705
666 0 89.1876 14.6769 1309 118.354 1182.1 469.452
667 0 91.1752 14.017 1278 121.143 1182.38 466.596
668 0 94.2515 13.464 1269 121.665 1182.12 466.004
669 0 98.194 13.677 1343 120.621 1181.45 465.161
670 0 100.229 13.3793 1341 121.359 1182.79 462.544
671 1 51.0564 11.3796 581 115.088 1183.31 485.52
672 0 56.062 12.95 726 111.044 1180.56 482.836
673 0 56.0709 12.1988 684 113.692 1182.52 484.538
674 0 59.0481 12.6168 745 112.362 1182.59 483.439
675 0 61.0774 12.8034 782 112.251 1182.68 481.407
676 0 62.0385 12.5406 778 113.923 1182.6 480.753
677 0 66.0482 12.5212 827 112.715 1182.86 481.684
678 0 67.0323 13.501 905 111.572 1183.11 479.544
679 0 69.0682 13.2767 917 112.957 1182.75 477.557
680 0 71.0849 13.8145 982 111.542 1182.55 476.547
681 0 75.1101 13.9129 1045 111.698 1183.41 476.234
682 0 76.148 14.6688 1117 110.143 1183.15 474.385
683 0 78.0602 13.8739 1083 112.693 1182.49 472.127
684 0 81.0959 14.1191 1145 112.142 1182.11 471.445
685 0 83.0965 12.9368 1075 114.734 1182.37 469.765
686 0 87.065 12.7261 1108 115.745 1181.93 469.58
687 0 87.1593 13.3319 1162 116.698 1181.34 468.942
688 0 90.1241 12.2165 1101 119.024 1182.48 468.658
689 0 93.1771 12.7392 1187 116.782 1182.06 467.714
690 1 48.1044 12.5768 605 116.962 1181.7 486.562
691 0 49.0524 11.4571 562 115.731 1182.18 488.375
692 0 50.0462 11.2896 565 113.382 1181.23 486.327
693 0 53.0448 12.103 642 107.41 1181.12 486.05
694 0 55.055 12.0788 665 106.892 1181.19 486.411
695 0 57.0859 12.1921 696 107.366 1182.37 485.17
696 0 59.1131 13.0597 772 105.321 1181.94 481.666
697 0 59.1041 12.4357 735 108.113 1182.2 481.623
698 0 63.1018 13.2326 835 106.083 1183.65 480.813
699 0 64.0396 12.5235 802 108.638 1183.66 480.196
700 0 65.0412 12.6996 826 109.815 1183.68 478.426
701 0 68.0816 12.1031 824 110.6 1183.92 476.944
702 0 71.0393 13.035 926 107.859 1183.34 475.648
703 0 76.1249 14.1084 1074 103.477 1182.72 474.094
704 0 75.1483 12.1227 911 108.995 1182.35 473.389
705 0 78.1118 11.7012 914 106.44 1182.37 470.515
706 0 84.062 13.8826 1167 103.147 1182.81 470.655
707 0 85.0831 11.7885 1003 105.544 1182.2 468.448
708 0 90.0489 12.0934 1089 107.507 1182.84 465.938
709 0 92.0507 12.0368 1108 107.213 1182.87 467.219
710 1 49.094 11.6715 573 107.044 1183.41 487.281
711 0 51.082 12.1373 620 105.179 1181.34 483.16
712 0 52.0443 11.7976 614 104.979 1182.26 485.679
713 0 55.0721 13.3643 736 102.087 1181.68 483.386
714 0 56.0873 13.5147 758 101.197 1181.85 482.227
715 0 58.0889 12.7563 741 103.969 1181.96 481.026
716 0 60.0852 13.3144 800 101.518 1182.42 481.274
717 0 60.1446 13.5174 813 103.809 1181.87 479.394
718 0 64.0632 13.6896 877 101.901 1181.84 478.734
719 0 66.0695 14.4393 954 99.891 1182.05 477.547
720 0 68.0553 12.9747 883 104.116 1181.81 477.203
721 0 71.0836 13.8288 983 101.622 1182.16 476.46
722 0 72.0455 12.7836 921 102.815 1181.48 475.884
723 0 75.0775 13.2663 996 101.612 1181.35 474.072
724 0 75.0491 13.5112 1014 101.464 1181.21 472.876
725 0 78.0421 12.9802 1013 101.962 1182.11 472.182
726 0 82.0975 13.2891 1091 100.635 1181.69 470.949
727 0 82.0622 11.5035 944 105.764 1181.68 470.505
728 0 86.2428 12.43 1072 102.881 1182.01 468.519
729 0 90.1343 11.8823 1071 102.46 1182.31 468.151
730 1 48.0433 11.677 561 100.875 1181.99 487.838
731 0 51.043 12.4209 634 99.0379 1181.59 486.345
732 0 50.0239 11.0747 554 102.753 1181.46 486.105
733 0 54.0911 12.5529 679 95.9455 1181.47 485.072
734 0 53.0346 12.1619 645 99.1287 1181.31 484.524
735 0 58.0597 13.6411 792 94.5934 1181.72 483.538
736 0 55.0482 12.5526 691 99.7395 1182.16 483.149
737 0 59.044 12.55 741 97.4507 1181.4 482.524
738 0 59.1135 12.4337 735 98.3388 1182.17 482.626
739 0 63.0375 12.5639 792 97.0126 1181.9 481.902
740 0 65.0426 13.2836 864 96.4213 1182.27 478.676
741 0 68.0601 13.9436 949 94.4889 1182.71 478.386
742 0 68.0421 13.0654 889 96.9932 1182.71 477.649
743 0 71.0431 12.0912 859 98.3236 1182.18 473.46
744 0 74.0569 13.3681 990 96.3232 1182.5 473.964
745 0 77.0882 13.3743 1031 95.2425 1182.51 473.815
746 0 79.1374 13.167 1042 95.5931 1182.65 471.781
747 0 82.0853 14.5093 1191 93.4895 1182.5 468.49
748 0 86.1305 13.2241 1139 95.2704 1182.78 466.946
749 0 89.2106 13.3728 1193 95.5457 1182.26 466.02
750 0 91.0939 12.3499 1125 97.3902 1182.2 466.023
751 0 93.1045 12.8673 1198 97.374 1182.87 463.8
752 0 98.0951 12.7733 1253 97.8476 1182.96 464.039
753 0 104.131 13.243 1379 97.5083 1182.99 454.99
754 0 106.256 13.0346 1385 100.165 1182.49 456.88
755 1 56.0547 11.7028 656 96.843 1183.41 484.279
756 0 56.273 11.9062 670 98.4761 1183.13 480.322
757 0 60.1521 12.9671 780 100.128 1181.99 481.11
758 0 61.0757 14.4083 880 94.7807 1181.68 480.073
759 0 60.0515 12.5892 756 100.101 1181.93 479.992
760 0 65.0492 13.4821 877 97.1824 1181.85 478.727
761 0 67.0433 13.6181 913 97.5915 1182.16 477.865
762 0 68.0253 12.4807 849 100.972 1181.52 477.981
763 0 70.0794 13.0566 915 100.238 1181.02 475.676
764 0 75.0758 13.7062 1029 99.5646 1181.29 473.252
765 0 76.1273 13.8058 1051 99.9886 1181.7 472.717
766 0 79.0549 13.0669 1033 102.209 1181.5 472.901
767 0 80.1454 11.6663 935 105.999 1182.13 469.904
768 0 84.0729 11.4306 961 104.866 1182.61 473.928
769 0 87.119 13.648 1189 102.722 1181.84 467.919
770 0 91.089 12.8336 1169 103.855 1182.51 465.386
771 0 91.098 12.7555 1162 105.35 1182.65 465.658
772 0 96.1736 12.1551 1169 105.412 1181.77 464.244
773 0 98.1121 13.0463 1280 104.049 1182.06 462.635
774 1 53.0832 11.6421 618 105.133 1183.02 483.086
775 0 53.0824 11.1148 590 105.502 1182.89 481.366
776 0 56.0483 12.7212 713 103.18 1181.95 480.065
777 0 58.0389 12.7501 740 103.296 1182.96 480.677
778 0 61.0748 12.3619 755 104.305 1183.26 479.722
779 0 63.0382 13.0397 822 103.19 1182.84 480.451
780 0 65.0524 12.8819 838 104.128 1183.15 478.686
781 0 68.1656 12.4843 851 104.955 1183.43 477.544
782 0 68.1106 12.7146 866 106.284 1183.52 474.589
783 0 73.121 13.211 966 104.386 1183.61 476.027
784 0 75.0816 12.2533 920 107.673 1182.97 473.825
785 0 78.076 13.8455 1081 103.89 1182.93 473.643
786 0 81.1567 13.2337 1074 107.309 1183.11 470.345
787 0 82.1016 12.448 1022 109.913 1183.01 469.368
788 0 86.155 11.9436 1029 110.965 1182.95 467.264
789 0 91.3286 14.081 1286 106.425 1183.08 466.365
790 0 91.1331 13.5406 1234 108.283 1182.7 466.541
791 0 97.0841 13.4523 1306 107.809 1182.53 464.248
792 0 100.124 13.2436 1326 109.41 1182.74 462.367
793 1 53.1214 11.5584 614 110.912 1183.55 482.05
794 0 55.1755 12.4512 687 108.79 1182.87 482.68
795 0 58.0555 12.7292 739 105.549 1182.56 477.246
796 0 60.1466 12.4529 749 110.218 1182.69 480.409
797 0 63.2128 12.3709 782 109.95 1182.85 479.414
798 0 64.1459 12.0507 773 112.041 1182.18 478.378
799 0 68.3426 14.3981 984 105.395 1182.27 477.972
800 0 67.3235 12.0315 810 111.774 1182.34 477.646
801 0 72.1169 11.9528 862 108.817 1182.53 476.529
802 0 72.1004 11.6088 837 111.119 1182.6 475.63
803 0 76.1183 12.5069 952 109.029 1182.22 474.658
804 0 79.1691 12.328 976 109.473 1182.23 473.325
805 0 81.1691 12.8497 1043 107.958 1181.92 473.571
806 0 82.1117 12.9092 1060 109.992 1181.65 470.229
807 0 87.1475 13.6091 1186 107.816 1182.17 469.491
808 0 89.0684 11.4968 1024 109.299 1181.43 471.55
809 0 92.2041 12.6459 1166 105.625 1182.23 465.931
810 0 95.1031 11.6926 1112 108.193 1183.51 466.52
811 0 99.1894 13.0659 1296 107.034 1183.26 463.077
812 1 52.0193 11.9571 622 103.786 1183 486.928
813 0 51.1759 11.6461 596 104.084 1183.41 486.795
814 0 52.1615 11.196 584 107.012 1182.77 483.575
815 0 55.0671 12.4575 686 104.276 1183.22 483.92
816 0 59.0854 11.9657 707 104.33 1182.89 483.45
817 0 61.0441 13.6131 831 100.923 1182.36 480.458
818 0 63.1492 13.8561 875 100.075 1182.7 480.997
819 0 65.0919 12.6437 823 103.13 1182.87 481.211
820 0 63.1387 12.0053 758 106.544 1183.23 478.723
821 0 67.1708 12.2672 824 105.096 1183.34 479.224
822 0 70.0748 13.3857 938 103.366 1183.66 476.736
823 0 71.0651 11.398 810 107.912 1183.66 478.058
824 0 72.1086 11.3301 817 109.61 1183.19 474.661
825 0 76.0685 12.3047 936 108.044 1182.34 472.715
826 0 79.1767 12.0616 955 109.031 1182.98 472.333
827 0 83.0875 13.215 1098 106.368 1183.62 470.568
828 0 85.1522 13.2469 1128 106.866 1183.22 469.676
829 0 88.2307 13.6347 1203 106.546 1182.96 467.301
830 0 89.147 11.6886 1042 112.102 1182.92 466.875
831 0 94.1733 14.6644 1381 105.255 1182.53 463.928
832 0 96.0879 13.2483 1273 108.797 1182.17 463.365
833 0 98.2009 12.2809 1206 111.831 1181.98 461.667
834 0 103.265 13.2088 1364 108.045 1181.95 461.047
835 0 106.231 13.4989 1434 108.24 1181.67 456.252
836 1 53.105 12.2399 650 110.229 1182.54 483.037
837 0 54.039 11.5472 624 113.579 1182.28 481.095
838 0 56.2144 12.5235 704 113.33 1182.22 481.132
839 0 60.149 13.4832 811 110.062 1181.74 480.744
840 0 61.1432 12.3808 757 111.902 1182.24 481.267
841 0 64.1707 12.5758 807 110.922 1182.19 479.752
842 0 66.1942 13.8683 918 108.315 1182.03 478.691
843 0 67.1636 12.9981 873 111.738 1181.33 476.755
844 0 71.1264 12.8644 915 110.792 1181.69 475.48
845 0 73.1284 12.4712 912 112.195 1181.91 474.965
846 0 75.3202 11.9224 898 112.415 1182.03 474.416
847 0 75.3076 12.0174 905 113.629 1181.95 472.604
848 0 82.2694 13.3099 1095 108.426 1181.84 472.955
849 0 83.3057 13.6605 1138 108.338 1182.26 470.888
850 0 86.2182 13.953 1203 109.348 1181.68 469.003
851 0 88.1754 13.3711 1179 111.717 1181.87 467.133
852 0 90.2444 12.167 1098 114.969 1181.59 465.431
853 0 93.3097 12.6246 1178 113.862 1181.79 467.355
854 0 97.2078 13.3837 1301 112.824 1181.72 464.369
855 0 101.268 13.4001 1357 113.187 1181.88 463.481
856 0 103.185 13.0445 1346 115.859 1182.27 458.394
857 0 106.262 13.6925 1455 114.814 1182.59 460.464
858 0 110.209 14.037 1547 115.27 1182 456.407
859 0 112.21 13.3588 1499 117.302 1182.18 455.131
860 1 59.2045 11.7052 693 113.433 1182.17 480.38
861 0 62.1478 12.8243 797 108.703 1182.18 480.807
862 0 62.2476 13.5748 845 110.528 1183.12 482.188
863 0 64.1242 12.3666 793 114.637 1183.03 479.013
864 0 67.3406 13.454 906 111.903 1181.92 478.451
865 0 68.0691 12.9721 883 111.217 1182.14 479.033
866 0 67.1508 12.7027 853 113.211 1182.3 478.743
867 0 71.0809 12.8023 910 113.38 1182.62 474.777
868 0 73.053 12.6073 921 114.397 1183 472.493
869 0 74.0686 12.1644 901 116.213 1182.43 472.222
870 0 77.0907 13.4517 1037 114.323 1183.16 469.458
871 0 79.1061 12.1735 963 117.061 1183.06 468.578
872 0 82.0322 11.5077 944 118.445 1182.67 466.847
873 0 82.1001 11.2545 924 120.175 1183.06 465.554
874 0 88.0572 13.6956 1206 113.056 1182.51 463.784
875 0 86.0643 12.084 1040 118.37 1182 462.651
876 0 91.1106 12.7208 1159 116.387 1182.43 460.016
877 0 94.045 12.9193 1215 116.045 1182.45 457.775
878 0 93.1648 12.3437 1150 120.555 1181.39 453.782
879 0 97.0664 11.6724 1133 121.045 1181 455.057
880 0 100.068 12.3516 1236 122.236 1181.41 450.416
881 0 105.068 12.668 1331 120.622 1181.14 450.233
882 0 110.145 12.8195 1412 120.094 1181.67 450.118
883 1 58.0846 9.22792 536 116.556 1182.02 475.25
884 0 60.0725 9.48854 570 121.26 1183.08 473.863
885 0 61.0564 10.826 661 117.977 1180.71 470.793
886 0 66.097 11.9824 792 115.328 1181.11 470.937
887 0 68.1435 11.8573 808 114.98 1181.39 471.757
888 0 67.0484 11.3798 763 118.561 1181.43 470.438
889 0 72.1315 12.8238 925 114.097 1181.46 469.294
890 0 72.0779 12.1674 877 117.826 1181.5 469.075
891 0 74.123 11.7912 874 120.827 1181.55 466.291
892 0 76.1014 12.4571 948 120.169 1181.83 464.925
893 0 79.1434 12.2941 973 120.719 1181.05 463.332
894 0 81.0932 11.7396 952 122.462 1181.44 463.441
895 0 84.1648 11.4181 961 124.098 1181.55 462.667
896 0 88.1486 12.0705 1064 124.034 1182.02 459.691
897 0 91.1125 13.5217 1232 120.787 1182.23 459.126
898 0 94.1348 12.4609 1173 124.477 1182.53 459.232
899 0 97.1963 12.8503 1249 121.984 1182.5 458.765
900 0 99.0726 13.2529 1313 123.333 1182.81 454.099
901 0 103.125 14.6521 1511 118.392 1182.74 453.152
902 0 106.13 13.606 1444 120.455 1182.32 454.096
903 0 109.158 13.7507 1501 121.66 1182.19 449.57
904 0 113.119 12.6504 1431 124.154 1182.83 447.577
905 1 61.0333 10.1256 618 112.239 1181.69 475.851
906 0 62.0296 10.5433 654 112.905 1182.08 472.702
907 0 65.0593 10.8516 706 114.28 1181.52 473.914
908 0 67.0847 11.165 749 107.849 1182.21 473.302
909 0 70.0834 11.3151 793 106.697 1182.09 471.773
910 0 72.133 11.0074 794 108.846 1181.8 469.907
911 0 74.1043 11.3489 841 107.74 1182.14 470.384
912 0 78.2523 13.2264 1035 104.95 1182.07 470.728
913 0 81.079 13.604 1103 113.966 1182.11 471.893
914 0 84.0904 13.8422 1164 112.99 1182.29 468.492
915 0 85.1195 12.4766 1062 118.022 1182.05 468.682
916 0 88.0613 13.1159 1155 116.218 1181.76 465.494
917 0 90.1006 13.0632 1177 115.884 1181.77 466.708
918 0 94.0914 13.4656 1267 113.587 1182.25 465.05
919 0 96.0796 13.7698 1323 113.749 1182.08 464.041
920 0 100.195 12.5156 1254 114.883 1181.67 462.383
921 1 55.0631 11.4596 631 112.403 1182.38 485.171
922 0 55.1086 10.5247 580 114.876 1182.18 484.655
923 0 59.0946 11.9469 706 109.341 1182.58 481.594
924 0 59.0599 12.191 720 110.474 1182.82 480.264
925 0 63.0282 12.7721 805 107.786 1182.14 482.943
926 0 62.0662 12.7283 790 110.2 1182.45 480.834
927 0 65.0434 13.099 852 109.021 1181.8 478.381
928 0 67.0652 13.3005 892 108.772 1180.37 477.502
929 0 69.0608 13.4954 932 108.465 1180.7 477.941
930 0 72.0279 12.5229 902 110.873 1182.07 476.411
931 0 75.0873 13.8239 1038 107.575 1181.13 473.889
932 0 76.1118 12.0612 918 113.452 1180.92 473.378
933 0 78.0415 12.724 993 112.822 1180.74 473.316
934 0 80.0544 13.5033 1081 111.566 1180.97 471.455
935 0 84.0454 13.7664 1157 110.764 1180.7 469.739
936 0 87.1184 13.8547 1207 111.48 1180.88 468.421
937 0 90.044 13.3046 1198 112.872 1180.83 465.689
938 0 92.0245 12.6271 1162 116.052 1180.73 466.633
939 0 94.1524 13.0639 1230 115.762 1180.74 465.722
940 0 98.2 13.0143 1278 115.977 1181.12 464.437
941 0 101.105 12.5414 1268 118.065 1181.19 462.95
942 0 105.131 14.0776 1480 114.582 1181.89 461.857
943 1 57.0754 12.1594 694 120.207 1182.24 483.558
944 0 58.0526 13.0054 755 120.866 1182.75 481.348
945 0 62.0431 13.9097 863 116.663 1182.88 481.158
946 0 62.0785 14.1917 881 114.095 1182.65 480.549
947 0 63.1051 14.1827 895 114.142 1182.31 479.488
948 0 67.0627 13.465 903 113.45 1182.78 479.802
949 0 67.1309 12.6023 846 117.135 1183.06 478.431
950 0 70.0395 14.2634 999 112.19 1182.39 477.389
951 0 73.0687 14.0005 1023 112.085 1182.74 475.616
952 0 75.0798 13.3458 1002 111.157 1180.48 474.972
953 0 77.1212 12.7721 985 111.717 1180.96 473.495
954 0 79.0972 13.2242 1046 111.725 1180.86 472.121
955 0 80.0967 12.4849 1000 115.417 1180.85 471.047
956 0 84.1243 13.6584 1149 110.956 1181.31 471.258
957 0 86.1381 13.0836 1127 114.585 1182.31 470.597
958 0 87.1335 12.9801 1131 116.539 1181.82 471.535
959 0 89.1112 12.5798 1121 119.319 1182.8 470.182
960 0 93.1273 12.7245 1185 119.1 1182.75 468.651
961 0 96.1787 11.8633 1141 121.38 1182.71 466.98
962 0 98.1699 11.4699 1126 122.022 1182.25 464.92
963 1 54.0795 12.5371 678 120.876 1182.46 483.774
964 0 54.0429 11.7129 633 116.654 1181.47 479.518
965 0 55.0981 12.1601 670 115.458 1182.13 476.518
966 0 56.143 12.2722 689 115.282 1181.81 475.878
967 0 60.1282 12.0077 722 114.271 1181.38 475.416
968 0 60.0922 11.5156 692 117.535 1181.48 474.967
969 0 63.114 12.1051 764 117.039 1181.5 472.84
970 0 65.0863 11.6 755 117.84 1181.5 473.269
971 0 68.074 11.3847 775 116.486 1182.46 472.382
972 0 71.0631 10.8495 771 114.062 1182.83 469.38
973 0 73.0443 11.3903 832 115.524 1182.59 467.487
974 0 76.0676 11.2926 859 115.123 1182.48 467.974
975 0 79.0956 11.8338 936 114.756 1182.13 466.027
976 0 80.1086 11.2972 905 116.693 1182.9 462.828
977 1 40.0089 8.34813 334 109.949 1183.8 487.186
978 0 45.041 9.85769 444 111.588 1183.17 486.574
979 0 45.0152 10.241 461 120.462 1183.08 486.419
980 0 48.035 12.2827 590 114.632 1183.21 486.302
981 0 49.081 12.0209 590 111.115 1182.92 487.598
982 0 50.0703 12.9817 650 109.603 1182.9 485.454
983 0 49.0641 11.6786 573 115.464 1183.14 486.316
984 0 51.133 11.3625 581 115.413 1182.82 484.081
985 0 54.0343 12.2515 662 112.387 1182.97 484.039
986 0 55.1312 12.8058 706 110.973 1183.62 483.906
987 0 58.0563 14.796 859 106.286 1183.93 482.723
988 0 57.0618 12.4777 712 113.065 1183.83 482.552
989 0 61.0997 13.9444 852 108.357 1183.21 481.813
990 0 61.0901 11.5894 708 112.524 1182.76 481.493
991 0 65.0542 12.3743 805 110.332 1182.86 478.438
992 0 68.0917 12.9531 882 108.416 1182.73 478.978
993 0 68.088 13.2769 904 109.82 1183.27 476.48
994 0 68.1186 12.4195 846 112.534 1183.09 474.732
995 0 73.1026 12.503 914 112.395 1183.54 474.233
996 0 78.0534 14.0289 1095 107.755 1183.29 473.764
997 0 78.068 13.0143 1016 113.962 1183.21 472.933
998 0 81.1963 13.8307 1123 111.622 1183.18 471.327
999 0 85.1825 13.6648 1164 112.213 1182.77 469.285
1000 1 44.0809 12.0234 530 114.487 1183.38 489.226
1001 0 46.0626 12.6133 581 112.045 1183.27 488.685
1002 0 47.0941 12.8679 606 113.48 1183.44 486.19
1003 0 49.2123 12.761 628 115.852 1182.75 486.575
1004 0 50.2678 12.8313 645 115.392 1182.52 486.409
1005 0 50.1939 12.4916 627 116.352 1182.85 486.904
1006 0 52.1304 13.1977 688 115.756 1182.68 483.9
1007 0 57.1025 13.0642 746 113.646 1182.24 483.517
1008 0 57.1963 13.7946 789 113.089 1181.85 482.527
1009 0 57.1184 13.2182 755 115.6 1181.53 481.242
1010 0 58.1277 12.8854 749 116.199 1182.02 481.012
1011 0 62.0965 13.5756 843 114.759 1182.19 478.497
1012 0 65.1212 13.4825 878 113.897 1181.36 478.62
1013 0 66.1941 12.4634 825 117.897 1181.95 476.904
1014 0 68.116 13.2715 904 115.853 1182.22 475.777
1015 0 71.18 13.6274 970 115.354 1181.92 474.909
1016 0 73.2921 13.685 1003 115.535 1181.77 471.153
1017 0 77.3212 13.6832 1058 113.772 1181.24 471.716
1018 0 77.5232 12.7575 989 116.855 1181.86 469.98
1019 0 80.0973 12.722 1019 113.155 1182.52 471.241
1020 0 84.1214 12.9337 1088 112.006 1181.96 468.536
1021 0 87.1228 12.4078 1081 108.993 1181.85 468.05
1022 0 90.1725 11.7109 1056 111.534 1181.41 464.503
1023 1 47.019 12.5481 590 100.68 1182.01 486.937
1024 0 48.0503 11.0925 533 103.63 1182.37 488.696
1025 0 51.2344 10.8911 558 105.339 1182.86 483.367
1026 0 51.2378 11.3198 580 105.024 1182.29 485.657
1027 0 53.072 11.4373 607 105.643 1181.83 484.901
1028 0 55.1024 13.121 723 101.828 1182.35 484.062
1029 0 54.1421 11.673 632 105.631 1181.64 483.453
1030 0 58.0578 13.9 807 100.414 1181.48 481.055
1031 0 59.0354 11.942 705 105.417 1181.83 480.881
1032 0 61.07 11.7406 717 106.233 1182.15 478.918
1033 0 65.1083 12.7173 828 103.6 1182.11 477.239
1034 0 67.0799 12.8354 861 103.857 1181.95 476.273
1035 0 69.0586 12.8876 890 105.555 1182.63 474.469
1036 0 72.1485 13.0148 939 105.978 1182.32 474.278
1037 0 74.141 12.2334 907 107.556 1182.61 473.046
1038 0 77.157 12.5977 972 107.001 1182.42 469.458
1039 0 81.1715 12.3442 1002 106.799 1182.7 468.775
1040 0 83.1971 13.2697 1104 105.786 1182.38 465.729
1041 0 86.2664 13.1453 1134 107.312 1182.7 462.877
1042 0 89.1612 13.0326 1162 107.206 1182.8 463.43
1043 0 94.3139 13.1052 1236 106.385 1182.71 462.111
1044 1 50.1 11.8164 592 103.015 1183.67 485.321
1045 0 50.0634 10.9461 548 105.062 1182.82 484.381
1046 0 52.0312 12.1658 633 102.016 1183.2 484.785
1047 0 55.0544 11.5159 634 101.767 1183.36 484.528
1048 0 56.2458 11.8942 669 103.368 1181.87 483.916
1049 0 57.0672 11.723 669 103.534 1181.86 482.176
1050 0 59.0876 11.8468 700 103.593 1181.97 483.56
1051 0 60.0932 12.0313 723 103.913 1182.33 480.083
1052 0 62.112 12.1072 752 104.297 1182.39 479.372
1053 0 65.0762 13.6609 889 99.6378 1182.25 478.976
1054 0 69.0708 12.8709 889 100.073 1182.18 477.422
1055 0 68.1208 11.8026 804 101.859 1182.48 476.652
1056 0 70.0658 11.9745 839 103.439 1182.79 475.272
1057 0 75.051 12.2184 917 101.58 1182.14 473.413
1058 0 76.0328 13.0075 989 100.725 1182.26 471.7
1059 0 78.1539 11.938 933 103.422 1181.83 472.832
1060 0 83.1999 12.5361 1043 102.491 1182.53 470.013
1061 0 84.2093 12.2077 1028 103.932 1182.01 468.164
1062 0 87.2931 11.7191 1023 106.37 1182 465.522
1063 0 92.1658 12.9983 1198 104.302 1182.14 465.058
1064 0 94.3177 13.5075 1274 104.915 1183.16 459.794
1065 0 96.2158 12.472 1200 107.98 1182.94 459.585
1066 0 99.2041 12.6204 1252 108.335 1182.71 454.729
1067 0 104.294 11.7169 1222 110.346 1183.43 455.971
1068 0 109.343 12.8677 1407 107.795 1183.05 453.099
1069 1 57.0582 10.463 597 105.553 1182.57 481.673
1070 0 59.1322 11.1783 661 101.88 1182.89 481.348
1071 0 60.0584 10.7229 644 103.856 1181.42 481.298
1072 0 63.0897 12.5219 790 101.214 1182.3 477.471
1073 0 64.1296 11.7574 754 102.208 1182.3 479.225
1074 0 68.0861 11.4561 780 102.969 1182.31 476.347
1075 0 69.1572 13.2741 918 100.389 1182.53 473.075
1076 0 74.0906 13.0786 969 99.8824 1182.14 473.46
1077 0 73.153 12.2483 896 103.258 1182.65 470.812
1078 0 77.1513 12.2746 947 103.035 1182.46 471.036
1079 0 79.1257 12.2211 967 104.54 1181.82 469.172
1080 0 81.1366 11.5977 941 105.827 1182.21 468.968
1081 0 85.2887 12.4167 1059 104.083 1181.99 467.556
1082 0 85.155 12.4949 1064 105.958 1182 464.84
1083 0 90.1156 11.4187 1029 108.603 1181.82 465.013
1084 0 93.2435 13.2985 1240 103.686 1181.68 461.075
1085 0 96.1962 12.9631 1247 104.203 1180.76 461.102
1086 0 99.1728 12.574 1247 106.306 1181.08 459.677
1087 0 101.214 12.518 1267 108.094 1181.29 455.837
1088 0 102.186 12.2032 1247 108.983 1180.88 454.852
1089 0 107.228 12.4874 1339 108.229 1181.05 453.633
1090 0 111.166 12.9356 1438 107.888 1180.93 451.583
1091 0 115.224 12.9053 1487 107.471 1181.14 450.224
1092 0 119.357 13.6816 1633 107.126 1181.52 447.071
1093 1 63.2342 11.6709 738 102.371 1180.95 475.495
1094 0 63.1049 11.4888 725 103.043 1180.84 475.859
1095 0 66.2178 11.9001 788 104.141 1180.44 476.192
1096 0 71.1533 14.0682 1001 100.408 1180.52 474.016
1097 0 71.1483 11.0333 785 102.239 1180.77 475.386
1098 0 72.0706 11.794 850 102.098 1180.51 470.468
1099 0 75.0903 11.6926 878 101.893 1180.32 470.657
1100 0 79.2332 11.2705 893 102.666 1180.35 470.176
1101 0 81.0906 11.9496 969 102.286 1180.86 466.835
1102 0 87.2149 11.8672 1035 100.59 1182.74 463.175
1103 0 86.1866 11.3475 978 103.465 1182.36 463.031
1104 0 92.1576 12.5763 1159 100.967 1182.64 461.344
1105 0 93.1881 12.1367 1131 103.604 1182.56 459.259
1106 0 97.0812 12.2887 1193 102.994 1183 460.851
1107 0 98.1649 12.1632 1194 104.834 1182.44 457.143
1108 0 101.159 11.5067 1164 107.348 1182.07 456.015
1109 0 108.142 13.0015 1406 103.771 1182.48 455.984
1110 0 111.257 13.1138 1459 104.704 1182.23 451.554
1111 0 116.237 11.3217 1316 108.214 1182.07 447.853
1112 1 65.262 10.7566 702 98.2122 1182.45 476.442
1113 0 67.0705 11.2866 757 98.4108 1182.39 474.851
1114 0 69.1544 10.6573 737 100.706 1182.71 475.412
1115 0 72.1406 12.0182 867 98.6298 1182.12 474.37
1116 0 76.194 12.1401 925 97.0476 1182.65 473.421
1117 0 77.0541 10.6938 824 101.289 1182.37 473.078
1118 0 79.0937 12.934 1023 97.651 1182.49 470.143
1119 0 82.0702 11.2708 925 101.264 1182.29 470.615
1120 0 84.111 12.3408 1038 101.367 1182.07 468.147
1121 0 88.1642 10.6166 936 86.8697 1181.74 464.298
1122 0 90.1043 11.4867 1035 103.605 1180.48 463.284
1123 0 92.2183 10.0956 931 107.532 1180.73 462.879
1124 0 97.1437 12.147 1180 103.453 1180.62 461.972
1125 1 51.1013 9.58879 490 100.831 1180.37 484.541
1126 0 55.0748 12.1471 669 97.5486 1180.49 483.773
1127 0 56.1959 12.1183 681 102.511 1181.25 482.084
1128 0 58.1546 11.5898 674 104.883 1181.3 482.822
1129 0 57.0574 11.3044 645 106.71 1181.36 481.572
1130 0 59.1708 11.0021 651 106.548 1180.77 482.028
1131 0 62.1342 11.0084 684 106.982 1180.97 480.162
1132 0 63.1207 11.581 731 106.146 1180.82 479.544
1133 0 64.1468 11.4893 737 107.673 1181.68 476.442
1134 0 66.1773 10.3661 686 109.599 1181.28 477.622
1135 0 69.3452 11.5365 800 107.286 1180.93 475.405
1136 0 70.1783 11.2998 793 109.23 1181.71 473.618
1137 0 74.2303 11.5721 859 107.878 1181.93 473.48
1138 0 76.1439 12.3976 944 107.309 1181.17 471.008
1139 0 77.1983 11.5806 894 110.214 1181.04 470.573
1140 0 79.1904 11.2892 894 111.5 1180.8 467.504
1141 0 83.2894 12.4145 1034 109.316 1180.9 465.22
1142 0 86.3986 11.771 1017 110.321 1181.33 463.958
1143 0 89.2493 11.9553 1067 110.187 1181.82 461.823
1144 0 95.4273 13.2142 1261 111.557 1182.09 457.762
1145 0 96.1686 12.2077 1174 105.792 1181.87 458.47
1146 0 101.095 10.7919 1091 108.02 1182.12 459.853
1147 0 102.202 10.6945 1093 110.013 1181.48 454.377
1148 1 56.1216 9.96051 559 98.9535 1182.51 482.64
1149 0 56.1462 11.3098 635 97.8551 1181.9 480.712
1150 0 58.0518 11.6103 674 99.0682 1181.22 480.939
1151 0 60.2106 10.2141 615 101.298 1180.97 480.515
1152 0 61.1262 11.5172 704 99.4176 1180.69 478.886
1153 0 65.1004 11.6435 758 98.2032 1180.63 478.838
1154 0 64.1077 9.56204 613 102.633 1180.61 477.604
1155 0 70.2293 12.986 912 96.8432 1180.92 475.936
1156 0 73.1899 12.1465 889 99.1732 1180.94 474.831
1157 0 73.1561 11.1132 813 102.47 1181 473.139
1158 0 77.1929 11.8534 915 100.827 1181.47 472.139
1159 0 79.1569 11.2688 892 104.135 1181.4 468.794
1160 0 81.1795 12.3676 1004 102.345 1180.75 469.736
1161 0 86.1897 11.9852 1033 104.267 1181 465.77
1162 0 87.3378 11.9879 1047 106.603 1181.08 465.09
1163 0 92.1254 12.1899 1123 105.882 1180.91 464.61
1164 1 47.2384 11.0503 522 105.339 1181.81 486.943
1165 0 47.1184 11.3544 535 101.041 1181.75 487.536
1166 0 50.1078 12.6727 635 95.3591 1182.02 484.061
1167 0 50.1791 10.7814 541 101.14 1181.48 486.492
1168 0 52.0885 10.0982 526 101.04 1182.37 484.027
1169 0 54.1685 12.738 690 98.3348 1181.9 484.916
1170 0 52.0882 10.847 565 105.789 1182.53 485.177
1171 0 53.0558 10.9696 582 105.524 1181.46 485.579
1172 0 56.1191 12.2775 689 103.626 1182.11 483.581
1173 0 57.0774 10.9676 626 106.267 1182.39 485.449
1174 0 58.1075 10.8248 629 107.822 1182.59 483.49
1175 0 60.1013 10.6487 640 107.694 1182.22 483.212
1176 0 63.0668 11.8604 748 105.795 1182.01 480.754
1177 0 66.1062 11.4513 757 106.108 1181.66 479.176
1178 0 69.1017 12.3007 850 105.688 1181.47 478.265
1179 0 69.1243 9.90969 685 110.479 1181.11 478.791
1180 0 72.1995 12.3547 892 106.973 1181.06 474.725
1181 0 74.0611 10.7884 799 110.089 1181.39 475.971
1182 0 77.1165 10.9574 845 110.084 1181.67 474.82
1183 0 80.1768 11.8239 948 110.094 1182.13 471.694
1184 0 81.1483 11.8425 961 112.061 1182.04 470.147
1185 0 86.2158 12.0976 1043 110.26 1182.14 468.416
1186 0 87.2515 10.8651 948 113.997 1182.7 467.553
1187 0 90.124 11.9169 1074 112.672 1182.28 462.614
1188 0 95.0757 12.306 1170 112.37 1181.76 461.74
1189 0 97.1084 11.8321 1149 115.736 1182.08 460.967
1190 0 100.148 11.4131 1143 119.021 1181.9 457.725
1191 0 105.194 10.8752 1144 120.237 1181.9 458.333
1192 0 107.128 10.0814 1080 121.855 1181.41 457.245
1193 0 115.283 10.0535 1159 121.361 1182.03 451.72
1194 0 113.207 11.2625 1275 119.784 1181.32 449.307
1195 0 118.19 10.7285 1268 121.422 1181.91 448.438
1196 0 119.424 10.0147 1196 123.375 1182.01 447.283
1197 1 63.2537 10.6713 675 110.016 1182.06 475.763
1198 0 65.0853 11.7077 762 109.685 1182.46 475.264
1199 0 68.1022 12.1288 826 106.941 1182.29 473.105
1200 0 68.1237 12.3158 839 107.996 1181.48 474.461
1201 0 71.0748 11.9311 848 107.986 1181.29 474.903
1202 0 71.1085 12.0942 860 109.201 1181.27 470.545
1203 0 74.1763 11.4592 850 110.456 1180.85 470.355
1204 0 78.231 12.2074 955 110.573 1180.76 467.453
1205 0 80.2308 10.395 834 114.459 1181.48 467.639
1206 0 81.0589 10.0421 814 115.837 1181.52 467.228
1207 0 84.1291 11.2208 944 114.761 1181.25 466.636
1208 0 88.0956 10.1367 893 116.533 1180.89 465.181
1209 0 89.1898 11.2008 999 115.644 1180.72 457.884
1210 0 92.163 10.6984 986 116.832 1180.35 459.831
1211 0 97.2503 10.7146 1042 117.842 1180.27 455.776
1212 1 198.444 12.2805 2437 124.109 1179.78 407.997
1213 0 204.498 11.5453 2361 125.045 1180.05 406.855
1214 0 210.514 12.1227 2552 123.999 1180.5 397.326
1215 0 218.502 11.9587 2613 122.925 1180.3 400.511
1216 1 55.3107 10.5766 585 109.05 1181.14 475.809
1217 0 58.4031 11.335 662 116.547 1181.13 479.834
1218 0 60.1192 11.1279 669 107.862 1180.83 478.637
1219 0 60.0312 10.0281 602 110.656 1180.55 478.686
1220 0 64.0714 11.6589 747 107.645 1180.36 476.993
1221 0 66.0564 12.0654 797 106.695 1180.62 475.794
1222 0 70.0926 12.1268 850 106.709 1180.38 475.166
1223 0 70.0862 12.4276 871 107.262 1180.42 473.338
1224 0 74.0337 12.5348 928 106.036 1180.22 472.714
1225 0 76.084 12.1445 924 107.656 1180.4 472.57
1226 0 78.1032 12.7524 996 106.564 1180.31 470.108
1227 0 81.2205 12.5092 1016 106.525 1180.76 471.56
1228 0 86.082 10.4668 901 109.482 1180.82 470.595
1229 0 86.1283 12.3769 1066 108.969 1180.78 465.204
1230 0 88.0889 11.2727 993 111.79 1181.81 466.17
1231 0 90.0827 12.1888 1098 109.411 1182.01 464.154
1232 0 90.2398 10.7491 970 112.631 1182.26 464.355
1233 0 90.2706 9.50475 858 112.483 1182.18 468.227
1234 0 90.1818 7.03025 634 114.756 1181.87 471.522
1235 1 54.0922 10.2972 557 106.153 1182.43 484.325
1236 0 53.0858 10.9069 579 111.869 1182.8 480.794
1237 0 57.0736 12.2999 702 103.348 1180.37 480.936
1238 0 60.1442 12.3703 744 102.992 1180.35 479.468
1239 0 62.152 11.7454 730 105.221 1180.03 479.932
1240 0 63.142 12.9549 818 103.463 1180.12 477.303
1241 0 67.1308 12.7214 854 102.958 1180.11 477.03
1242 0 68.1237 13.314 907 103.089 1180.05 474.281
1243 0 70.1164 13.6487 957 103.15 1179.99 473.428
1244 0 70.1294 11.9208 836 108.34 1180.34 472.956
1245 0 75.1287 12.4187 933 107.408 1180.59 468.983
1246 0 78.1412 12.1959 953 108.148 1179.96 467.537
1247 0 78.1568 10.9523 856 112.002 1179.69 465.277
1248 0 83.0877 11.1448 926 111.135 1179.17 465.842
1249 0 87.0798 12.0579 1050 109.39 1179.82 463.639
1250 0 90.4009 12.5109 1131 108.815 1180.46 462.938
1251 0 94.1004 13.475 1268 106.873 1179.83 460.066
1252 1 51.081 11.0021 562 109.107 1179.6 482.694
1253 0 52.0702 11.254 586 108.582 1181.57 483.462
1254 0 53.089 11.6408 618 109.061 1181.37 482.809
1255 0 54.0514 11.2301 607 108.993 1183.05 483.763
1256 0 56.0939 11.9443 670 104.973 1182.49 483.202
1257 0 58.1481 11.849 689 105.257 1181.88 481.779
1258 0 57.0604 12.0925 690 107.284 1181.78 481.039
1259 0 61.1452 13.4925 825 105.202 1182.17 479.479
1260 0 63.1146 12.6437 798 107.529 1181.68 478.009
1261 0 61.2064 11.9595 732 112.485 1181.38 478.122
1262 0 63.1753 11.381 719 113.519 1181.16 477.777
1263 0 64.268 10.3629 666 116.029 1181.47 478.06
1264 0 69.143 11.7438 812 112.181 1181.92 476.703
1265 0 76.0898 15.2057 1157 100.651 1181.93 469.824
1266 0 74.2496 13.522 1004 108.93 1181.34 470.272
1267 0 77.3622 13.2494 1025 109.38 1181.56 471.828
1268 0 78.1871 13.0201 1018 111.432 1182.01 470.561
1269 0 78.3668 11.8928 932 115.276 1181.86 468.825
1270 0 84.75 11.9764 1015 113.45 1181.04 464.422
1271 0 87.4082 12.802 1119 110.771 1181.22 464.012
1272 1 44.0149 10.8599 478 110.052 1182.78 483.605
1273 0 46.0446 10.3595 477 108.74 1182.52 482.453
1274 0 46.0806 11.3931 525 104.888 1182.53 478.819
1275 0 46.0408 11.859 546 103.112 1182.17 479.335
1276 0 48.0329 10.6802 513 105.969 1182.23 477.536
1277 0 50.288 9.66433 486 102.467 1181.74 478.539
1278 0 51.1286 10.7181 548 102.717 1181.95 475.184
1279 0 47.2433 8.84782 418 107.888 1181.78 474.11
1280 0 56.166 12.6055 708 105.41 1181.44 480.473
1281 0 59.217 11.6689 691 107.061 1182.26 477.543
1282 0 59.1712 9.80207 580 111.867 1181.76 476.917
1283 0 59.1106 9.9982 591 111.193 1182.11 475.606
1284 0 61.1436 10.9905 672 108.747 1182.07 473.387
1285 0 65.2518 12.5514 819 105.681 1181.74 472.068
1286 0 68.2148 11.625 793 107.039 1181.78 472.623
1287 0 71.1904 11.8415 843 105.721 1181.5 473.12
1288 0 74.3208 12.4326 924 105.035 1181.38 471.637
1289 0 75.156 12.0549 906 106.723 1181.61 471.023
1290 0 76.1422 11.3866 867 108.743 1181.22 469.649
1291 0 79.2334 11.687 926 108.957 1181.26 466.991
1292 0 84.34 11.9635 1009 107.758 1182.2 466.175
1293 1 42.0449 8.72877 367 109.943 1182.29 487.676
1294 0 46.0372 11.23 517 106.211 1179.73 484.617
1295 0 42.0483 10.6306 447 96.8859 1180.2 478.586
1296 0 44.0917 10.7276 473 98.8964 1180.65 477.256
1297 0 46.0409 10.0128 461 100.751 1180.29 478.347
1298 0 49.1265 10.3203 507 98.998 1180.36 477.897
1299 0 50.0466 11.1496 558 98.8566 1179.72 477.611
1300 0 52.0726 11.1191 579 99.9896 1180.19 476.668
1301 0 52.1048 11.4769 598 99.6823 1179.75 476.587
1302 0 54.087 12.0916 654 98.0688 1180.22 476.078
1303 0 57.0948 10.4738 598 101.878 1180.84 474.656
1304 0 58.055 12.5915 731 98.9795 1179.86 472.822
1305 0 62.0967 11.8042 733 98.0546 1180.55 475.291
1306 0 61.0998 10.1964 623 104.138 1180.48 470.843
1307 0 62.1402 9.96135 619 105.124 1180.84 469.359
1308 0 66.1558 12.2589 811 99.6498 1181 470.679
1309 0 68.1092 12.1423 827 100.973 1180.59 467.329
1310 0 71.1334 12.9053 918 99.7309 1181.06 466.334
1311 0 74.0683 11.1249 824 96.142 1181.96 466.356
1312 0 75.095 10.3336 776 97.8157 1182.13 464.564
1313 0 75.0648 10.8573 815 97.0331 1182.42 462.531
1314 0 79.033 10.2995 814 97.5528 1182.42 460.037
1315 0 84.0942 12.046 1013 95.0148 1182.54 460.096
1316 0 87.1647 11.1857 975 96.1303 1181.67 459.316
1317 0 91.2659 10.5406 962 96.4595 1181.26 459.088
1318 1 49.0909 9.9 486 91.1358 1181.75 479.056
1319 0 50.1289 10.074 505 91.8436 1181.51 475.475
1320 0 54.3435 12.3842 673 97.4354 1181.04 480.229
1321 0 54.0966 11.6273 629 104.984 1181.7 481.583
1322 0 56.0907 12.3193 691 103.449 1182.51 480.124
1323 0 58.0873 14.5815 847 97.9587 1181.52 479.197
1324 0 57.085 12.385 707 104.192 1181.46 477.051
1325 0 58.1 11.9793 696 106.174 1182.18 477.792
1326 0 61.129 11.991 733 105.45 1182.54 477.789
1327 0 65.1569 12.7845 833 103.032 1181.56 475.716
1328 0 67.1858 13.9018 934 101.123 1181.46 474.628
1329 0 69.1146 12.7759 883 103.903 1180.81 474.823
1330 0 71.2167 13.1711 938 103.123 1180.87 473.244
1331 0 72.1546 13.679 987 104.687 1180.58 472.262
1332 0 77.297 13.7521 1063 103.515 1180.46 472.842
1333 0 78.263 14.0296 1098 104.54 1180.87 469.68
1334 0 79.1761 13.931 1103 105.61 1181.01 467.385
1335 0 84.4007 14.2179 1200 104.123 1180.43 466.128
1336 0 84.4248 14.0006 1182 103.906 1180.42 463.863
1337 0 86.1862 13.4708 1161 104.144 1180.99 462.19
1338 0 90.1481 13.5887 1225 103.81 1181.05 457.611
1339 0 92.1711 13.6377 1257 102.182 1180.85 455.873
1340 1 45.2152 9.44372 427 103.529 1181.14 479.792
1341 0 46.1754 11.1315 514 100.934 1181.35 477.541
1342 0 52.1067 10.5937 552 90.5417 1181.1 478.851
1343 0 52.1488 11.5631 603 89.6036 1180.75 478.362
1344 0 53.0456 11.82 627 90.244 1180.48 476.014
1345 0 56.0743 11.0389 619 90.0711 1181.08 479.763
1346 0 55.034 11.5202 634 90.9842 1181.06 478.15
1347 0 56.0487 12.1858 683 90.8433 1181.28 476.581
1348 0 59.0564 11.4298 675 92.2652 1181.85 474.458
1349 0 62.0908 11.7892 732 92.112 1181.6 472.477
1350 0 65.1654 11.8161 770 91.6338 1181.52 471.2
1351 0 67.0337 12.0238 806 91.0509 1181.66 474.154
1352 0 68.1203 12.243 834 93.0851 1181.67 471.116
1353 0 68.1238 11.6553 794 95.5592 1181.87 467.332
1354 0 74.0574 12.1932 903 93.9158 1181.79 468.439
1355 0 79.1359 12.9271 1023 90.8446 1181.74 468.598
1356 0 81.0667 12.5946 1021 91.7493 1181.41 467.656
1357 0 82.078 12.0739 991 94.2341 1181.59 463.795
1358 0 84.12 12.0899 1017 96.0541 1181.84 461.609
1359 1 44.0577 10.0096 441 89.7823 1182.62 486.252
1360 0 45.057 10.2759 463 92.2354 1181.51 482.724
1361 0 47.0389 11.1822 526 90.9126 1181.38 481.603
1362 0 45.1576 10.3637 468 92.0363 1181.12 482.754
1363 0 49.125 11.1552 548 89.5328 1181.32 482.909
1364 0 52.0536 10.8542 565 90.4142 1181.56 481.885
1365 0 51.1595 10.477 536 92.8004 1181.45 480.506
1366 0 53.0608 11.1382 591 92.0948 1181.37 480.044
1367 0 54.1308 11.9156 645 91.6078 1181.55 479.068
1368 0 56.0776 12.5005 701 90.776 1181.46 479.086
1369 0 57.0565 11.0242 629 95.6232 1181.79 477.148
1370 0 59.0975 12.1494 718 93.7967 1181.67 476.834
1371 0 60.087 11.2504 676 96.0754 1181.74 474.266
1372 0 60.0929 11.166 671 121.648 1180.72 474.101
1373 0 65.0398 11.9773 779 95.9974 1180.98 473.923
1374 0 64.0522 12.4274 796 97.093 1181.25 473.683
1375 0 67.1534 11.4961 772 98.2345 1181.56 472.374
1376 0 65.0687 9.89723 644 103.43 1181.53 467.898
1377 0 71.0895 12.1396 863 98.3129 1180.71 470.102
1378 0 72.0715 11.7938 850 100.379 1181.75 468.121
1379 0 73.0696 11.2632 823 102.553 1182.17 465.948
1380 0 77.0706 11.7555 906 101.134 1182.02 464.544
1381 0 81.0287 12.1192 982 100.677 1181.85 463.398
1382 0 83.0638 12.5807 1045 101.399 1181.76 463.306
1383 0 88.1026 13.6772 1205 107.985 1181.65 465.398
1384 0 91.146 14.592 1330 106.365 1181.18 462.024
1385 0 96.1206 14.3466 1379 105.293 1181.52 463.307
1386 1 51.0998 11.7026 598 110.799 1181.62 484.458
1387 0 51.059 11.7315 599 109.461 1181.93 483.892
1388 0 51.0714 12.5706 642 106.782 1181.95 483.757
1389 0 55.0612 12.2772 676 110.683 1182.45 483.247
1390 0 57.0524 12.4622 711 110.816 1183.51 482.232
1391 0 57.039 11.4658 654 114.968 1181.75 480.382
1392 0 62.0812 13.128 815 110.456 1181.64 478.368
1393 0 63.0424 12.2457 772 113.26 1181.6 479.238
1394 0 65.1335 12.4667 812 114.277 1181.87 479.137
1395 0 66.1642 12.877 852 115.636 1181.73 476.674
1396 0 68.1308 12.476 850 117.971 1181.41 476.832
1397 0 69.133 13.0907 905 117.683 1181.31 475.633
1398 0 71.1856 12.5166 891 120.752 1181.67 473.945
1399 0 77.2171 13.7664 1063 116.889 1182.01 473.131
1400 0 77.1466 13.753 1061 118.941 1181.18 474.427
1401 0 79.1994 13.7122 1086 120.675 1180.71 471.201
1402 0 82.1784 13.6532 1122 122.579 1180.9 469.738
1403 0 87.1534 14.9507 1303 118.299 1180.99 468.783
1404 1 46.096 10.5215 485 126.715 1181.47 487.111
1405 0 49.054 12.6391 620 122.405 1181.2 485.669
1406 0 50.2898 13.7801 693 120.873 1179.77 482.861
1407 0 51.0437 13.3611 682 117.858 1178.96 483.664
1408 0 53.0789 13.3575 709 118.214 1178.52 483.673
1409 0 55.1794 13.2477 731 118.973 1178.93 482.973
1410 0 55.0578 14.3485 790 118.986 1179.7 480.647
1411 0 58.0621 14.3123 831 117.229 1179.65 479.609
1412 0 61.093 15.4191 942 113.897 1180.17 478.094
1413 0 61.1422 13.0515 798 121.992 1180.57 477.717
1414 0 64.1118 13.1957 846 120.611 1180.77 477.756
1415 0 66.0648 13.2748 877 119.504 1179.38 476.401
1416 0 67.0755 13.0301 874 120.929 1180.24 473.484
1417 0 70.1343 13.1747 924 116.899 1180.24 472.432
1418 0 74.133 14.8787 1103 111.655 1180.14 471.86
1419 0 75.2105 12.7509 959 118.346 1180.47 469.601
1420 0 78.2358 13.0758 1023 117.751 1180.11 466.973
1421 0 83.154 13.6614 1136 115.114 1179.53 466.962
1422 0 84.3834 12.7158 1073 117.394 1179.61 464.413
1423 0 88.2603 13.1883 1164 115.174 1179.08 464.299
1424 1 47.1919 12.2479 578 116.701 1180.1 483.533
1425 0 47.1611 13.0192 614 113.293 1180.75 482.629
1426 0 49.1494 12.9401 636 116.418 1181.23 484.107
1427 0 49.1264 11.2567 553 121.736 1181.59 483.736
1428 0 51.0925 12.6633 647 118.391 1180.77 481.399
1429 0 52.1035 12.1681 634 119.899 1180.24 481.74
1430 0 53.164 12.4708 663 119.647 1180.61 479.778
1431 0 55.2348 13.0715 722 118.319 1180.9 479.46
1432 0 56.0968 12.5319 703 118.918 1181.16 479.437
1433 0 57.1346 12.5493 717 119.714 1181.15 476.738
1434 0 60.0898 12.9473 778 118.215 1181.31 477.343
1435 0 60.1081 12.5274 753 120.175 1181.05 476.264
1436 0 63.1178 14.1165 891 117.394 1181.05 474.514
1437 0 63.219 11.9268 754 124.692 1181.22 473.206
1438 0 66.1591 14.1931 939 118.951 1181.36 473.005
1439 0 68.159 13.2044 900 121.9 1182.2 472.112
1440 0 70.1758 13.1099 920 122.86 1181.85 468.741
1441 0 73.1862 13.8141 1011 119.264 1181.98 467.918
1442 0 74.0813 13.8901 1029 117.664 1181.28 468.652
1443 0 74.1154 13.1552 975 117.177 1181.14 466.423
1444 0 78.1556 13.8186 1080 115.829 1181.23 464.894
1445 0 80.1466 11.9406 957 121.07 1182.04 465.772
1446 0 84.1309 13.4077 1128 118.282 1182.16 464.79
1447 1 43.0482 11.4987 495 118.059 1182.3 484.646
1448 0 47.0598 12.1972 574 115.408 1182.22 482.674
1449 0 47.1391 13.0041 613 121.706 1181.27 479.971
1450 0 52.1036 14.5671 759 117.315 1181.06 479.567
1451 0 52.1708 13.475 703 122.213 1181.07 479.494
1452 0 54.1099 13.7313 743 113.888 1182.27 479.69
1453 0 56.0655 14.9468 838 111.02 1181.63 478.768
1454 0 58.2087 13.6062 792 115.049 1181.22 478.01
1455 0 58.0402 13.594 789 115.869 1181.52 478.33
1456 0 59.0612 13.0035 768 118.233 1181.53 478.533
1457 0 62.0255 14.0587 872 115.236 1181.99 476.913
1458 0 65.078 13.092 852 118.112 1181.61 476.935
1459 0 68.0673 13.2663 903 117.513 1181.99 475.807
1460 0 72.0588 14.2106 1024 114.589 1182.66 474.886
1461 0 72.0811 14.6224 1054 115.218 1182.39 474.103
1462 0 75.0981 13.8619 1041 118.256 1181.61 471.716
1463 0 77.1224 12.9923 1002 121.256 1181.4 472.131
1464 0 79.1308 13.9642 1105 119.441 1181.69 470.687
1465 0 84.0595 13.4548 1131 120.537 1181.83 469.243
1466 0 84.1548 13.8198 1163 120.666 1182.04 467.162
1467 1 42.1308 11.7966 497 125.36 1181.95 489.06
1468 0 45.0395 12.2781 553 123.716 1181.97 488.465
1469 0 46.0363 12.7942 589 125.881 1181.65 487.968
1470 0 48.1371 12.7345 613 119.013 1181.74 486.824
1471 0 48.1143 12.3456 594 120.806 1181.86 485.625
1472 0 50.0965 14.2725 715 115.102 1181.29 485.662
1473 0 52.0182 14.3796 748 114.372 1181.91 484.126
1474 0 53.0177 12.8636 682 118.072 1181.7 483.943
1475 0 54.11 13.2323 716 117.161 1181.99 482.465
1476 0 57.0699 13.4396 767 116.289 1181.66 480.447
1477 0 58.0597 14.3817 835 113.634 1181.81 480.962
1478 0 62.068 13.8558 860 112.891 1181.88 480.246
1479 0 62.1118 13.8299 859 113.827 1181.96 477.969
1480 0 64.062 14.2206 911 112.021 1182.22 477.393
1481 0 69.0892 13.6924 946 110.714 1182.03 477.651
1482 0 70.0881 14.0966 988 109.587 1182.01 475.389
1483 0 74.0987 13.9679 1035 108.84 1181.89 474.6
1484 0 75.0945 14.4351 1084 108.347 1181.14 472.875
1485 0 77.0857 13.0504 1006 111.802 1181.15 471.832
1486 0 80.1295 14.0148 1123 109.085 1182.01 469.422
1487 0 82.1174 12.9814 1066 111.326 1181.43 469.242
1488 0 84.115 12.5661 1057 112.975 1181.45 467.958
1489 0 87.1421 13.2198 1152 111.418 1181.66 466.322
1490 1 45.0226 11.3499 511 115.186 1181.48 487.896
1491 0 47.0256 12.5889 592 114.743 1180.72 486.326
1492 0 50.1034 12.554 629 116.378 1180.56 484.685
1493 0 50.0849 12.6785 635 114.973 1180.82 484.317
1494 0 53.0367 12.991 689 117.251 1181.57 483.463
1495 0 55.0486 13.2065 727 117.607 1181.16 482.23
1496 0 58.051 13.0747 759 116.788 1181.33 482.328
1497 0 58.043 13.1971 766 118.093 1181.06 479.863
1498 0 62.1142 14.5216 902 112.44 1180.9 480.989
1499 0 63.0852 13.9969 883 116.247 1180.95 479.65
1500 0 67.043 14.6771 984 113.712 1181.31 478.061
1501 0 68.1055 13.993 953 115.624 1181.53 477.063
1502 0 70.0369 13.807 967 116.507 1181.23 477.057
1503 0 71.0597 13.5098 960 112.507 1180.12 473.315
1504 0 73.0532 13.3328 974 113.989 1180.31 475.356
1505 0 73.0354 13.8015 1008 114.957 1181.18 474.987
1506 0 73.0365 13.5001 986 116.204 1180.43 472.408
1507 0 75.2152 13.9334 1048 121.001 1181.24 472.402
1508 0 78.05 13.2735 1036 121.75 1180.42 473.372
1509 0 76.0251 12.2986 935 129.714 1180.5 472.402
1510 0 77.068 12.6901 978 127.908 1180.42 471.962
1511 0 82.0948 13.7402 1128 122.008 1180.08 470.785
1512 0 85.1024 12.3968 1055 124.087 1180.42 470.184
1513 0 88.1185 13.6521 1203 119.425 1179.97 466.767
1514 0 88.1498 11.5599 1019 122.928 1179.99 468.177
1515 0 92.169 12.1841 1123 121.115 1179.81 463.72
1516 0 94.1111 12.2621 1154 119.887 1180.48 460.586
1517 1 49.0569 10.7426 527 112.89 1180.72 479.509
1518 0 49.0363 11.0122 540 112.246 1180.85 479.487
1519 0 49.1417 9.31998 458 107.035 1180.53 481.88
1520 0 53.0802 11.492 610 105.208 1180.7 479.261
1521 0 53.0692 10.7784 572 107.879 1180.83 480.456
1522 0 55.0645 9.42531 519 112.441 1181.14 476.85
1523 0 56.1567 10.5419 592 111.713 1180.86 475.294
1524 0 61.1439 10.5816 647 112.153 1180.73 476.716
1525 0 60.0999 11.1148 668 114.109 1180.52 475.145
1526 0 63.0486 10.1985 643 117.11 1180.2 475.061
1527 0 66.0534 11.9297 788 114.632 1179.72 471.723
1528 0 67.0846 10.4644 702 119.566 1179.92 474.434
1529 0 70.0158 10.3834 727 119.19 1179.64 474.953
1530 0 72.1102 10.9693 791 118.678 1180.11 474.708
1531 0 74.0645 11.0714 820 119.884 1180.15 471.328
1532 0 77.1039 11.8801 916 119.225 1179.75 469.907
1533 1 36.0264 11.325 408 116.456 1179.36 487.524
1534 0 35.0397 9.76036 342 124.102 1179.52 486.307
1535 0 40.0325 10.5664 423 115.248 1180.53 488.154
1536 0 39.0411 11.1421 435 128.492 1180.5 488.294
1537 0 39.0253 10.8391 423 131.272 1180.86 486.872
1538 0 43.021 11.3898 490 127.131 1180.5 487.635
1539 0 43.065 10.1939 439 130.636 1180.64 487.31
1540 0 45.0077 11.3758 512 127.756 1179.98 486.127
1541 0 44.0169 10.814 476 129.666 1180.54 486.884
1542 0 47.0446 11.4997 541 127.462 1180.66 485.244
1543 0 49.0366 11.624 570 127.523 1180.64 483.609
1544 0 48.0298 11.3679 546 129.311 1179.76 484.201
1545 0 50.0307 11.6728 584 129.144 1179.66 482.709
1546 0 51.0266 11.3274 578 130.784 1181 481.457
1547 0 56.0175 12.1212 679 125.753 1180.15 481.568
1548 0 57.1048 12.5033 714 124.989 1180.09 479.976
1549 0 56.0669 10.648 597 132.028 1179.51 479.943
1550 0 59.0618 12.58 743 126.104 1179.22 478.985
1551 0 61.0442 11.549 705 127.999 1178.95 478.519
1552 0 64.04 12.539 803 125.773 1178.92 477.157
1553 0 66.1536 11.4279 756 127.626 1178.71 477.062
1554 0 66.0605 12.4129 820 127.627 1178.12 474.034
1555 0 71.1958 12.1355 864 127.275 1178.95 473.043
1556 0 73.0775 12.6031 921 126.086 1179.26 472.294
1557 0 73.0541 11.1014 811 131.266 1178.91 468.793
1558 0 77.0385 11.7214 903 129.499 1179.13 467.24
1559 0 79.028 12.1349 959 128.185 1178.9 466.495
1560 0 83.2197 13.2541 1103 125.531 1179.61 465.896
1561 0 85.0864 12.1641 1035 127.705 1178.98 464.192
1562 0 88.0715 12.7737 1125 125.868 1179.4 465.158
1563 0 92.1552 12.2728 1131 126.953 1179.75 461.202
1564 0 94.1604 13.9018 1309 122.688 1179.39 462.837
1565 0 99.1641 13.1802 1307 124.19 1179.19 463.035
1566 0 102.083 13.5086 1379 123.543 1178.26 460.046
1567 1 50.0476 9.63084 482 120.695 1179.8 487.081
1568 0 51.0394 11.8144 603 118.32 1179.17 483.804
1569 0 54.0433 12.9526 700 117.976 1179.86 481.809
1570 0 56.0243 12.2268 685 115.707 1179.52 483.09
1571 0 59.0289 12.4176 733 113.997 1179.39 478.9
1572 0 61.1525 12.4607 762 113.232 1179.44 477.34
1573 0 64.1939 12.8361 824 111.723 1179.51 476.687
1574 0 64.1233 11.5871 743 116.89 1179.22 474.499
1575 0 70.2144 13.4303 943 110.401 1180.18 474.02
1576 0 70.1181 13.6484 957 110.81 1179.96 473.375
1577 0 74.1012 13.684 1014 110.969 1178.93 474.88
1578 0 75.1099 12.3952 931 115.034 1179.5 473.546
1579 0 78.048 13.4404 1049 113.673 1179.52 472.031
1580 0 80.0644 13.1644 1054 116.3 1179.09 471.293
1581 0 86.181 14.1679 1221 114.112 1178.88 469.142
1582 0 88.1527 14.0438 1238 114.876 1179.1 468.134
1583 0 90.1866 14.6807 1324 114.742 1178.51 465.531
1584 0 92.2476 14.0383 1295 115.94 1178.95 464.951
1585 0 97.1048 14.4586 1404 114.865 1179.02 464.345
1586 0 100.149 14.0591 1408 116.156 1178.92 462.086
1587 0 102.33 13.5542 1387 119.13 1178.42 459.492
1588 0 105.136 13.4873 1418 121.185 1178.62 458.369
1589 1 55.1159 12.0474 664 122.398 1179.03 480.693
1590 0 58.1549 13.1545 765 119.745 1179.12 478.931
1591 0 60.1458 13.2678 798 118.815 1179.16 478.942
1592 0 62.1761 13.4457 836 117.718 1178.82 478.379
1593 0 63.1988 13.0857 827 115.904 1178.81 479.438
1594 0 66.0472 12.6273 834 117.433 1179.03 477.782
1595 0 69.1332 13.4378 929 115.393 1178.59 477.271
1596 0 71.1357 13.172 937 115.822 1178.38 475.748
1597 0 74.0605 14.7582 1093 112.41 1179.1 474.945
1598 0 78.0749 15.8694 1239 108.341 1179.54 474.554
1599 0 79.178 13.678 1083 115.48 1179.42 470.318
1600 0 82.1815 14.1151 1160 114.048 1178.95 471.478
1601 0 86.1143 14.2717 1229 113.982 1179.58 469.798
1602 0 90.1214 14.1365 1274 115.303 1178.82 468.506
1603 0 93.1651 14.5977 1360 115.165 1179.53 463.66
1604 1 52.1293 11.5674 603 120.33 1179.61 488.275
1605 0 50.2142 12.1878 612 121.397 1179.84 485.794
1606 0 52.1753 12.688 662 117.675 1179.8 485.311
1607 0 56.0411 13.6507 765 113.233 1179.8 485.082
1608 0 59.1314 14.1549 837 109.632 1179.1 484.189
1609 0 60.0966 13.5615 815 111.372 1179.42 484.485
1610 0 59.0679 13.2898 785 115.154 1179.08 482.552
1611 0 64.0418 15.0214 962 108.484 1179.72 480.241
1612 0 66.145 12.9866 859 113.718 1179.31 478.142
1613 0 69.1086 13.2256 914 112.551 1178.87 477.836
1614 0 72.1508 13.8183 997 110.85 1179.19 476.942
1615 0 73.1195 12.7326 931 113.284 1178.66 477.852
1616 0 75.2179 13.8398 1041 111.858 1178.78 474.714
1617 0 78.0323 13.4432 1049 112.84 1179 473.071
1618 0 82.1818 14.4192 1185 109.544 1178.37 471.514
1619 0 85.1816 13.0545 1112 113.281 1178.32 470.521
1620 0 86.2273 13.9863 1206 111.302 1179.33 469.714
1621 1 46.1268 12.6608 584 115.101 1178.82 487.925
1622 0 47.1692 12.593 594 117.801 1177.96 487.286
1623 0 48.0824 13.3521 642 115.545 1178.87 486.604
1624 0 51.099 13.3271 681 115.963 1178.63 484.593
1625 0 52.078 12.5005 651 115.293 1178.36 484.39
1626 0 54.1108 13.2875 719 110.805 1178.24 482.994
1627 0 55.0265 13.5571 746 110.263 1178.8 481.735
1628 0 58.0482 14.5396 844 106.813 1179.31 482.14
1629 0 60.0647 13.9683 839 107.98 1179.69 480.638
1630 0 62.0512 13.505 838 107.61 1179.02 482.563
1631 0 64.0692 11.9714 767 112.288 1179.27 479.765
1632 0 66.1058 13.7658 910 108.516 1178.56 478.323
1633 0 68.0312 13.288 904 109.899 1178.48 476.82
1634 0 70.062 12.8743 902 112.557 1178.92 477.003
1635 0 72.1673 12.277 886 114.107 1179.18 476.19
1636 0 73.0713 12.7957 935 113.796 1179.07 473.162
1637 0 75.1449 13.3476 1003 112.461 1179.89 473.8
1638 0 78.103 13.5078 1055 112.968 1179.35 469.788
1639 0 82.0587 12.6373 1037 113.928 1179.05 472.148
1640 0 83.0813 12.3253 1024 117.005 1178.6 469.986
1641 0 85.2348 11.791 1005 119.103 1178.63 467.422
1642 0 91.1559 13.4714 1228 114.586 1179 464.913
1643 0 94.2134 14.3079 1348 114.849 1178.53 461.597
1644 0 97.1464 13.3613 1298 116.185 1179.31 460.138
1645 0 101.312 13.4239 1360 119.51 1179.01 457.907
1646 1 50.1507 11.1663 560 122.668 1178.68 481.482
1647 0 54.0997 12.8651 696 116.582 1178.41 481.994
1648 0 57.0565 12.7417 727 116.941 1178.51 480.81
1649 0 57.109 12.1522 694 119.909 1179.28 479.981
1650 0 60.0517 14.2377 855 113.044 1179.24 478.116
1651 0 63.1076 14.3247 904 112.054 1178.44 478.519
1652 0 65.0357 14.0231 912 112.677 1178.18 477.604
1653 0 67.0481 13.8557 929 113.019 1178.38 475.228
1654 0 69.0724 12.9285 893 115.559 1178.14 474.559
1655 0 72.1266 13.2961 959 114.654 1178.24 473.201
1656 0 74.1474 12.8798 955 115.774 1178.45 470.238
1657 0 76.0646 13.4622 1024 114.413 1177.69 471.819
1658 0 79.0893 14.0727 1113 113.015 1177.66 467.633
1659 0 83.0847 14.732 1224 111.199 1178.54 469.205
1660 0 86.1218 14.1428 1218 112.789 1178.07 466.918
1661 0 85.0823 14.0335 1194 115.455 1178.04 466.569
1662 0 92.214 14.423 1330 114.598 1178.54 465.71
1663 0 93.2184 13.4845 1257 119.019 1179.05 463.5
1664 0 95.0729 15.9982 1521 114.133 1178.78 461.08
1665 0 97.2157 13.3518 1298 121.465 1177.95 461.503
1666 0 100.203 12.4049 1243 124.096 1177.78 460.558
1667 1 53.0212 10.9956 583 118.012 1179.63 482.525
1668 0 55.0593 11.2788 621 106.037 1178.46 478.003
1669 0 56.0667 10.434 585 111.54 1178.25 476.436
1670 0 60.0452 12.9403 777 110.081 1177.99 480.32
1671 0 62.0528 12.9084 801 110.648 1178.32 478.519
1672 0 64.0348 12.3839 793 112.726 1178.22 477.764
1673 0 66.0392 13.1437 868 112.8 1178.01 475.783
1674 0 71.044 13.0764 929 110.329 1178.14 477.015
1675 0 73.0919 13.1752 963 111.286 1178.42 473.632
1676 0 74.0722 14.3644 1064 109.801 1178.65 470.693
1677 0 78.0538 14.7206 1149 108.861 1178.65 471.977
1678 0 80.1071 13.457 1078 112.582 1178.68 470.611
1679 0 84.1488 13.7851 1160 111.015 1178.69 470.165
1680 0 84.0698 13.1319 1104 114.657 1178.92 467.055
1681 0 89.079 13.0109 1159 114.324 1178.75 464.922
1682 0 92.0876 13.965 1286 111.453 1178.32 466.201
1683 0 94.1509 12.8942 1214 116.461 1178.65 462.76
1684 0 99.1138 14.4279 1430 113.123 1178.34 460.972
1685 0 102.117 14.4442 1475 113.871 1178.14 460.279
1686 1 54.0952 11.3504 614 116.56 1177.29 483.324
1687 0 54.1048 11.6441 630 115.09 1176.81 482.405
1688 0 55.0418 12.4088 683 119.548 1177.04 480.231
1689 0 58.0171 12.3584 717 118.449 1176.63 480.538
1690 0 60.0208 12.5623 754 120.232 1177.11 478.611
1691 0 63.0423 13.8637 874 116.316 1176.8 478.1
1692 0 64.1164 13.148 843 119.841 1177.74 477.473
1693 0 65.0267 12.5487 816 120.985 1177.55 476.29
1694 0 67.0222 13.0554 875 118.999 1177.07 475.643
1695 0 73.0777 11.9736 875 120.68 1177.43 474.153
1696 0 76.1139 13.2039 1005 117.904 1177.36 472.38
1697 0 78.0922 12.306 961 120.519 1177.98 471.977
1698 0 80.0881 12.761 1022 119.515 1178.26 470.18
1699 0 83.0902 12.0592 1002 120.12 1178.46 470.943
1700 0 86.1194 12.9123 1112 118.855 1178.04 469.491
1701 0 86.2829 12.3199 1063 120.958 1179.08 465.719
1702 0 90.2069 11.7951 1064 122.637 1178.23 462.072
1703 0 92.2454 11.9898 1106 120.652 1178.04 465.052
1704 1 49.0751 10.9832 539 115.839 1179.99 485.41
1705 0 50.0775 11.3225 567 114.21 1179.7 483.328
1706 0 49.1093 9.24469 454 99.9317 1178.66 479.815
1707 0 50.1211 9.43713 473 100.296 1178.65 478.302
1708 0 54.042 9.64066 521 98.1363 1179.01 479.495
1709 0 52.0795 10.0423 523 99.7897 1179.5 476.895
1710 0 57.0743 10.6878 610 97.2213 1179.68 477.489
1711 0 58.1366 10.6989 622 98.0916 1179.13 475.019
1712 0 62.0778 12.0816 750 94.3747 1179.5 474.536
1713 0 62.1053 10.6271 660 98.2439 1179.41 475.026
1714 0 64.1041 10.9197 700 98.7714 1178.97 472.833
1715 0 66.0656 10.8983 720 98.9028 1178.32 470.217
1716 0 67.1711 12.0439 809 98.8628 1178.09 469.261
1717 0 70.1552 11.0754 777 99.9781 1178.81 468.556
1718 0 74.0963 10.7428 796 101.058 1178.57 469.246
1719 0 76.1212 12.0728 919 111.57 1179.05 472.077
1720 0 79.138 11.7769 932 112.833 1179.08 473.425
1721 0 82.1285 12.1395 997 112.146 1179.8 469.949
1722 1 44.0257 10.4711 461 113.223 1180.69 489.239
1723 0 47.031 12.1834 573 110.29 1180.52 487.426
1724 0 47.1644 12.1914 575 112.148 1178.39 485.496
1725 0 47.1678 10.6217 501 107.158 1179.4 481.988
1726 0 47.0333 11.3749 535 104.944 1180.22 482.622
1727 0 49.0352 12.0322 590 104.781 1179.63 479.497
1728 0 50.0317 10.1536 508 108.248 1179.64 480.742
1729 0 50.0394 10.3718 519 109.133 1180.18 478.555
1730 0 52.0508 9.97103 519 109.331 1179.5 479.233
1731 0 57.0314 11.1693 637 106.063 1179.03 477.014
1732 0 58.0627 12.0387 699 103.412 1179.72 476.459
1733 0 57.0415 10.8167 617 107.791 1179.61 475.135
1734 0 61.0994 12.2096 746 103.334 1179.46 474.119
1735 0 60.0498 10.6245 638 108.097 1179.43 473.299
1736 0 65.0596 11.3588 739 105.11 1179.01 472.225
1737 0 66.077 11.6833 772 103.935 1178.96 473.071
1738 0 67.1311 12.3639 830 102.77 1178.74 471.805
1739 0 70.036 11.6654 817 104.529 1178.81 471.222
1740 0 75.1276 12.2991 924 102.261 1178.56 469.949
1741 0 77.0935 11.4666 884 104.421 1179.53 466.761
1742 0 79.0557 12.1686 962 103.73 1179.06 465.984
1743 0 83.0535 11.9321 991 104.452 1178.16 466.318
1744 0 85.1671 12.3874 1055 103.865 1178.71 465.999
1745 0 91.1081 12.9077 1176 103.221 1179.37 460.884
1746 0 90.217 12.4034 1119 105.313 1178.81 461.5
1747 0 94.1447 11.5567 1088 107.046 1178.68 460.153
1748 0 100.175 13.746 1377 101.715 1177.91 457.725
1749 1 50.1114 10.317 517 101.503 1177.7 485.074
1750 0 53.1486 11.1198 591 100.829 1178.32 481.926
1751 0 54.2384 10.0482 545 100.332 1178.66 479.927
1752 0 57.0876 10.37 592 99.3125 1179.61 476.978
1753 0 59.1178 10.792 638 98.0862 1180.02 477.677
1754 0 63.1037 11.8852 750 95.1507 1180.19 476.423
1755 0 63.1096 12.3278 778 95.9602 1179.48 476.186
1756 0 64.1823 11.6076 745 98.1195 1179.66 474.242
1757 0 66.0512 11.0672 731 97.8358 1177.87 474.244
1758 0 68.2582 11.7348 801 97.7278 1178.58 471.941
1759 0 70.0941 12.6687 888 97.0034 1178.76 469.937
1760 0 71.0467 11.2461 799 99.841 1179.08 471.562
1761 0 76.0578 12.8981 981 96.9868 1178.88 467.84
1762 0 79.1781 12.1246 960 98.6292 1178.28 466.579
1763 0 80.0444 11.4436 916 101.472 1178.24 465.394
1764 0 82.2439 12.1346 998 100.396 1178.69 463.967
1765 0 85.0834 11.8942 1012 99.8824 1179.24 464.796
1766 0 86.1082 11.741 1011 100.432 1178.84 463.196
1767 0 92.0745 12.327 1135 98.437 1178.4 463.963
1768 0 94.1746 12.4981 1177 99.2761 1178.19 460.99
1769 0 98.0878 11.245 1103 102.68 1178 458.371
1770 0 97.2018 11.9751 1164 102.59 1178.14 455.747
1771 0 102.288 12.0054 1228 102.36 1178.6 455.102
1772 0 105.355 12.4342 1310 101.586 1179.17 453.305
1773 0 109.197 12.5737 1373 102.29 1178.45 453.033
1774 0 110.165 13.1077 1444 103.096 1178.39 451.656
1775 0 116.209 13.0713 1519 103.045 1178.39 449.931
1776 0 120.273 11.8896 1430 105.991 1177.82 449.116
1777 0 123.145 11.7909 1452 106.317 1178.03 445.591
1778 1 64.0677 11.2537 721 101.097 1178.67 472.982
1779 0 65.163 11.9853 781 105.301 1178.84 470.403
1780 0 69.1207 12.2829 849 106.458 1179.33 469.028
1781 0 71.1606 12.535 892 106.528 1178.58 467.511
1782 0 73.1087 11.736 858 105.409 1178.71 468.09
1783 0 75.2024 11.3693 855 105.761 1178.42 467.882
1784 0 80.2123 11.7189 940 104.217 1178.99 467.366
1785 0 83.3087 12.4717 1039 103.184 1179.11 464.483
1786 0 87.3029 13.8025 1205 100.586 1178.77 462.754
1787 0 90.4752 13.5949 1230 101.172 1178.01 460.904
1788 0 91.3458 12.9617 1184 102.391 1178.35 460.159
1789 0 93.1278 13.3795 1246 100.873 1178.9 459.051
1790 0 98.17 12.1524 1193 102.372 1178.6 457.772
1791 0 102.186 13.1622 1345 100.496 1178.8 454.083
1792 0 103.124 13.1201 1353 100.511 1178.93 454.245
1793 0 106.112 11.9685 1270 104.726 1177.98 451.817
1794 1 59.138 10.9574 648 98.2238 1177.98 477.355
1795 0 59.0576 10.8538 641 101.51 1178.05 475.599
1796 0 60.0444 12.4075 745 99.4859 1178.45 472.262
1797 0 61.083 11.1488 681 103.178 1179.28 473.483
1798 0 68.0583 13.224 900 105.004 1179.44 476.18
1799 0 68.0916 13.1587 896 106.222 1180.25 476.145
1800 0 70.1024 13.3091 933 106.275 1179.63 474.776
1801 0 73.2564 13.3504 978 107.209 1179.49 471.225
1802 0 77.0899 14.6582 1130 104.688 1179.34 471.658
1803 0 79.164 13.4783 1067 108.127 1179.73 470.469
1804 0 83.2015 14.0142 1166 106.782 1180.23 470.589
1805 0 83.2104 13.2916 1106 110.615 1180.11 467.657
1806 0 87.369 13.6318 1191 111.427 1180.4 464.363
1807 0 90.2834 14.8532 1341 107.987 1180.31 464.654
1808 0 92.1959 14.1438 1304 110.078 1180.09 463.216
1809 1 51.2862 12.6545 649 108.462 1179.15 481.871
1810 0 52.2455 11.8479 619 107.312 1179.46 482.202
1811 0 52.1678 12.0956 631 97.2567 1179.96 479.179
1812 0 51.0832 10.7863 551 99.8476 1180.04 478.55
1813 0 54.0426 12.4346 672 109.193 1180.01 482.077
1814 0 57.0511 12.8306 732 107.012 1179.11 481.072
1815 0 59.0788 14.2352 841 104.153 1179.57 479.672
1816 0 61.1544 13.3269 815 106.004 1179.86 479.422
1817 0 62.1456 12.873 800 108.352 1179.3 477.272
1818 0 66.1309 12.6114 834 107.91 1179.74 474.602
1819 0 67.2631 12.4883 840 109.146 1180.17 475.117
1820 0 70.0397 12.5072 876 109.612 1179.51 472.471
1821 0 72.3123 13.0821 946 109.003 1179.75 472.471
1822 0 75.2818 13.828 1041 107.904 1179.37 467.942
1823 0 77.2256 14.7619 1140 106.249 1179.48 468.779
1824 0 78.1676 13.6374 1066 109.931 1179.43 469.639
1825 0 83.4762 14.3274 1196 107.314 1179.82 467.155
1826 0 84.2416 14.2685 1202 108.696 1179.92 464.689
1827 0 86.2814 13.004 1122 112.643 1179.8 461.821
1828 0 91.3331 14.2117 1298 110.982 1178.8 462.097
1829 0 92.2729 14.4788 1336 110.493 1179.02 460.148
1830 1 48.2455 11.5037 555 121.13 1178.87 482.948
1831 0 51.1349 12.1444 621 116.208 1178.96 482.953
1832 0 49.0984 12.7499 626 104.273 1178.98 478.553
1833 0 50.1165 12.6904 636 105.937 1178.94 477.055
1834 0 54.0991 13.0316 705 104.495 1178.79 475.389
1835 0 53.0467 12.046 639 109.792 1179.64 477.29
1836 0 52.0902 11.2689 587 112.324 1178.64 477.375
1837 0 60.1359 14.1346 850 115.716 1179.95 480.64
1838 0 62.1243 14.3583 892 115.35 1179.6 478.554
1839 0 63.2266 14.0764 890 117.137 1179.34 477.424
1840 0 65.0646 14.9236 971 115.583 1179.18 476.083
1841 0 67.0726 14.3129 960 117.089 1179.14 476.535
1842 0 68.1504 14.9082 1016 117.281 1179.62 473.515
1843 0 71.1631 15.6823 1116 114.944 1179.67 472.811
1844 0 71.0754 15.8142 1124 115.843 1179.12 470.839
1845 0 75.0733 13.5201 1015 121.585 1179.54 471.677
1846 0 78.0392 14.1852 1107 119.78 1179.68 469.717
1847 0 81.1179 14.8672 1206 117.898 1179.52 467.907
1848 0 82.1572 14.3992 1183 119.861 1180.36 466.889
1849 0 86.1588 15.5411 1339 116.028 1180.09 466.143
1850 0 87.1933 14.5883 1272 119.513 1179.71 462.732
1851 0 90.1627 14.4184 1300 120.172 1178.85 459.493
1852 0 93.2169 15.9842 1490 115.993 1179.42 460.115
1853 0 93.4172 14.4192 1347 119.081 1178.71 457.895
1854 0 95.1969 14.4438 1375 120.172 1178.75 450.839
1855 0 98.1419 13.511 1326 122.338 1179.4 453.164
1856 0 101.12 14.112 1427 120.59 1178.86 450.358
1857 0 104.271 13.4074 1398 123.517 1178.51 448.715
1858 1 55.0514 10.5174 579 123.019 1179.48 477.839
1859 0 57.1416 12.0053 686 121.735 1179.86 476.108
1860 0 60.0858 12.6153 758 117.249 1179.71 471.656
1861 0 62.0444 12.6522 785 116.536 1179.34 474.041
1862 0 64.0518 12.5055 801 119.561 1179.43 473.26
1863 0 64.0993 11.9502 766 120.587 1179.72 470.242
1864 0 67.0564 13.3022 892 117.8 1179.92 468.706
1865 0 70.0898 13.3828 938 117.48 1180.57 469.075
1866 0 73.1071 13.5418 990 116.878 1179.76 466.311
1867 0 74.0673 12.4751 924 121.26 1180.1 465.598
1868 0 75.0435 12.5794 944 122.077 1180.68 458.118
1869 0 79.1235 12.4994 989 121.953 1179.92 463.034
1870 0 82.0723 12.8545 1055 121.264 1179.43 460.974
1871 0 86.121 13.2372 1140 119.054 1179.89 460.701
1872 0 88.054 13.2646 1168 117.941 1180.26 459.166
1873 0 90.1449 12.8571 1159 117.48 1179.66 457.25
1874 0 93.1396 12.551 1169 118.487 1179.68 456.595
1875 0 97.151 12.846 1248 116.056 1179.69 458.062
1876 0 100.215 12.543 1257 119.201 1179.14 457.094
1877 0 101.108 11.0674 1119 122.845 1179.5 452.707
1878 1 63.0428 11.738 740 120.673 1180.57 473.359
1879 0 65.0875 12.2451 797 119.812 1180.14 470.984
1880 0 65.0521 12.4823 812 120.562 1180.11 468.504
1881 0 66.06 12.5492 829 120.97 1179.73 468.895
1882 0 67.1026 13.3825 898 119.013 1179.63 468.204
1883 0 68.1609 11.7076 798 123.583 1179.22 466.876
1884 0 71.0864 12.3371 877 121.969 1179.85 463.502
1885 0 75.2194 12.7494 959 120.585 1179.61 462.258
1886 0 79.1604 12.8094 1014 119.414 1179.53 463.31
1887 0 80.1211 12.3937 993 120.843 1179.9 461.73
1888 0 85.1515 13.8811 1182 116.089 1179.23 459.334
1889 0 88.1509 13.5563 1195 117.378 1179.35 459.074
1890 0 92.1692 13.8441 1276 116.079 1179.42 459.912
1891 0 94.1343 13.0452 1228 118.403 1180.07 456.425
1892 0 97.1007 13.7795 1338 117.117 1179.24 452.791
1893 1 43.076 9.70378 418 115.299 1179.77 482.354
1894 0 44.089 10.1386 447 115.64 1180.13 480.09
1895 0 46.0481 10.5107 484 113.442 1180.8 480.091
1896 0 44.0697 10.2111 450 116.318 1180.77 479.073
1897 0 45.073 10.9822 495 116.78 1180.39 476.158
1898 0 48.0392 10.9286 525 116.322 1180.58 476.221
1899 0 51.0625 11.3586 580 114.316 1180.5 477.262
1900 0 53.0276 11.2771 598 117.226 1180.24 477.495
1901 0 55.0616 11.6052 639 116.865 1179.94 476.446
1902 0 57.0492 11.3236 646 117.723 1179.95 476.099
1903 0 58.0492 12.386 719 116.178 1179.64 473.541
1904 0 62.1267 11.9916 745 115.423 1180.37 475.695
1905 0 62.0413 11.7341 728 118.124 1180.16 471.133
1906 0 62.0812 11.8877 738 116.485 1179.85 470.355
1907 0 66.0287 12.1008 799 114.791 1179.82 470.716
1908 0 69.1524 12.5954 871 114.948 1180.34 471.696
1909 0 69.1279 12.5998 871 115.876 1180.58 469.659
1910 0 71.2072 12.2881 875 114.706 1180.09 474.458
1911 0 75.1362 13.1495 988 111.436 1179.43 471.901
1912 0 79.4563 14.9264 1186 105.293 1178.93 466.578
1913 0 82.3817 13.3646 1101 114.13 1178.48 469.696
1914 0 85.3793 12.6026 1076 116.391 1179.17 466.271
1915 0 88.2302 12.5581 1108 116.709 1178.97 465.366
1916 0 91.5074 13.4634 1232 114.414 1179.18 460.365
1917 1 47.1883 10.5323 497 105.728 1180.85 482.155
1918 0 51.15 9.67743 495 104.56 1181.05 482.663
1919 0 52.1824 11.2107 585 102.766 1179.89 478.865
1920 0 53.2078 11.0322 587 102.402 1180.63 480.779
1921 0 56.0527 10.8291 607 103.738 1180.06 482.478
1922 0 54.0665 11.7078 633 103.31 1179.64 480.858
1923 0 59.1311 12.819 758 99.2573 1179.99 478.712
1924 0 61.1106 13.0746 799 98.6483 1179.98 479.717
1925 0 62.1187 12.5244 778 99.5424 1179.98 476.983
1926 0 66.149 12.1393 803 99.4072 1180.19 476.035
1927 0 67.1306 12.0958 812 100.299 1180.03 475.53
1928 0 68.0631 13.2524 902 98.3991 1180.47 474.887
1929 0 70.0842 13.1841 924 98.8409 1180.2 473.848
1930 0 70.104 11.8538 831 103.321 1180.02 471.714
1931 0 73.0899 12.341 902 102.2 1180.31 471.317
1932 0 78.1035 12.509 977 103.332 1180.63 470.494
1933 0 74.1659 10.7597 798 109.97 1180.1 467.546
1934 0 83.1409 12.545 1043 104.059 1180.48 466.942
1935 0 86.1358 12.3294 1062 105.249 1180.05 465.477
1936 0 88.1594 11.6834 1030 106.678 1180.09 464.143
1937 1 46.0589 11.0511 509 110.132 1180.75 483.739
1938 0 50.0506 12.2476 613 106.896 1180.24 482.333
1939 0 49.0896 10.7355 527 108.757 1179.99 482.757
1940 0 52.0302 13.0117 677 103.758 1180.34 482.567
1941 0 53.0841 12.3389 655 105.852 1179.87 482.179
1942 0 56.0329 12.0108 673 107.053 1179.79 481.106
1943 0 56.0571 11.9699 671 108.407 1179.78 481.292
1944 0 59.0735 13.3732 790 105.547 1180.1 480.349
1945 0 60.1798 12.014 723 109.272 1180.07 477.946
1946 0 60.1735 13.4777 811 106.904 1180.37 479.148
1947 0 63.0809 13.0943 826 108.301 1180.38 477.318
1948 0 66.2117 12.6262 836 110.468 1180.34 476.213
1949 0 68.2276 13.6308 930 107.773 1179.24 476.104
1950 0 69.0539 13.4388 928 109.454 1178.84 474.297
1951 0 71.165 12.464 887 111.972 1180 474.57
1952 0 73.1956 13.58 994 110.326 1179.81 471.262
1953 0 76.2564 13.6644 1042 111.289 1179.34 470.234
1954 0 76.0951 13.3649 1017 113.235 1179.39 469.954
1955 0 81.1209 14.3983 1168 110.487 1179.64 468.809
1956 0 84.0975 14.9231 1255 109.786 1180.47 468.137
1957 0 84.0975 14.935 1256 141.104 1181.45 468.169
1958 0 89.0921 14.1539 1261 112.742 1180.96 465.701
1959 0 91.0405 14.1366 1287 115.688 1180.18 462.751
1960 0 96.1194 16.0946 1547 109.32 1180.09 459.508
1961 0 97.1392 14.4535 1404 115.137 1180 458.4
1962 1 51.0186 11.2508 574 117.998 1180.35 483.909
1963 0 51.0531 11.6937 597 119.238 1180.5 482.074
1964 0 53.132 11.9514 635 117.972 1179.54 480.258
1965 0 55.1314 13.096 722 114.774 1179.97 480.208
1966 0 58.0883 13.6172 791 115.847 1180.68 480.693
1967 0 58.1845 13.629 793 116.885 1180.24 480.797
1968 0 61.0803 12.7864 781 118.382 1180.32 479.446
1969 0 63.2246 14.2824 903 114.767 1180.47 477.716
1970 0 63.1182 13.2608 837 117.36 1180.63 478.738
1971 0 66.1387 14.2277 941 115.016 1180.97 476.081
1972 0 70.2459 13.6093 956 114.923 1180.57 476.493
1973 0 72.1093 13.2299 954 116.227 1180.73 476.086
1974 0 71.1152 13.5273 962 116.966 1180.68 474.421
1975 0 76.1544 14.3524 1093 114.827 1179.91 471.251
1976 0 76.1238 12.6373 962 118.635 1179.85 471.748
1977 0 79.0792 14.7194 1164 113.802 1179.9 470.968
1978 0 80.1122 14.1427 1133 117.082 1180.06 467.143
1979 0 84.2047 14.3816 1211 115.571 1180.3 468.621
1980 0 86.1141 14.0395 1209 117.318 1180.5 466.23
1981 0 88.162 14.0877 1242 116.025 1179.93 466.919
1982 0 92.2011 15.0215 1385 114.103 1179.86 464.159
1983 0 94.1988 13.9811 1317 115.563 1179.6 464.821
1984 0 95.2119 13.5907 1294 119.195 1179.02 458.931
1985 0 98.0994 12.2631 1203 121.993 1179.16 459.395
1986 0 102.138 13.7363 1403 119.201 1179.21 458.283
1987 0 105.297 13.1913 1389 121.821 1178.86 455.231
1988 1 56.0656 10.4877 588 124.798 1178.07 477.665
1989 0 61.1181 13.0403 797 118.689 1179.32 478.455
1990 0 64.1358 12.4268 797 121.432 1179.85 477.141
1991 0 66.1518 14.4818 958 117.106 1179.14 475.351
1992 0 68.099 13.0105 886 121.617 1178.95 473.842
1993 0 70.1349 13.4883 946 120.458 1179.08 474.433
1994 0 71.1626 12.7455 907 124.438 1179.3 472.606
1995 0 73.165 12.6563 926 125.465 1179.72 470.688
1996 0 77.1427 13.1704 1016 124.424 1179.08 469.233
1997 0 80.0974 14.008 1122 122.094 1179.07 467.322
1998 0 81.2666 13.4865 1096 123.522 1179.54 467.773
1999 0 86.1457 12.7923 1102 125.496 1179.82 465.211
2000 0 89.2743 13.6657 1220 123.739 1179.71 464.044
2001 0 91.2263 13.5706 1238 125.556 1179.56 461.923
2002 0 94.1704 12.9234 1217 126.615 1179.71 461.87
2003 0 98.2297 13.1936 1296 125.626 1179.32 460.204
2004 0 101.211 14.0993 1427 123.491 1178.81 458.342
2005 1 55.0423 10.9915 605 125.608 1178.52 480.608
2006 0 56.0546 11.3461 636 125.002 1177.56 480.346
2007 0 59.0527 13.0561 771 116.318 1178.27 480.158
2008 0 60.0929 13.1796 792 111.955 1178.58 476.614
2009 0 62.0878 13.1749 818 112.037 1179.38 476.433
2010 0 65.0873 13.1362 855 110.961 1178.76 476.926
2011 0 67.1221 13.4084 900 111.208 1178.77 474.021
2012 0 70.0978 13.8663 972 109.847 1179.47 474.291
2013 0 74.086 13.4438 996 110.027 1179.11 473.455
2014 0 74.1025 13.7107 1016 111.136 1179.17 472.004
2015 0 76.0836 13.5772 1033 112.854 1178.88 470.506
2016 0 78.0714 12.7575 996 115.313 1178.46 470.013
2017 0 83.0881 13.4556 1118 114.537 1179.14 469.163
2018 0 86.0899 14.6359 1260 112.379 1178.66 466.574
2019 0 86.0923 12.6028 1085 119.949 1178.46 462.854
2020 0 91.1031 12.8206 1168 118.908 1178.09 464.609
2021 0 95.1126 14.1727 1348 116.264 1178.29 461.394
2022 0 98.1711 14.8109 1454 115.353 1177.71 460.697
2023 0 100.314 13.5575 1360 120.198 1177.74 460.126
2024 1 57.1456 12.4419 711 123.833 1178.35 480.118
2025 0 59.2453 13.2838 787 120.075 1178.54 480.447
2026 0 61.0799 13.425 820 114.612 1177.97 477.412
2027 0 61.0625 13.2324 808 116.194 1177.85 479.568
2028 0 62.1472 11.8107 734 120.678 1178.3 478.843
2029 0 64.0925 12.1231 777 119.247 1178.43 480.301
2030 0 66.2597 12.1643 806 119.447 1178.49 479.139
2031 0 69.1571 13.0283 901 117.299 1178.19 475.698
2032 0 70.116 11.6093 814 121.237 1177.97 475.425
2033 0 72.1062 11.7327 846 120.9 1177.96 473.281
2034 0 76.2519 14.0456 1071 113.176 1178.19 473.629
2035 0 79.2296 13.1264 1040 114.728 1178.48 473.668
2036 0 80.1821 13.1077 1051 115.27 1178.47 470.48
2037 0 84.1441 12.4192 1045 116.167 1178.04 469.594
2038 0 85.2897 12.1468 1036 116.507 1178.94 470.077
2039 0 87.2023 11.307 986 118.93 1179.34 468.985
2040 1 169.486 13.6 2305 119.728 1179.67 430.813
2041 0 173.495 13.4586 2335 121.824 1179.63 421.419
2042 0 178.541 12.927 2308 124.127 1179.29 417.248
2043 1 55.3645 11.1443 617 116.313 1179.25 480.128
2044 0 55.2384 11.6223 642 112.503 1178.56 476.511
2045 0 59.2505 11.0379 654 108.593 1178.17 474.069
2046 0 58.1868 11.4975 669 99.997 1178.78 474.436
2047 0 62.1734 11.5644 719 99.3268 1179.09 474.922
2048 0 61.1976 11.0299 675 101.119 1178.92 472.72
2049 0 66.2263 11.4154 756 98.9603 1179.74 472.425
2050 0 66.2286 10.5997 702 102.155 1179.16 468.991
2051 0 69.1309 11.1817 773 101.375 1179.34 467.132
2052 0 72.2436 12.1256 876 98.7968 1178.9 467.805
2053 0 73.1517 10.6354 778 102.181 1179.49 465.578
2054 0 77.1552 11.6648 900 99.4467 1179.55 464.662
2055 0 80.1594 12.4502 998 97.1894 1179.47 463.244
2056 0 81.137 11.536 936 99.8836 1179 461.324
2057 0 84.3333 11.7154 988 100.464 1178.32 460.504
2058 0 85.2636 11.9043 1015 101.688 1178.14 459.645
2059 0 91.2338 12.7036 1159 99.5824 1178.21 459.591
2060 0 93.1865 11.8257 1102 102.142 1178.17 455.753
2061 1 50.0823 9.56427 479 101.522 1178.68 477.148
2062 0 52.212 9.51888 497 102.809 1178.94 476.089
2063 0 55.1134 11.3403 625 98.0336 1178.97 477.614
2064 0 55.075 9.9319 547 98.1316 1179.54 476.592
2065 0 58.1566 11.2971 657 95.3851 1179.64 476.244
2066 0 59.1233 11.6367 688 95.548 1178.94 474.512
2067 0 60.0429 11.7583 706 96.4419 1179.13 474.228
2068 0 62.0874 10.8879 676 98.2648 1178.98 473.309
2069 0 64.1452 10.6477 683 99.94 1178.38 473.22
2070 0 63.0505 9.99199 630 103.437 1178.63 472.257
2071 0 67.1007 10.8941 731 101.703 1178.76 468.811
2072 0 71.1876 11.6874 832 100.746 1179.06 469.733
2073 0 73.108 12.3106 900 100.208 1178.77 469.339
2074 0 76.1206 11.6526 887 102.61 1179.13 467.448
2075 0 80.2686 12.969 1041 100.274 1179.72 468.542
2076 0 80.2237 12.3405 990 104.317 1179.36 464.964
2077 0 84.1107 12.8046 1077 104.178 1179.19 464.491
2078 0 87.2417 13.1245 1145 103.323 1177.71 463.612
2079 0 89.0824 12.9992 1158 105.974 1178.24 460.207
2080 0 94.1496 13.2024 1243 104.78 1178.22 461.316
2081 0 93.187 13.8431 1290 106.041 1178.27 458.918
2082 0 94.2651 12.4967 1178 111.502 1177.99 458.532
2083 0 98.1472 13.5714 1332 110.911 1178.23 454.702
2084 0 100.232 13.1196 1315 114.828 1178.22 453.186
2085 0 104.183 13.1883 1374 115.174 1178.47 452.257
2086 0 110.322 13.1615 1452 116.152 1177.65 453.078
2087 0 112.279 14.3304 1609 113.692 1178.04 451.797
2088 1 63.1876 12.8031 809 125.624 1177.84 477.115
2089 0 64.2344 12.3454 793 125.531 1178.6 474.134
2090 0 64.1544 13.4831 865 121.357 1179.82 470.944
2091 0 64.0971 12.1846 781 124.99 1179.53 471.001
2092 0 68.0693 11.8996 810 124.793 1179.43 471.319
2093 0 71.0404 12.4155 882 124.361 1179.45 470.584
2094 0 72.0336 12.633 910 124.884 1179.86 466.053
2095 0 75.127 13.018 978 123.58 1179.88 467.006
2096 0 77.0558 11.563 891 128.708 1180.2 466.361
2097 0 79.1082 12.603 997 126.628 1180.29 466.617
2098 0 81.1688 12.32 1000 129.996 1178.86 461.492
2099 0 85.0792 13.0584 1111 125.96 1178.88 461.608
2100 0 88.2093 12.493 1102 128.67 1177.9 460.317
2101 0 90.1399 11.9703 1079 130.167 1178.78 458.002
2102 0 93.0884 12.6869 1181 128.191 1178.48 458.735
2103 0 96.0887 12.6029 1211 131.297 1178.62 456.113
2104 0 101.129 13.913 1407 129.456 1178.88 457.511
2105 0 102.087 14.3212 1462 128.376 1178.7 457.761
2106 0 106.168 12.6969 1348 132.934 1178.7 458.178
2107 0 111.091 13.0614 1451 131.187 1178.72 455.365
2108 1 58.0343 11.7344 681 127.932 1179.26 480.385
2109 0 61.1438 12.0863 739 124.555 1179.16 479.729
2110 0 62.069 13.9522 866 115.007 1179.44 478.129
2111 0 62.069 13.9039 863 146.145 1179.43 478.076
2112 0 67.103 14.4405 969 115.097 1179.06 476.908
2113 0 69.1818 14.4113 997 114.633 1179.17 475.002
2114 0 71.0731 13.9856 994 115.532 1179.51 475.126
2115 0 72.105 13.619 982 116.61 1179.46 474.55
2116 0 75.1118 14.2055 1067 115.093 1178.99 471.235
2117 0 76.0973 13.5616 1032 118.937 1178.95 469.978
2118 0 80.1392 13.8135 1107 117.606 1179.53 469.724
2119 0 82.2234 13.2931 1093 118.933 1178.64 468.686
2120 0 84.1798 12.794 1077 121.171 1178.77 465.371
2121 0 86.3245 14.2833 1233 116.95 1179.41 465.036
2122 0 91.2259 14.2942 1304 114.821 1179.38 464.484
2123 0 94.3062 14.559 1373 114.889 1179.37 461.961
2124 0 98.3947 14.1065 1388 115.718 1179.7 461.366
2125 1 51.3505 11.1391 572 120.951 1179.8 481.596
2126 0 52.3125 11.718 613 122.468 1178.91 482.395
2127 0 55.2657 11.508 636 121.954 1179.17 480.481
2128 0 56.1817 12.4062 697 119.996 1179.1 481.195
2129 0 58.2337 12.7246 741 120.455 1178.52 479.46
2130 0 59.3251 13.3333 791 118.64 1178 477.499
2131 0 62.3288 13.0437 813 118.176 1177.95 475.902
2132 0 64.3394 13.5998 875 117.281 1177.94 474.313
2133 0 67.3044 12.8075 862 118.128 1178.31 473.295
2134 0 68.3278 13.1425 898 118.262 1178.13 471.107
2135 0 69.4896 13.0379 906 119.918 1178.63 469.242
2136 0 72.2895 13.5566 980 115.387 1178.53 471.347
2137 0 72.2327 11.366 821 113.775 1178.54 468.275
2138 0 77.1573 11.8848 917 110.68 1179.15 469.036
2139 0 79.2407 11.9636 948 111.586 1178.85 464.871
2140 0 80.1738 12.3357 989 110.713 1179.21 466.454
2141 0 85.2248 11.9683 1020 111.164 1178.54 465.721
2142 0 88.176 11.9193 1051 112.031 1178.24 462.691
2143 0 90.1244 12.0833 1089 111.365 1178.3 462.449
2144 1 50.0704 9.88607 495 105.737 1178.42 483.35
2145 0 52.1021 11.4199 595 104.101 1177.03 479.62
2146 0 54.1529 10.4334 565 105.69 1177.63 482.922
2147 0 56.0464 12.5432 703 101.481 1177.05 481.393
2148 0 56.2241 11.7032 658 103.454 1177.47 481.692
2149 0 56.0799 11.8937 667 105.337 1177.47 478.555
2150 0 57.0552 10.9718 626 107.642 1177.75 478.925
2151 0 63.0717 11.3997 719 104.747 1177.57 477.821
2152 0 63.0899 12.4426 785 104.296 1179.19 475.19
2153 0 62.1423 10.1863 633 110.371 1179.22 473.046
2154 0 67.1091 10.401 698 109.765 1179.17 472.781
2155 0 69.2148 10.6336 736 110.213 1178.11 471.855
2156 0 73.2018 11.6254 851 107.584 1178.43 471.917
2157 0 73.1321 11.0485 808 110.792 1178.2 471.072
2158 0 75.11 11.6496 875 109.722 1178.54 470.019
2159 0 79.1376 11.1452 882 110.149 1178.48 468.797
2160 0 81.1694 11.7778 956 107.885 1178.28 470.165
2161 0 86.1986 11.5315 994 109.51 1177.69 466.269
2162 0 87.1821 11.5735 1009 109.575 1177.98 465.058
2163 0 88.1234 11.3477 1000 111.138 1178.16 465.071
2164 1 48.1805 11.4569 552 105.245 1178.79 483.092
2165 0 48.2578 10.0916 487 107.895 1178.66 484.193
2166 0 52.1562 12.5968 657 103.846 1178.02 482.286
2167 0 53.1992 12.1618 647 107.674 1178.02 481.566
2168 0 53.1764 9.94803 529 105.204 1177.86 474.728
2169 0 57.0873 10.5803 604 102.834 1178.62 480.763
2170 0 59.1047 10.5575 624 103.327 1178.4 478.191
2171 0 60.23 10.958 660 102.876 1178.12 474.805
2172 0 62.1274 10.897 677 104.569 1178 474.925
2173 0 62.2102 11.7344 730 102.896 1178.36 473.663
2174 0 64.1681 11.6569 748 104.886 1178.94 474.607
2175 0 68.1126 12.9198 880 102.261 1178.99 473.697
2176 0 70.1049 11.9963 841 104.134 1178.64 475.084
2177 0 71.1057 12.1931 867 106.934 1178.99 471.872
2178 0 74.0504 12.2349 906 106.276 1179.02 471.539
2179 0 77.1079 11.4255 881 109.33 1179.04 471.044
2180 0 78.0403 12.1219 946 109.247 1179 469.568
2181 0 82.1398 13.9153 1143 104.957 1179.13 467.029
2182 0 83.1565 12.6869 1055 108.238 1178.95 465.599
2183 0 86.1488 12.9543 1116 108.036 1178.53 462.191
2184 1 49.1463 10.7027 526 106.605 1178.31 484.03
2185 0 49.1376 10.725 527 109.011 1179 482.034
2186 0 51.2161 12.3984 635 106.715 1178.86 479.646
2187 0 54.2945 12.5243 680 104.693 1179.22 482.449
2188 0 53.1296 12.6107 670 107.187 1178.23 481.351
2189 0 55.1703 11.7273 647 109.674 1178.18 480.957
2190 0 56.2091 11.5818 651 111.427 1179.05 480.839
2191 0 60.1043 12.4617 749 108.455 1178.56 478.332
2192 0 60.116 12.4759 750 109.631 1178.19 477.093
2193 0 64.1622 12.1411 779 109.515 1178.56 478.54
2194 0 66.0927 12.2555 810 108.395 1179.13 477.758
2195 0 68.0501 12.4467 847 107.647 1179.06 476.658
2196 0 69.1124 11.7924 815 110.385 1178.3 474.541
2197 0 73.1236 12.4994 914 107.772 1178.41 473.664
2198 0 73.0542 12.9904 949 107.553 1178.31 471.291
2199 0 78.0366 13.2118 1031 106.746 1178.04 471.827
2200 0 79.0893 11.8094 934 110.412 1178.45 468.514
2201 0 80.1778 11.8487 950 110.52 1178.59 469.875
2202 0 84.1324 11.8741 999 111.089 1178.99 467
2203 0 85.1721 11.3652 968 113.364 1178.51 465.179
2204 0 88.1502 11.7527 1036 113.019 1178.73 464.656
2205 0 92.0818 12.3043 1133 112.209 1179.07 464.36
2206 1 50.0872 10.4817 525 109.85 1179.3 483.756
2207 0 51.0698 11.0241 563 107.966 1178.84 482.996
2208 0 55.1379 11.97 660 104.985 1178.97 484.082
2209 0 56.032 12.3501 692 98.3035 1177.27 479.536
2210 0 56.0939 11.7838 661 103.11 1176.97 480.838
2211 0 60.0654 12.6196 758 100.822 1177 479.406
2212 0 59.2952 11.5355 684 104.453 1176.55 479.899
2213 0 61.0988 12.3079 752 102.641 1176.85 476.573
2214 0 62.079 12.0653 749 104.152 1176.43 477.386
2215 0 64.33 12.3115 792 103.742 1176.72 476.035
2216 0 68.0832 11.7063 797 104.327 1177.13 476.212
2217 0 70.2429 12.1009 850 105.015 1177.33 474.167
2218 0 72.0684 12.0996 872 103.698 1177.64 473.865
2219 0 76.0443 12.2429 931 103.444 1177.57 471.025
2220 0 77.0827 11.8444 913 105.388 1177.5 472.515
2221 0 81.1187 13.2152 1072 103.103 1177.15 470.367
2222 0 83.226 12.5442 1044 104.448 1177.35 467.514
2223 0 84.1092 12.3173 1036 105.716 1177.5 466.128
2224 0 90.1264 12.4492 1122 101.98 1178.3 461.827
2225 0 92.1728 11.7171 1080 103.694 1178.34 461.769
2226 0 95.1165 11.9433 1136 104.62 1178.71 461.151
2227 1 52.1257 10.0718 525 100.318 1177.9 481.615
2228 0 54.091 11.0555 598 99.9498 1176.75 479.823
2229 0 55.1318 12.0802 666 101.362 1178.4 481.745
2230 0 58.0629 12.1937 708 100.367 1178.38 480.25
2231 0 58.1287 11.6638 678 101.791 1178.3 480.864
2232 0 59.0836 11.9492 706 101.888 1178.47 480.974
2233 0 60.1039 11.6465 700 102.997 1178.85 478.69
2234 0 63.1231 11.8182 746 102.513 1178.93 476.162
2235 0 65.1842 12.2115 796 101.388 1178.94 476
2236 0 66.2654 11.288 748 104.473 1178.39 474.377
2237 0 67.1927 11.4596 770 103.639 1178.32 474.813
2238 0 70.165 11.8578 832 102.355 1179.08 474.053
2239 0 73.1349 13.1401 961 98.9043 1178.44 471.903
2240 0 76.2024 13.5298 1031 97.6896 1178.04 471.327
2241 0 77.1684 12.6347 975 100.409 1177.09 470.349
2242 0 80.0831 11.3382 908 102.095 1178.62 469.193
2243 0 81.1752 12.1096 983 100.556 1178.78 468.918
2244 0 84.1432 12.0746 1016 100.79 1178.45 465.604
2245 0 89.1996 12.074 1077 99.0269 1178.19 466.63
2246 0 89.1521 9.78104 872 102.403 1178.13 460.661
2247 0 89.0904 11.1348 992 98.2893 1178.08 456.702
2248 0 91.2064 10.8435 989 100.174 1177.83 453.139
2249 0 95.171 12.0625 1148 100.008 1177.95 452.154
2250 0 98.1405 12.1764 1195 98.7866 1177.65 450.756
2251 0 100.164 11.2715 1129 100.314 1178.08 448.851
2252 1 59.1713 9.97105 590 98.2508 1177.87 473.588
2253 0 60.123 10.0461 604 101.114 1177.59 471.055
2254 0 63.1946 9.93756 628 100 1177.41 471.661
2255 0 64.0515 11.9904 768 94.6185 1178.01 470.272
2256 0 66.0812 12.0155 794 95.5378 1178.03 469.237
2257 0 69.0265 12.6328 872 94.0023 1178.12 467.138
2258 0 73.1161 11.5433 844 96.3152 1177.85 469.46
2259 0 75.0519 11.9517 897 96.4693 1178.08 469.826
2260 0 77.2236 12.2242 944 96.4608 1178.02 467.416
2261 0 80.1902 11.56 927 97.5696 1177.92 470.919
2262 0 82.1262 12.3347 1013 97.381 1177.71 468.026
2263 0 84.2702 11.7123 987 100.334 1177.59 469.041
2264 0 88.1963 12.4722 1100 101.874 1177.28 465.665
2265 0 88.1851 11.8387 1044 105.943 1177.04 465.082
2266 0 96.2272 12.2938 1183 104.57 1176.43 465.793
2267 1 45.1349 8.50783 384 109.036 1176.12 487.667
2268 0 48.1815 8.23968 397 107.207 1175.74 490.252
2269 0 50.1369 9.15493 459 107.331 1174.62 490.046
2270 0 54.1312 10.5115 569 100.353 1175.68 489.645
2271 0 56.1184 11.2263 630 100.171 1175.87 489.183
2272 0 57.0238 10.6622 608 101.946 1175.94 488.461
2273 0 55.0463 10.7546 592 104.757 1175.22 487.275
2274 0 58.0547 10.5418 612 105.469 1174.9 486.083
2275 0 61.1418 11.9558 731 102.103 1174.3 485.066
2276 0 65.0403 11.0854 721 103.535 1174.28 486.05
2277 0 65.0996 10.6913 696 105.888 1173.57 482.293
2278 0 68.0662 10.9893 748 105.424 1173.18 483.413
2279 0 68.0571 11.461 780 106.064 1173.23 480.176
2280 0 69.1246 11.5444 798 105.549 1173.14 479.657
2281 0 75.0824 12.8392 964 101.289 1172.05 480.382
2282 0 74.1443 11.4911 852 105.61 1172.27 476.252
2283 0 78.0978 12.8685 1005 102.296 1171.86 475.663
2284 0 81.0901 12.7636 1035 103.065 1171.93 475.443
2285 0 84.1018 12.8059 1077 103.677 1172.07 471.609
2286 0 86.099 13.078 1126 103.531 1172.05 470.78
2287 0 88.1555 12.0355 1061 106.587 1171.85 472.222
2288 0 93.0892 12.4826 1162 105.515 1170.75 471.534
2289 0 95.1071 12.6699 1205 106.371 1171.13 470.084
2290 0 96.1036 12.8715 1237 107.753 1171.94 468.664
2291 0 100.158 13.6984 1372 106.801 1171.66 471.067
2292 0 105.163 13.5884 1429 108.742 1171.46 465.943
2293 0 107.223 12.4507 1335 111.204 1172.4 464.581
2294 1 57.2236 10.59 606 106.655 1171.98 487.563
2295 0 59.1151 11.0124 651 106.831 1172.86 485.997
2296 0 61.2317 11.0564 677 102.368 1173.18 485.583
2297 0 65.1097 11.7955 768 100.021 1173.48 484.508
2298 0 63.1133 9.95035 628 105.782 1173.12 483.478
2299 0 68.2819 11.8186 807 101.394 1172.97 480.028
2300 0 69.0569 11.0489 763 103.533 1172.86 479.941
2301 0 73.1586 10.7164 784 103.291 1172.76 475.648
2302 0 76.2106 11.77 897 101.577 1172.67 476.547
2303 0 78.1093 12.4569 973 101.431 1172.34 474.087
2304 0 81.1569 11.6564 946 103.69 1172.17 473.215
2305 0 83.1514 13.0124 1082 102.356 1172.77 471.335
2306 0 85.168 11.5419 983 106.356 1172.79 471.988
2307 0 88.2228 11.9924 1058 107.233 1172.82 469.848
2308 0 89.1094 11.4466 1020 110.688 1172.13 469.343
2309 0 92.1187 12.473 1149 109.178 1171.75 465.746
2310 0 94.1359 13.5974 1280 106.953 1171.09 463.794
2311 0 100.082 13.3291 1334 107.494 1171.07 464.915
2312 0 102.132 13.6099 1390 108.337 1171.24 461.272
2313 0 102.096 12.5079 1277 112.963 1171.9 459.266
2314 0 105.166 11.4201 1201 115.983 1171.54 460.338
2315 0 108.132 11.9021 1287 121.501 1172.01 462.852
2316 1 65.0668 12.0953 787 112.094 1169.71 488.183
2317 0 66.2351 12.048 798 113.496 1170.5 485.425
2318 0 68.1245 12.6973 865 116.138 1170.54 485.184
2319 0 71.1029 12.9671 922 115.039 1170.98 484.642
2320 0 71.158 11.9031 847 118.074 1171.24 485.29
2321 0 75.2026 12.8453 966 115.851 1171.07 482.237
2322 0 79.1936 15.0896 1195 110.572 1171.69 480.207
2323 0 79.1363 12.8765 1019 117.33 1171.72 479.548
2324 0 82.2775 13.3815 1101 116.566 1171.91 478.621
2325 0 85.1897 13.558 1155 116.866 1172.18 477.547
2326 0 86.3876 13.2658 1146 118.816 1172.68 475.508
2327 0 89.249 13.2775 1185 118.508 1171.9 472.327
2328 0 91.196 12.8295 1170 120.583 1171.86 470.966
2329 0 94.3135 12.3312 1163 122.541 1172.11 467.12
2330 0 95.3466 12.8374 1224 121.431 1171.96 467.24
2331 0 96.221 12.6895 1221 121.156 1172.68 464.547
2332 0 98.1704 12.7533 1252 120.593 1172.64 462.427
2333 0 103.205 13.73 1417 118.155 1172.33 458.967
2334 0 107.166 13.6517 1463 116.88 1173.08 458.535
2335 0 108.255 12.7477 1380 120.201 1172.52 450.562
2336 1 56.103 10.6233 596 115.53 1173.29 480.213
2337 0 56.1466 9.42176 529 118.822 1172.78 479.202
2338 0 59.0979 10.8972 644 113.831 1172.6 478.724
2339 0 64.078 12.9061 827 111.631 1172.99 478.773
2340 0 64.0814 12.0004 769 116.203 1173.35 476.508
2341 0 68.121 14.0485 957 110.894 1173.82 476.366
2342 0 68.1276 12.1243 826 116.634 1173.73 474.025
2343 0 70.0508 12.0484 844 116.328 1173.97 475.089
2344 0 74.0865 13.4168 994 113.945 1174.28 471.905
2345 0 77.0342 12.5918 970 115.622 1174.06 470.905
2346 0 77.1241 11.6306 897 118.542 1174.75 469.565
2347 0 78.1141 12.6738 990 117.809 1174.25 467.499
2348 0 85.0809 12.6703 1078 116.047 1174.74 466.204
2349 0 87.0644 13.1282 1143 116.289 1174.19 462.67
2350 0 90.0788 13.4771 1214 115.437 1174.43 462.161
2351 0 91.0859 12.4937 1138 119.297 1174.63 459.594
2352 0 95.1092 14.6253 1391 114.013 1174.62 456.94
2353 0 97.1256 13.2612 1288 117.084 1175.44 456.318
2354 0 101.173 13.5609 1372 116.14 1175.58 453.754
2355 0 105.101 14.976 1574 112.391 1175.39 452.839
2356 0 110.148 13.5181 1489 117.282 1175.41 450.655
2357 1 58.0322 12.045 699 114.172 1175.72 476.735
2358 0 61.1745 11.9494 731 112.847 1175.26 476.056
2359 0 64.13 13.114 841 110.109 1175.81 473.647
2360 0 66.1117 12.0251 795 110.298 1175.59 476.555
2361 0 68.1863 12.2459 835 108.646 1175.39 474.238
2362 0 69.1688 12.737 881 102.371 1175.19 471.739
2363 0 71.0606 13.003 924 101.091 1175.5 471.41
2364 0 71.1536 10.92 777 106.505 1175.44 470.033
2365 0 76.2063 12.1512 926 103.69 1175.08 466.496
2366 0 79.1484 12.9883 1028 101.933 1175.32 468.006
2367 0 82.1065 12.7152 1044 102.072 1175.57 466.764
2368 0 83.0756 11.4594 952 104.722 1175.85 463.624
2369 0 86.1082 12.9604 1116 102.13 1175.63 465.342
2370 0 89.133 12.5767 1121 103.178 1175.32 462.729
2371 0 92.149 11.4488 1055 105.27 1175.44 461.384
2372 0 92.1046 12.0298 1108 106.023 1176.01 459.458
2373 0 95.1566 11.6755 1111 106.809 1176.47 457.556
2374 0 99.1398 12.1445 1204 105.696 1176.44 458.496
2375 0 102.143 12.7958 1307 104.492 1176.71 455.488
2376 0 107.164 13.708 1469 101.805 1176.46 454.11
2377 0 107.124 12.0235 1288 107.587 1176.17 456.094
2378 0 111.104 12.8619 1429 112.387 1176.03 451.514
2379 0 117.311 11.8318 1388 114.658 1175.78 450.236
2380 0 122.238 12.4021 1516 112.605 1176.07 447.316
2381 0 124.18 10.0257 1245 115.22 1176.31 443.104
2382 1 71.1498 10.3725 738 105.05 1177.05 470.446
2383 0 72.1474 9.89641 714 105.578 1176.88 468.457
2384 0 76.0973 11.7744 896 104.123 1177.32 468.941
2385 0 80.1046 11.7721 943 105.143 1177.01 467.764
2386 0 82.0795 11.6351 955 105.641 1177.44 467.879
2387 0 83.0839 11.9036 989 105.95 1177.91 466.049
2388 0 87.0863 11.4254 995 107.545 1177.81 465.056
2389 0 90.1094 11.941 1076 106.718 1177.36 462.638
2390 0 91.1622 10.2894 938 111.171 1177.34 460.786
2391 0 94.0995 10.7546 1012 111.017 1176.89 456.152
2392 0 97.1241 10.6771 1037 111.032 1176.54 455.069
2393 0 100.264 13.0656 1310 108.371 1176.15 451.409
2394 0 104.161 11.607 1209 111.959 1176.97 454.83
2395 0 109.109 13.0511 1424 108.935 1177.1 455.018
2396 0 110.064 11.4751 1263 114.302 1177.26 449.603
2397 1 62.1017 11.1108 690 105.628 1177.1 478.994
2398 0 64.1528 9.74237 625 107.016 1175.99 472.896
2399 0 61.0301 10.4702 639 107.326 1175.7 468.488
2400 0 61.1026 9.65588 590 112.858 1176.65 468.064
2401 0 67.0658 10.2884 690 110.196 1176.76 467.896
2402 0 68.0721 11.385 775 109.043 1176.37 467.432
2403 0 69.074 9.9169 685 113.343 1176.69 465.644
2404 0 75.1646 11.375 855 109.05 1176.92 461.813
2405 0 77.1792 11.4539 884 109.473 1176.41 460.667
2406 0 78.1579 10.7347 839 112.892 1176.47 458.188
2407 0 84.3037 10.8655 916 112.334 1176.55 458.231
2408 0 86.2132 12.3183 1062 109.568 1176.36 459.464
2409 0 88.1787 11.4654 1011 112.671 1176.32 455.331
2410 0 93.2325 11.4552 1068 111.849 1176.22 457.102
2411 0 96.1987 11.996 1154 112.563 1175.65 455.647
2412 0 97.2964 12.5698 1223 113.268 1176.06 452.395
2413 0 100.225 11.8334 1186 115.599 1176.81 452.355
2414 0 104.276 12.1504 1267 115.943 1176.72 451.077
2415 1 59.2227 8.32451 493 110.154 1175.97 475.635
2416 0 58.1424 10.2163 594 108.682 1175.93 473.468
2417 0 60.143 10.3586 623 112.387 1175.74 474.112
2418 0 64.1395 12.2078 783 108.413 1176.11 472.598
2419 0 65.1526 12.5551 818 105.48 1177.79 476.463
2420 0 67.2093 11.5758 778 108.904 1177.29 476.9
2421 0 69.2062 11.6897 809 109.464 1176.62 473.335
2422 0 71.1362 11.9489 850 108.733 1176.85 472.168
2423 0 75.1567 12.2145 918 107.532 1176.9 469.927
2424 0 78.1623 11.9879 937 107.554 1176.94 470.66
2425 0 80.2021 11.7578 943 108.652 1176.83 470.269
2426 0 82.1207 12.5912 1034 106.279 1177.57 466.016
2427 0 85.106 13.0426 1110 105.323 1177.84 466.041
2428 0 87.0581 12.44 1083 107.574 1177.53 464.175
2429 0 91.0671 11.6727 1063 109.251 1177.26 464.058
2430 0 94.1073 13.1127 1234 106.147 1177.84 461.078
2431 0 95.1516 12.0755 1149 109.552 1178 461.943
2432 0 96.0958 11.2388 1080 112.706 1177.21 460.178
2433 0 101.12 12.6978 1284 109.426 1176.84 458.069
2434 0 104.139 11.1005 1156 112.134 1177.13 458.193
2435 0 107.088 10.7575 1152 113.523 1176.89 456.164
2436 0 111.159 12.0458 1339 112.058 1177.94 453.007
2437 1 60.2575 10.3058 621 108.618 1177.92 478.23
2438 0 62.2655 10.1983 635 107.783 1177.07 479.016
2439 0 62.0901 10.7102 665 109.4 1177.76 477.138
2440 0 67.1549 12.4637 837 105.165 1177.6 475.811
2441 0 65.1493 11.5888 755 109.46 1177.44 474.093
2442 0 70.1568 11.8734 833 108.092 1177.76 474.6
2443 0 72.1366 11.298 815 110.258 1177.24 472.721
2444 0 72.1036 11.3864 821 112.364 1177.36 472.52
2445 0 76.1219 12.5982 959 110.158 1176.78 470.422
2446 0 79.1402 12.0672 955 111.95 1176.98 470.187
2447 0 79.1661 11.4822 909 115.355 1176.32 466.876
2448 0 82.137 11.2982 928 116.286 1176.67 469.494
2449 0 83.093 11.4209 949 117.437 1176.42 468.175
2450 0 86.1106 10.9975 947 119.361 1176.78 465.784
2451 0 87.4161 10.4443 913 121.411 1176.85 466.904
2452 0 90.1266 11.5948 1045 118.483 1176.56 465.32
2453 0 95.1703 12.0311 1145 119.401 1176.91 463.141
2454 0 97.1576 12.629 1227 118.678 1175.65 459.813
2455 0 99.1075 12.4007 1229 122.308 1176.14 455.62
2456 0 102.217 12.0821 1235 123.24 1176.23 456.097
2457 0 108.256 12.5351 1357 120.881 1176.2 455.15
2458 0 109.17 11.6973 1277 125.368 1176.81 450.114
2459 0 111.252 11.3346 1261 126.837 1176.55 449.441
2460 1 64.1249 12.4601 799 112.298 1175.77 477.437
2461 0 65.0902 11.0616 720 116.303 1175.5 475.632
2462 0 68.0643 11.3863 775 113.302 1177.67 475.707
2463 0 68.0583 11.0934 755 118.041 1178.48 475.434
2464 0 70.0937 11.8698 832 115.541 1177.38 472.062
2465 0 73.0899 11.739 858 115.091 1177.76 473.492
2466 0 75.046 12.0726 906 115.3 1177.99 471.853
2467 0 78.0844 12.7554 996 114.25 1178.29 470.983
2468 0 80.1076 12.0588 966 116.431 1178.38 468.56
2469 0 81.077 12.297 997 116.724 1178.16 467.953
2470 0 85.1195 14.3445 1221 111.278 1178.37 466.686
2471 0 87.1187 12.9249 1126 113.837 1178.08 465.175
2472 0 91.1079 12.6004 1148 114.272 1177.99 463.439
2473 0 93.1633 13.7823 1284 111.936 1178.19 461.625
2474 0 96.1405 14.198 1365 111.481 1178.13 460.397
2475 0 98.1473 13.1537 1291 113.594 1177.75 461.167
2476 0 101.195 14.9316 1511 108.905 1178.16 459.515
2477 0 104.155 13.2687 1382 110.667 1177.46 457.619
2478 0 108.132 13.428 1452 112.746 1177.44 456.615
2479 0 110.093 13.9428 1535 112.059 1177.49 455.771
2480 0 112.083 12.3124 1380 116.833 1177.82 455.331
2481 0 114.11 10.3322 1179 120.824 1177.28 459.524
2482 1 64.116 11.0425 708 118.545 1177.16 478.253
2483 0 66.1047 11.6331 769 119.208 1177.42 476.61
2484 0 68.1091 13.3022 906 115.076 1177.46 474.913
2485 0 70.1313 12.4338 872 116.087 1175.92 470.908
2486 0 74.0713 12.542 929 106.121 1176.31 469.048
2487 0 77.0853 12.311 949 105.281 1176.72 469.589
2488 0 79.1086 11.9077 942 106.72 1176.37 466.672
2489 0 81.0836 12.222 991 105.76 1176.49 466.591
2490 0 82.1222 11.8482 973 107.081 1177.46 464.896
2491 0 84.2004 11.532 971 108.218 1177.24 462.554
2492 0 87.1423 11.7165 1021 107.6 1176.65 460.696
2493 0 90.193 11.675 1053 107.473 1177.08 462.614
2494 0 95.2415 11.8226 1126 106.487 1177.37 457.545
2495 0 98.2375 12.4494 1223 105.433 1177.65 455.817
2496 0 102.211 12.6796 1296 105.113 1176.9 455.573
2497 0 104.114 12.2078 1271 107.467 1176.78 450.419
2498 0 109.245 11.6618 1274 105.946 1176.93 448.732
2499 0 108.104 11.8774 1284 107.118 1177.02 447.581
2500 0 112.238 11.8677 1332 106.198 1177.42 444.602
2501 0 117.291 11.7485 1378 104.674 1176.98 443.673
2502 0 120.1 12.1649 1461 104.413 1177.62 440.287
2503 0 125.153 11.3861 1425 106.44 1177.09 440.033
2504 1 63.1317 12.4185 784 100.435 1177.21 468.523
2505 0 65.0788 11.6781 760 102.418 1176.57 469.821
2506 0 68.0926 11.6165 791 103.405 1176.5 466.69
2507 0 69.0658 12.6112 871 102.467 1176.5 467.139
2508 0 71.0672 13.0721 929 101.962 1177.38 465.678
2509 0 74.076 11.8122 875 104.872 1176.95 464.279
2510 0 74.0914 11.7827 873 107.646 1176.94 463.071
2511 0 72.0799 10.6271 766 111.782 1177.05 461.586
2512 0 80.12 13.0055 1042 105.599 1176.93 461.975
2513 0 80.0775 12.3755 991 108.752 1176.86 458.921
2514 0 84.1328 13.0151 1095 107.124 1177.08 458.323
2515 0 84.0771 12.322 1036 112.213 1176.89 456.736
2516 0 89.2172 13.1141 1170 109.538 1177.37 455.546
2517 0 90.0839 13.2543 1194 110.912 1177.14 455.433
2518 0 95.2821 13.2029 1258 112.615 1176.91 453.533
2519 0 98.1754 14.3213 1406 111.851 1176.6 451.832
2520 0 101.081 14.147 1430 115.283 1176.45 451.609
2521 0 104.152 13.9412 1452 117.261 1177.33 447.187
2522 0 108.257 14.678 1589 115.311 1177.13 447.602
2523 0 111.184 14.6244 1626 116.386 1177.6 444.153
2524 0 114.214 12.6867 1449 121.986 1176.91 441.464
2525 1 60.0533 9.64144 579 124.712 1176.59 470.173
2526 0 65.0673 13.7704 896 113.77 1177.13 468.81
2527 0 66.0869 11.4244 755 120.124 1177.81 467.128
2528 0 70.2163 13.1166 921 113.926 1177.47 467.885
2529 0 72.1076 12.6062 909 116.992 1178.25 465.686
2530 0 73.2418 11.7692 862 119.914 1178.28 462.481
2531 0 76.2925 12.3996 946 118.492 1177.41 462.511
2532 0 81.232 12.4089 1008 118.17 1178.18 460.631
2533 0 84.2161 13.0854 1102 117.79 1178.14 458.994
2534 0 86.1836 13.9238 1200 116.719 1178.23 457.85
2535 0 89.4353 12.7019 1136 120.094 1178.47 455.193
2536 0 88.1772 12.3615 1090 123.209 1179.14 454.128
2537 0 94.3139 14.2291 1342 117.034 1178.01 457.1
2538 0 95.1308 13.1293 1249 124.243 1177.16 452.375
2539 0 99.2986 13.7363 1364 122.054 1177.77 451.551
2540 0 102.36 13.8335 1416 123.127 1177.74 448.774
2541 0 104.327 13.0071 1357 126.105 1177.41 447.53
2542 0 108.279 13.3082 1441 124.085 1178.05 448.278
2543 0 111.326 14.5788 1623 122.309 1178.57 444.765
2544 0 113.196 13.8609 1569 125.994 1178.24 443.324
2545 0 117.223 13.9734 1638 125.943 1178.04 442.009
2546 0 119.443 13.5881 1623 127.778 1178.56 439.443
2547 0 123.287 13.4726 1661 130.216 1178.18 437.398
2548 0 127.285 13.7408 1749 129.523 1177.95 441.226
2549 1 74.1477 12.529 929 126.933 1178.64 468.196
2550 0 78.1973 13.5043 1056 126.092 1178.15 461.824
2551 0 81.0762 14.3075 1160 120.485 1178.1 467.65
2552 0 81.0755 13.4196 1088 124.472 1178.34 465.586
2553 0 84.183 15.1337 1274 120.087 1178.88 463.143
2554 0 89.1025 14.0849 1255 122.182 1178.53 459.344
2555 0 91.0995 14.325 1305 122.1 1178.79 460.175
2556 0 92.1402 13.512 1245 124.988 1178.25 458.742
2557 0 96.1725 14.1412 1360 122.87 1178.66 456.993
2558 0 98.1386 13.5217 1327 125.466 1178.36 455.179
2559 0 101.23 13.8596 1403 124.305 1177.8 453.508
2560 0 106.188 14.3614 1525 122.336 1177.76 453.346
2561 0 108.171 14.2737 1544 123.591 1178.27 448.913
2562 0 112.192 13.5215 1517 126.522 1178.18 450.444
2563 0 116.194 15.0524 1749 124.388 1178.39 448.734
2564 0 119.242 13.7368 1638 125.929 1178.49 444.251
2565 0 124.199 14.5332 1805 121.017 1178.19 443.503
2566 0 128.336 14.2672 1831 121.26 1178.2 441.778
2567 0 132.186 14.1392 1869 123.655 1178.08 437.744
2568 1 69.1361 12.1644 841 119.82 1177.88 471.938
2569 0 73.0912 12.0808 883 116.982 1177.84 470.608
2570 0 75.1588 11.509 865 112.903 1178.67 467.408
2571 0 78.0719 12.5781 982 111.889 1178.74 465.16
2572 0 80.0707 12.6263 1011 111.773 1178.87 463.607
2573 0 83.1007 11.7688 978 113.513 1178.93 461.404
2574 0 86.0978 12.0096 1034 112.701 1178.25 461.082
2575 0 88.0859 11.591 1021 114.387 1178.32 460.505
2576 0 92.1362 13.7731 1269 108.392 1178.39 456.833
2577 0 93.086 12.8698 1198 111.166 1178.47 455.834
2578 0 96.0573 13.2421 1272 111.133 1178.59 455.114
2579 0 99.0762 13.101 1298 111.445 1178.04 455.82
2580 0 102.066 13.9615 1425 109.728 1178.1 453.514
2581 0 106.073 13.6792 1451 109.66 1178.45 452.855
2582 0 104.081 11.6544 1213 117.721 1178.67 450.698
2583 0 111.257 12.8532 1430 115.259 1178.61 446.501
2584 0 115.106 12.4581 1434 115.709 1178.72 450.118
2585 0 118.153 12.0014 1418 120.062 1178.38 443.961
2586 0 124.145 13.9031 1726 116.808 1177.93 442.373
2587 1 66.0537 12.1416 802 118.127 1178.37 468.309
2588 0 69.0234 11.9525 825 118.507 1178.72 469.772
2589 0 73.0254 12.5436 916 120.81 1178.43 467.859
2590 0 74.1116 12.5486 930 118.053 1178.56 467.845
2591 0 78.0527 13.2859 1037 116.079 1178.73 466.959
2592 0 80.0636 14.2512 1141 115.366 1178.45 466.255
2593 0 82.0469 12.5294 1028 120.693 1178.66 463.376
2594 0 85.1426 13.3658 1138 120.111 1178.47 462.583
2595 0 87.0952 12.848 1119 123.288 1178.94 461.471
2596 0 90.0667 12.6462 1139 125.223 1178.78 459.571
2597 0 93.0834 13.6974 1275 123.202 1179.32 457.719
2598 0 97.0823 13.5143 1312 124.576 1179.07 458.136
2599 0 99.0967 14.057 1393 125.288 1178.38 453.438
2600 0 103.133 13.4874 1391 128.836 1178.65 456.18
2601 0 107.173 15.1531 1624 131.634 1178.6 454.272
2602 0 111.127 14.074 1564 134.146 1178.23 454.008
2603 0 114.109 13.7324 1567 136.038 1178.16 452.078
2604 0 117.074 15.1272 1771 132.022 1177.77 448.962
2605 0 122.086 15.0959 1843 132.988 1178.2 446.491
2606 1 67.0373 12.7094 852 137.292 1178.79 473.629
2607 0 66.0866 13.1343 868 139.582 1178.03 471.272
2608 0 69.1023 13.7188 948 137.466 1178.14 466.889
2609 0 71.0682 13.8318 983 136.193 1178.6 462.229
2610 0 75.0991 13.9149 1045 134.053 1178.78 462.627
2611 0 76.0835 13.8006 1050 135.832 1177.94 460.348
2612 0 81.0825 14.4051 1168 132.49 1178.28 461.432
2613 0 82.1511 14.4977 1191 134.508 1178.03 458.369
2614 0 86.0598 15.129 1302 132.197 1177.87 458.149
2615 0 86.1379 13.1882 1136 139.535 1178.21 456.432
2616 0 91.111 14.7842 1347 135.348 1178.02 457.638
2617 0 93.0995 15.1236 1408 134.791 1178.59 458.281
2618 0 95.0996 15.2472 1450 134.094 1178.69 459.137
2619 0 99.189 15.8183 1569 130.126 1177.28 457.643
2620 0 102.047 15.4145 1573 131.089 1177.06 456.22
2621 0 104.148 15.2188 1585 131.914 1177.37 453.605
2622 0 108.192 15.2507 1650 132.012 1177.63 450.043
2623 0 113.154 14.5908 1651 132.496 1177.72 450.179
2624 0 118.075 14.7534 1742 131.7 1177.58 446.045
2625 0 123.193 14.7005 1811 130.769 1177.56 445.346
2626 0 127.075 14.9046 1894 130.158 1177.09 442.064
2627 0 134.077 15.0212 2014 131.057 1177.44 439.009
2628 1 68.0532 13.9303 948 130.185 1177.56 472.043
2629 0 70.0602 15.3011 1072 126.393 1176.68 468.074
2630 0 71.087 14.8691 1057 129.507 1177.05 466.578
2631 0 76.0748 14.8012 1126 127.093 1177.14 468.294
2632 0 75.1596 13.957 1049 131.174 1177.2 465.668
2633 0 77.1305 14.2227 1097 130.161 1176.9 465.574
2634 0 78.0477 14.504 1132 129.086 1177.11 464.7
2635 0 83.1184 13.8598 1152 129.778 1176.87 462.569
2636 0 85.1105 14.2168 1210 129.217 1176.71 462.432
2637 0 88.2082 14.9306 1317 127.4 1176.73 460.347
2638 0 90.1347 14.4007 1298 128.644 1176.76 458.626
2639 0 95.0623 14.1591 1346 129.728 1176.44 456.028
2640 0 95.1215 13.5195 1286 131.941 1175.7 454.005
2641 0 100.181 14.3939 1442 129.194 1175.64 453.675
2642 0 102.068 14.9215 1523 127.833 1175.97 451.179
2643 0 104.21 14.5859 1520 130.371 1176.12 447.558
2644 0 106.223 14.3378 1523 131.904 1175.72 446.362
2645 0 112.078 14.945 1675 130.207 1175.42 444.867
2646 0 115.144 15.7803 1817 127.358 1175.5 442.53
2647 0 119.406 14.4801 1729 131.456 1175.75 441.725
2648 0 123.151 14.6244 1801 132.333 1175.7 436.832
2649 0 126.238 14.837 1873 132.711 1175.47 434.801
2650 0 129.237 14.7172 1902 134.368 1175.61 432.636
2651 0 135.259 15.097 2042 133.027 1174.81 430.849
2652 0 138.081 15.614 2156 132.051 1175.15 425.806
2653 0 141.232 14.8479 2097 135.479 1174.77 426.597
2654 0 149.294 15.4862 2312 132.625 1174.48 425.393
2655 0 150.258 15.2138 2286 135.462 1174.67 420.842
2656 0 157.26 15.5348 2443 133.124 1174.72 422.946
2657 0 165.325 15.3637 2540 132.68 1174.85 418.941
2658 0 167.247 15.3844 2573 134.022 1175.91 415.44
2659 0 172.15 15.5039 2669 134.713 1174.98 409.707
2660 0 177.4 14.7351 2614 136.513 1174.72 404.462
2661 0 186.377 15.2755 2847 133.088 1175.16 403.04
2662 0 188.203 13.8043 2598 139.041 1175.68 396.031
2663 1 206.368 15.1913 3135 131.819 1175.83 398.165
2664 0 215.407 14.4378 3110 134.051 1175.5 396.147
2665 0 222.343 14.6486 3257 134.55 1175.12 393.823
2666 0 232.314 14.6009 3392 134.508 1175.78 387.467
2667 0 243.307 15.0058 3651 132.463 1175.73 381.579
2668 0 250.363 14.3951 3604 134.666 1175.6 374.524
2669 1 54.1121 8.66719 469 107.829 1177.4 476.808
2670 0 52.0976 8.17695 426 112.648 1177.46 476.354
2671 0 56.3323 8.37886 472 109.28 1175.77 478.055
2672 0 60.2454 9.94267 599 105.371 1175.84 478.678
2673 0 62.2075 10.5936 659 105.299 1175.84 477.367
2674 0 65.2028 10.2296 667 105.706 1176.19 475.343
2675 0 66.203 8.56456 567 110.543 1176.14 470.164
2676 1 226.591 12.7896 2898 136.996 1175.72 383.435
2677 0 236.458 12.8522 3039 136.166 1175.64 381.498
2678 0 244.374 13.6594 3338 133.709 1175.61 380.993
2679 0 253.275 13.6413 3455 134.262 1175.65 375.467
2680 0 260.379 13.6109 3544 135.453 1175.9 362.67
2681 1 334.493 8.74459 2925 144.298 1175.98 358.426
2682 0 331.486 6.72426 2229 141.955 1175.75 377.17
2683 0 331.392 7.35684 2438 140.845 1174.93 372.591
2684 0 331.498 8.76325 2905 142.361 1175.65 357.357
2685 0 325.835 21.5354 7017 108.196 1176.05 309.985
2686 0 325.685 15.6532 5098 127.126 1175.45 327.525
2687 1 99.3338 8.53688 848 106.188 1176.2 460.994
2688 0 103.227 9.57112 988 104.678 1176.36 458.97
2689 1 61.2278 9.75048 597 102.432 1177.46 477.71
2690 0 63.099 10.6658 673 101.468 1176.15 476.348
2691 0 64.1739 9.92615 637 102.813 1177.18 472.796
2692 1 183.738 9.85641 1811 119.104 1175.38 410.816
2693 0 187.713 9.8395 1847 119.805 1175.41 409.37
2694 0 195.772 10.8698 2128 117.803 1175.29 408.278
2695 0 200.704 9.67096 1941 122.826 1175.5 400.299
2696 0 210.927 11.184 2359 118.017 1175.96 402.847
2697 0 215.869 10.5805 2284 119.951 1175.39 396.379
2698 0 221.619 11.3664 2519 118.992 1175.15 396.188
2699 1 77.304 10.4911 811 107.986 1176.7 466.752
2700 0 81.1649 9.97968 810 109.393 1176.49 466.253
2701 0 83.1983 9.84396 819 110.084 1176.11 463.684
2702 0 85.2378 9.24472 788 111.631 1176.02 463.505
2703 0 88.2639 8.49725 750 113.711 1175.39 460.927
2704 0 91.2753 10.9668 1001 108.455 1175.57 462.863
2705 0 93.3191 11.8947 1110 106.597 1176.28 460.416
2706 0 101.361 11.3555 1151 106.198 1176.07 462.383
2707 0 100.25 11.3017 1133 107.017 1175.72 460.664
2708 1 173.442 9.80732 1701 114.877 1175.69 421.939
2709 0 183.373 11.4848 2106 109.284 1175.58 418.127
2710 0 188.399 10.8121 2037 111.516 1175.84 412.236
2711 0 194.411 10.6218 2065 111.93 1175.92 409.066
2712 0 202.655 10.6634 2161 111.838 1175.82 413.353
2713 1 64.1858 11.4511 735 102.139 1176.03 471.004
2714 0 69.2094 13.3652 925 99.2119 1176.29 471.186
2715 0 68.2774 12.2002 833 102.818 1176.67 469.152
2716 0 71.2 12.5 890 102.113 1176.31 469.244
2717 0 71.2494 11.9299 850 104.018 1177.28 471.626
2718 0 77.2476 12.57 971 100.794 1177.36 470.197
2719 0 77.2422 11.6517 900 104.563 1176.6 465.041
2720 0 81.3388 13.3638 1087 99.0975 1177.09 467.202
2721 0 83.2228 11.7876 981 103.304 1177.61 464.629
2722 0 85.4097 12.9728 1108 100.969 1177.34 464.57
2723 0 88.3066 12.8076 1131 101.602 1176.99 465.871
2724 0 89.2691 12.9608 1157 102.195 1176.54 461.215
2725 0 91.1349 13.3758 1219 103.083 1176.14 459.395
2726 0 94.2034 13.2692 1250 102.128 1176.36 459.194
2727 0 95.1285 12.2256 1163 104.747 1176.82 458.051
2728 0 99.2681 13.1059 1301 103.268 1177.09 455.659
2729 0 103.263 13.2574 1369 102.495 1176.96 457.47
2730 0 104.336 13.7536 1435 102.677 1177.03 454.944
2731 0 108.284 13.2707 1437 104.384 1177.21 453.23
2732 0 109.146 13.4223 1465 105.772 1176.75 451.974
2733 0 110.286 12.649 1395 108.439 1176.84 450.244
2734 0 114.109 12.6546 1444 108.498 1177.43 451.033
2735 0 116.231 13.0343 1515 109.628 1176.64 446.867
2736 0 121.274 13.3994 1625 107.932 1176.31 443.666
2737 0 125.308 12.2818 1539 106.698 1175.88 440.363
2738 1 73.1011 11.1626 816 103.076 1176.61 471.268
2739 0 76.3163 12.2778 937 105.109 1176.71 464.131
2740 0 79.2613 12.7048 1007 103.162 1176.82 463.361
2741 0 80.1082 10.6731 855 101.892 1176.72 453.547
2742 0 82.2064 11.2887 928 100.301 1176.42 453.982
2743 0 84.0782 9.08678 764 104.49 1175.96 455.835
2744 0 87.2326 11.0968 968 100.741 1176.27 459.383
2745 0 89.1901 11.795 1052 101.006 1176.56 454.112
2746 0 92.2382 12.0666 1113 99.8221 1177.47 456.344
2747 0 94.3176 10.6025 1000 104.157 1177.04 454.951
2748 0 97.1796 11.2781 1096 103.428 1176.73 456.278
2749 0 100.243 11.522 1155 103.916 1176.59 454.51
2750 0 102.159 11.5114 1176 104.129 1177.05 454.457
2751 0 105.16 11.8391 1245 102.974 1176.76 456.94
2752 0 108.117 11.6355 1258 103.991 1177.01 453.382
2753 0 112.121 10.9614 1229 104.78 1176.76 453.112
2754 0 114.188 11.7262 1339 104.016 1176.24 450.584
2755 0 116.124 11.3069 1313 105.87 1176.47 446.772
2756 0 121.155 12.3643 1498 104.449 1176.9 445.274
2757 0 126.114 11.7434 1481 104.334 1176.51 443.226
2758 1 72.1032 9.94408 717 98.4059 1176.94 470.218
2759 0 72.3063 10.414 753 97.0691 1177.27 468.977
2760 0 75.2238 9.6645 727 98.2366 1177.31 463.508
2761 0 79.1592 11.4453 906 94.8146 1177.36 464.219
2762 0 80.2443 12.2252 981 93.5178 1177.66 465.663
2763 0 82.2285 13.0125 1070 113.683 1177.62 463.836
2764 0 86.246 10.9338 943 96.6797 1177.7 459.112
2765 0 89.1699 11.0239 983 96.117 1177.15 462.492
2766 0 92.1392 10.0934 930 99.1591 1177 458.47
2767 0 95.213 11.7211 1116 96.9785 1177.31 452.708
2768 0 98.3408 11.9482 1175 97.0843 1177.82 452.478
2769 0 101.217 12.9721 1313 95.3747 1177.81 454.128
2770 0 104.135 11.5811 1206 99.9154 1178.13 451.431
2771 0 106.238 11.5496 1227 101.267 1177.78 447.457
2772 0 109.316 11.6177 1270 101.005 1178.01 446.117
2773 0 112.28 10.839 1217 102.14 1177.25 446.22
2774 0 115.381 11.605 1339 101.671 1176.85 441.756
2775 0 117.443 12.1847 1431 100.416 1176.76 443.915
2776 0 120.321 10.9623 1319 104.323 1177.18 434.977
2777 0 128.211 11.9413 1531 99.823 1176.99 442.62
2778 0 130.195 13.1111 1707 99.2882 1176.4 436.429
2779 0 131.339 11.7254 1540 103.487 1176.48 434.605
2780 0 137.299 11.7991 1620 102.794 1176.67 431.602
2781 0 142.363 12.8615 1831 101.897 1176 429.005
2782 0 148.503 13.3061 1976 101.108 1176.57 429.729
2783 0 152.28 12.0042 1828 104.336 1176.39 426.688
2784 1 85.291 11.1501 951 94.9842 1176.81 462.898
2785 0 87.3795 11.0667 967 95.9142 1176.27 460.247
2786 0 90.3505 12.042 1088 94.42 1176.27 456.728
2787 0 92.243 9.75684 900 98.4389 1177.16 455.886
2788 0 97.1562 12.2998 1195 94.2318 1177.55 457.054
2789 0 100.22 12.4327 1246 95.2006 1177.5 452.84
2790 0 101.218 12.4089 1256 95.4323 1177.48 455.514
2791 0 104.283 11.4113 1190 99.0025 1177.69 450.674
2792 0 107.152 12.6176 1352 97.4941 1177.32 451.519
2793 0 110.247 11.8552 1307 100.226 1176.99 450.88
2794 0 112.211 11.5319 1294 101.562 1176.44 448.668
2795 0 116.278 11.1285 1294 104.094 1176.69 443.559
2796 0 120.321 11.8183 1422 103.697 1176.85 440.745
2797 0 125.348 11.9588 1499 103.62 1177.28 441.427
2798 1 74.2134 12.235 908 94.4229 1178.31 468.526
2799 0 76.1118 10.7605 819 97.2076 1177.98 471.286
2800 0 77.1659 11.4299 882 98.1961 1176.93 466.779
2801 0 81.2544 11.8394 962 94.5561 1176.79 466.88
2802 0 83.1707 12.5765 1046 93.3681 1177.77 463.755
2803 0 87.239 12.5173 1092 93.8855 1177.43 464.214
2804 0 88.2276 13.1365 1159 93.6005 1178.08 463.791
2805 0 91.1989 11.8313 1079 97.4606 1177.7 459.602
2806 0 93.2262 13.0114 1213 96.2613 1177.3 458.659
2807 0 96.2044 12.8788 1239 97.1033 1177.15 457.266
2808 0 98.3984 12.1343 1194 99.8802 1177.57 455.506
2809 0 101.29 13.1701 1334 99.1169 1177.29 453.014
2810 0 104.21 12.9067 1345 101.445 1177 451.998
2811 0 106.185 12.4028 1317 103.598 1177.02 452.025
2812 0 110.204 12.9305 1425 107.258 1177.42 446.935
2813 0 115.318 13.2329 1526 105.301 1176.99 449.145
2814 0 118.34 14.3654 1700 103.15 1176.58 447.301
2815 0 120.357 13.2855 1599 107.046 1176.51 443.621
2816 0 123.318 13.2746 1637 107.969 1176.44 440.971
2817 0 129.38 13.2092 1709 107.376 1176.23 441.947
2818 0 131.392 12.6264 1659 109.85 1175.88 439.509
2819 0 137.244 13.1081 1799 108.987 1175.81 435.281
2820 0 142.234 12.8309 1825 110.108 1175.84 431.442
2821 1 83.2466 11.8563 987 98.1216 1175.91 466.098
2822 0 85.1904 9.46116 806 103.268 1175.24 467.034
2823 0 90.0928 12.4094 1118 100.024 1174.67 463.823
2824 0 90.128 11.4282 1030 102.852 1174.98 463.007
2825 0 95.0731 11.8961 1131 103.271 1174.99 457.347
2826 0 95.1627 10.9287 1040 105.963 1175.15 457.021
2827 0 99.2203 11.8121 1172 104.695 1175.36 454.276
2828 0 103.204 11.453 1182 105.764 1175.87 455.853
2829 0 106.144 11.1264 1181 107.624 1175.36 454.478
2830 0 107.102 11.9605 1281 109.133 1175.79 451.01
2831 0 112.104 11.4001 1278 110.037 1175.27 451.734
2832 0 112.203 11.7822 1322 110.794 1175.43 444.753
2833 0 120.214 11.0303 1326 110.931 1175.13 445.742
2834 0 125.147 11.5224 1442 109.616 1175.1 445.781
2835 0 127.174 12.1723 1548 110.249 1174.55 443.753
2836 0 132.234 11.4192 1510 112.064 1174.67 437.644
2837 1 77.1564 10.7703 831 102.389 1174.17 469.641
2838 0 76.1049 9.65772 735 105.014 1174.52 467.664
2839 0 83.1282 12.1619 1011 99.1335 1174.69 466.584
2840 0 84.265 11.1909 943 101.477 1174.26 465.133
2841 0 89.219 11.5895 1034 100.132 1174.14 464.501
2842 0 91.08 12.3518 1125 99.9191 1174.09 461.895
2843 0 93.1238 11.9196 1110 101.34 1174.55 458.864
2844 0 97.1257 12.5919 1223 99.937 1174.53 458.701
2845 0 97.1177 11.9752 1163 102.533 1174.86 455.128
2846 0 99.1252 12.1664 1206 102.823 1174.49 455.673
2847 0 103.312 11.0346 1140 106.069 1173.97 452.468
2848 0 107.18 11.532 1236 105.12 1174.28 454.465
2849 0 108.191 11.2394 1216 107.914 1174.37 449.044
2850 0 112.132 11.1832 1254 108.759 1174.91 446.243
2851 0 113.241 10.8707 1231 111.253 1174.74 445.963
2852 0 120.384 11.6378 1401 108.562 1174.63 449.071
2853 0 124.309 13.0723 1625 107.089 1174.96 443.784
2854 0 126.281 11.9179 1505 110.629 1174.53 441.256
2855 1 73.2288 8.88994 651 105.238 1174.72 467.048
2856 0 78.2254 10.5337 824 101.665 1174.3 467
2857 0 78.2077 10.8557 849 102.357 1174.17 468.55
2858 0 82.1458 12.0031 986 98.5497 1174.25 465.768
2859 0 83.1042 11.7924 980 99.9674 1174.04 463.126
2860 0 84.163 10.9312 920 102.061 1174.35 461.367
2861 0 87.2588 10.36 904 104.04 1174.48 460.42
2862 0 90.124 11.0514 996 102.617 1173.66 460.5
2863 0 90.1763 10.5127 948 104.853 1173.89 456.677
2864 0 95.1862 11.2306 1069 103.341 1174.05 458.702
2865 0 97.0888 10.9075 1059 105.874 1174.62 452.871
2866 0 100.256 11.69 1172 104.545 1174.63 454.933
2867 0 103.171 10.7782 1112 107.779 1174.29 452.631
2868 0 105.217 11.6426 1225 106.473 1174.39 453.86
2869 0 108.136 11.2728 1219 107.139 1174.34 453.936
2870 0 111.148 11.5342 1282 106.778 1175.66 456.264
2871 0 117.084 12.8968 1510 104.374 1175.06 451.434
2872 0 124.248 14.954 1858 98.9053 1175.41 445.075
2873 0 121.192 12.7236 1542 107.724 1175.41 445.165
2874 0 126.159 12.8567 1622 106.856 1175.66 444.642
2875 0 128.214 10.7789 1382 112.423 1175.82 443.637
2876 0 133.171 12.3 1638 111.555 1176.2 440.873
2877 0 137.191 13.1496 1804 111.333 1175.45 437.473
2878 0 141.211 10.9694 1549 116.835 1175.15 435.602
2879 0 146.173 11.9995 1754 114.555 1175.65 437.902
2880 0 148.164 11.4063 1690 118.831 1175.21 431.272
2881 0 155.181 11.8636 1841 117.891 1175.92 431.541
2882 0 160.173 12.6926 2033 116.603 1175.65 425.424
2883 0 164.219 10.9183 1793 120.697 1176.22 425.373
2884 0 168.245 12.2084 2054 119.96 1175.4 418.725
2885 0 174.328 12.0635 2103 121.356 1174.63 416.074
2886 1 103.133 10.5785 1091 115.104 1174.95 455.647
2887 0 104.299 10.1343 1057 119.383 1174.51 452.116
2888 0 108.166 12.4808 1350 110.323 1173.75 452.481
2889 0 111.158 11.758 1307 113.207 1174.31 452.658
2890 0 115.096 12.6243 1453 111.343 1174.12 449.855
2891 0 116.199 11.2909 1312 115.409 1174.43 450.556
2892 0 121.08 11.7856 1427 111.581 1174.34 446.988
2893 0 123.044 11.5081 1416 114.114 1174.15 441.545
2894 0 128.125 11.5902 1485 112.254 1174.45 447.359
2895 0 130.148 11.7328 1527 114.269 1173.81 441.124
2896 0 135.169 12.6139 1705 112.34 1173.69 441.645
2897 0 139.185 11.8691 1652 115.235 1174.07 436.29
2898 0 140.124 11.9537 1675 116.276 1174.09 435.273
2899 0 143.113 10.8236 1549 118.933 1173.76 430.801
2900 0 150.223 11.7159 1760 115.76 1174.76 425.044
2901 1 92.0507 11.7978 1086 110.961 1174.56 459.609
2902 0 94.2881 11.3694 1072 107.808 1174.82 458.224
2903 0 98.1016 13.537 1328 104.174 1174.76 456.765
2904 0 101.087 13.3152 1346 104.972 1173.8 456.33
2905 0 104.143 12.9149 1345 106.17 1173.69 455.94
2906 0 107.099 12.1569 1302 108.543 1173.93 453.573
2907 0 110.128 11.9679 1318 108.91 1174.4 452.418
2908 0 113.105 12.2541 1386 108.584 1174.26 447.035
2909 0 117.183 12.2714 1438 108.62 1173.82 448.303
2910 0 121.197 11.8319 1434 111.263 1174.25 445.448
2911 0 124.173 12.5792 1562 108.892 1174.65 443.869
2912 0 128.179 11.7492 1506 110.195 1174.84 442.112
2913 0 132.178 12.8009 1692 110.612 1174.71 442.486
2914 0 136.19 11.528 1570 116.582 1175.37 438.558
2915 0 138.287 11.8088 1633 115.293 1175.21 432.758
2916 0 143.306 10.5788 1516 118.803 1176.79 430.646
2917 0 150.226 11.689 1756 115.139 1175.8 432.667
2918 0 155.235 10.4487 1622 118.112 1176.1 430.057
2919 1 90.1222 10.5745 953 100.132 1175.87 463.423
2920 1 15.0172 5.72676 86 87.6046 1177.02 498.581
2921 0 15.0171 4.39499 66 88.8788 1176.09 497.909
2922 0 16.0036 5.49876 88 88.4318 1175.85 497.114
2923 0 16.0188 7.11663 114 80.4035 1175.07 497.711
2924 0 12.0029 2.83265 34 87.1176 1176.24 497.588
2925 0 18.0009 7.61073 137 79.9416 1174.97 497.19
2926 0 12.0028 5.66536 68 81.7353 1173.99 494.618
2927 0 12.0011 4.58292 55 82.5091 1174.91 495.909
2928 0 13.0014 3.84575 50 83.5 1175.26 496.04
2929 0 13.0051 4.53667 59 82.5085 1175.51 496.763
2930 0 12.0022 2.16627 26 85.4615 1175.5 495.654
2931 0 13.001 3.07669 40 82.175 1174.75 497.075
2932 0 12.0005 7.24967 87 77.2069 1174.7 497.506
2933 0 17.0045 4.99869 85 81.3294 1173.58 493.953
2934 0 12 0.75 9 94.3333 1176.11 498.333
2935 0 17.0012 5.58784 95 86.8632 1177.79 496.126
2936 0 15.0052 4.66504 70 88.8143 1176 497.086
2937 0 16.0064 6.43494 103 85.835 1172.48 496.223
2938 0 17.0004 6.47042 110 86.0636 1173.48 496.591
2939 0 14.0119 6.20903 87 79 1173.15 496.023
2940 0 10.0016 7.49878 75 72.2533 1174.57 491.533
2941 0 10.0003 3.09992 31 76.6129 1175.03 492.548
2942 0 10.002 4.89904 49 73.102 1173.92 491.571
2943 0 10.0022 3.29929 33 75 1174.27 492.303
2944 1 103.264 10.6717 1102 102.578 1175.65 441.164
2945 0 109.288 11.3827 1244 100.352 1174.93 442.984
2946 0 107.152 10.4898 1124 103.681 1175.47 437.365
2947 0 109.134 10.7849 1177 103.895 1175.31 435.353
2948 0 116.253 11.0104 1280 103.527 1175.53 435.116
2949 0 118.253 12.4479 1472 101.166 1175.75 432.675
2950 0 121.378 9.81228 1191 107.835 1175.39 428.516
2951 0 124.254 10.8166 1344 106.715 1174.81 430.961
2952 0 131.334 9.96693 1309 109.682 1174.29 429.978
2953 0 135.242 11.6014 1569 106.166 1174.49 428.056
2954 0 136.228 11.2385 1531 108.097 1174.94 423.516
2955 1 80.146 8.45956 678 111.736 1175.81 451.327
2956 0 85.1722 9.09921 775 111.995 1176.03 449.129
2957 0 82.2192 9.24359 760 111.897 1175.29 451.243
2958 0 84.1706 9.57579 806 112.496 1175.71 449.459
2959 0 91.2502 10.9479 999 109.527 1175.53 448.728
2960 0 91.2502 10.9041 995 140.914 1174.55 448.737
2961 0 97.159 10.4159 1012 113.5 1174.1 442.487
2962 0 102.328 10.134 1037 113.199 1174.57 444.151
2963 0 104.279 10.8172 1128 111.937 1174.12 443.771
2964 0 109.464 10.5058 1150 112.897 1174.23 439.17
2965 0 112.539 10.9473 1232 111.08 1175.13 441.084
2966 0 121.338 8.88427 1078 115.986 1174.59 441.23
2967 0 118.218 9.29635 1099 121.235 1174.03 431.59
2968 0 121.225 9.602 1164 120.233 1174.42 430.845
2969 0 125.384 9.59454 1203 118.916 1174.51 429.988
2970 0 130.434 11.6151 1515 113.982 1173.94 433.048
2971 0 133.304 12.0026 1600 114.216 1175.16 427.837
2972 0 136.357 12.636 1723 114.858 1174.95 426.288
2973 0 141.407 12.0786 1708 115.88 1174.74 425.13
2974 1 80.3686 10.0288 806 108.149 1173.25 455.041
2975 0 80.3773 10.2765 826 107.868 1173.1 455.648
2976 0 83.2065 10.3237 859 98.7031 1174.3 452.102
2977 0 86.368 11.4047 985 95.9421 1174.93 454.563
2978 0 87.2732 9.49891 829 101.744 1174.75 452.064
2979 0 87.1379 11.0629 964 101.005 1174.32 449.212
2980 0 92.2142 10.1069 932 104.014 1174.74 447.63
2981 0 92.1991 11.1064 1024 103.56 1174.13 446.889
2982 0 98.1855 11.9875 1177 101.397 1173.84 448.117
2983 0 102.306 12.1205 1240 102.441 1174.58 448.119
2984 0 103.35 11.1369 1151 106.03 1173.96 442.848
2985 0 108.382 11.1273 1206 108.649 1173.72 442.605
2986 0 110.242 12.9533 1428 108.607 1173.86 446.017
2987 0 112.42 13.334 1499 109.731 1173.68 441.022
2988 0 115.343 13.4902 1556 109.118 1173.27 436.962
2989 0 118.308 13.8114 1634 108.812 1173.08 436.439
2990 0 117.385 12.7018 1491 112.528 1173.15 432.406
2991 0 119.367 11.251 1343 116.99 1172.88 434.161
2992 0 122.346 11.1487 1364 117.422 1173.31 432.457
2993 0 128.262 10.9542 1405 117.888 1173.8 429.108
2994 0 131.171 11.4812 1506 116.325 1173.49 428.124
2995 0 136.161 11.6921 1592 115.783 1172.95 428.117
2996 0 142.308 12.747 1814 112.674 1173.01 426.94
2997 0 143.333 12.3628 1772 115.401 1173.51 421.244
2998 0 150.221 13.0075 1954 112.611 1174.09 421.558
2999 0 151.312 11.1095 1681 118.054 1173.47 416.877
3000 0 160.262 12.2487 1963 114.056 1173.14 411.92
3001 0 163.288 11.7645 1921 115.08 1173.5 412.471
3002 0 169.38 11.5244 1952 115.911 1173.72 409.723
3003 0 175.342 12.2161 2142 113.632 1173.49 408.955
3004 1 107.292 10.5599 1133 111.138 1173.74 442.782
3005 0 110.316 10.5334 1162 112.344 1173.22 436.634
3006 0 115.113 10.2595 1181 113.506 1171.97 441.342
3007 0 117.109 11.596 1358 111.512 1172.4 434.623
3008 0 123.144 13.3178 1640 107.068 1172.55 435.82
3009 0 125.234 13.0716 1637 108.338 1172.82 434.772
3010 0 125.104 12.2858 1537 111.818 1173.03 428.004
3011 1 14.001 3.9997 56 81.1607 1172.43 489.375
3012 0 11.0009 2.36344 26 83.2692 1173 489.038
3013 0 15.004 4.66541 70 78.5 1172.31 491.371
3014 0 17.0241 4.64048 79 80.0633 1172.28 490.519
3015 0 14.0007 4.92833 69 76.9565 1172.59 492.362
3016 0 12.0122 5.66093 68 78.1912 1176.81 488.897
3017 0 19.0088 0.946928 18 86.0556 1176.33 486.667
3018 0 19.0368 2.25878 43 83.3023 1176.49 488.372
3019 0 21.0402 2.18629 46 85.0217 1177.24 489.587
3020 0 23.0647 5.72303 132 81.4773 1176.73 488.561
3021 0 17.0019 6.11698 104 81.1827 1176.64 488.481
3022 1 184.471 13.6661 2521 113.457 1174.25 401.183
3023 0 191.551 13.5264 2591 115.641 1174.24 395.781
3024 0 198.423 12.2466 2430 115.842 1173.95 396.048
3025 0 204.498 12.274 2510 114.872 1174.19 395.779
3026 0 208.471 11.3925 2375 118.8 1173.77 392.6
3027 0 213.359 11.6798 2492 118.792 1173.72 392.801
3028 0 220.184 11.9309 2627 118.528 1173.56 394.871
3029 0 225.42 10.4294 2351 124.379 1173.74 388.642
3030 0 232.439 13.1605 3059 118.221 1172.77 387.33
3031 0 240.415 13.589 3267 116.508 1173.3 389.395
3032 0 246.364 12.2948 3029 120.621 1173.38 383.702
3033 0 253.421 12.4417 3153 121.272 1172.43 379.295
3034 0 259.446 12.1567 3154 121.924 1173.22 378.77
3035 1 216.372 11.4155 2470 121.117 1173.11 392.006
3036 0 223.31 12.3909 2767 117.331 1173.6 396.355
3037 0 230.326 12.7385 2934 115.617 1173.59 398.021
3038 0 234.406 11.062 2593 120.382 1173.14 394.502
3039 0 240.412 11.1975 2692 120.695 1174.12 391.828
3040 0 249.373 12.1786 3037 120.329 1173.74 387.52
3041 0 259.352 12.2652 3181 120.702 1173.83 386.552
3042 0 265.471 13.1013 3478 120.266 1173.97 379.834
3043 1 47.0612 10.9432 515 105.45 1172.7 487.676
3044 0 48.0476 11.0932 533 105.403 1173.14 486.383
3045 0 46.0855 12.9976 599 101.603 1172.61 486.432
3046 0 47.0281 10.9296 514 102.946 1173.26 486.226
3047 0 47.0626 14.4063 678 97.9498 1174.22 487.563
3048 0 47.1213 11.3961 537 106.665 1173.51 487.149
3049 0 47.0901 10.5118 495 99.004 1173.69 489.152
3050 0 46.1441 11.2474 519 106.38 1174.27 485.495
3051 0 45.1918 10.9312 494 108.609 1175.23 486.553
3052 0 45.1217 11.7238 529 107.212 1174.54 484.692
3053 0 48.057 10.6748 513 108.265 1173.51 484.131
3054 0 47.034 11.5236 542 106.439 1173.51 485.745
3055 0 47.1166 11.0577 521 107.159 1175.04 486.624
3056 0 48.0451 10.4277 501 108.124 1174.92 488.641
3057 0 48.1079 12.9708 624 103.223 1175.36 486.08
3058 0 48.083 11.0018 529 107.592 1174.85 486.977
3059 0 50.0542 12.5863 630 103.294 1175.11 485.956
3060 0 49.071 11.6566 572 105.738 1174.67 485.719
3061 0 49.1032 12.0359 591 104.936 1174.02 486.316
3062 0 50.0613 12.6245 632 102.845 1174.08 486.818
3063 0 48.0795 10.5242 506 109.868 1174.15 485.83
3064 0 47.0436 10.2671 483 110.199 1174.35 487.466
3065 0 49.0629 11.2305 551 107.543 1174.4 486.635
3066 0 49.0414 10.9703 538 108.494 1173.89 485.621
3067 0 49.0784 9.88214 485 111.72 1173.89 486.118
3068 0 47.0479 10.7337 505 110.465 1174.09 485.871
3069 0 49.0432 10.297 505 110.943 1173.83 485.78
3070 0 49.1764 11.7943 580 106.921 1173.77 486.428
3071 0 50.0901 10.6209 532 110.047 1174.4 485.387
3072 0 49.0943 11.0807 544 109.743 1174.17 484.965
3073 1 51.0673 15.2152 777 93.7967 1173.29 479.682
3074 0 56.0639 12.6641 710 96.138 1172.83 478.538
3075 0 57.0559 14.8977 850 90.8706 1173.09 477.9
3076 0 55.2865 13.4753 745 95.596 1172.57 479.672
3077 0 52.0161 15.2453 793 94.5195 1172.91 479.777
3078 0 46.0381 9.73107 448 114.277 1172.23 479.027
3079 0 48.029 11.0142 529 109.824 1173.09 482.943
3080 0 49.0379 10.0738 494 109.824 1173.1 486.028
3081 0 48.0374 10.3253 496 110.359 1172.61 484.7
3082 0 47.0723 10.7069 504 110.438 1172.38 484.603
3083 0 48.0584 10.9242 525 110.173 1173.23 483.549
3084 0 49.0914 10.6129 521 110.324 1173.53 484.457
3085 0 51.1409 11.1261 569 106.301 1173.28 485.067
3086 0 54.0465 14.5245 785 96.693 1173.35 483.696
3087 0 50.0444 11.4498 573 107.079 1173.16 483.801
3088 0 51.0645 10.9273 558 107.296 1172.93 484.038
3089 0 50.0218 12.1147 606 104.507 1172.9 484.535
3090 0 50.079 11.6816 585 105.147 1173.06 484.388
3091 0 50.0367 11.6514 583 105.648 1172.57 483.573
3092 0 47.0454 9.58649 451 111.98 1172.52 485.486
3093 0 49.0792 9.69861 476 111.067 1173.39 485.586
3094 0 50.0878 10.821 542 108.734 1173.62 483.97
3095 0 50.0527 11.368 569 107.838 1173.33 483.497
3096 0 48.0821 11.2932 543 109.829 1173.68 483.729
3097 0 50.1009 11.4569 574 108.207 1173.61 483.819
3098 0 51.0426 9.91329 506 111.328 1174.04 482.917
3099 0 49.0129 12.8334 629 104.777 1173.44 483.741
3100 0 50.0425 11.0306 552 109.261 1173.9 482.152
3101 0 50.1168 11.4133 572 108.444 1173.58 482.295
3102 0 50.091 10.8602 544 109.513 1173.94 482.43
3103 0 51.1262 11.3836 582 108.088 1173.59 481.701
3104 0 51.0801 9.69067 495 110.022 1173.53 484.099
3105 0 51.0969 11.4293 584 106.594 1173.57 482.512
3106 0 52.1243 10.7436 560 107.638 1173.64 483.571
3107 0 51.0864 10.9031 557 108.09 1173.5 484.149
3108 0 53.1077 10.4505 555 107.573 1173.92 483.604
3109 0 49.1544 10.0296 493 109.817 1173.87 482.866
3110 0 53.1171 11.8606 630 103.511 1173.93 482.554
3111 0 51.0449 11.5976 592 104.61 1173.96 483.809
3112 0 52.0691 12.7715 665 102.009 1173.77 482.505
3113 0 53.1258 11.0869 589 104.849 1173.47 482.428
3114 0 50.0708 10.3453 518 107.11 1174.06 483.581
3115 0 51.0502 11.6944 597 104.717 1173.5 482.595
3116 0 52.0458 12.0663 628 103.011 1173.92 482.245
3117 0 52.0761 11.656 607 102.053 1173.7 485.145
3118 0 50.115 11.294 566 105.693 1173.67 482.219
3119 0 52.027 11.2057 583 104.499 1172.94 481.638
3120 0 50.1541 10.9263 548 104.922 1173.09 482.268
3121 0 51.0703 11.1219 568 105.259 1173.21 482.511
3122 0 49.0467 10.5818 519 106.892 1173.6 482.457
3123 0 52.1347 11.1826 583 104.774 1174.06 482.379
3124 0 50.0574 10.2083 511 106.924 1173.96 482.581
3125 0 50.039 11.491 575 104.699 1173.26 482.499
3126 0 52.0818 11.9812 624 102.436 1174.12 481.579
3127 0 54.0858 14.0518 760 97.4934 1174.06 482.47
3128 0 54.0396 12.2133 660 101.832 1174.17 482.476
3129 0 53.0645 11.7027 621 102.332 1173.8 482.444
3130 0 51.1171 11.4639 586 104.282 1174.27 481.464
3131 0 53.1121 12.483 663 99.9382 1174.15 483.193
3132 0 51.0909 11.2544 575 103.534 1174.84 483.343
3133 0 53.0665 12.2865 652 99.4478 1174.5 483.943
3134 0 53.2058 11.7092 623 100.963 1174.5 482.087
3135 0 55.02 11.9775 659 98.9939 1174.2 483.53
3136 0 54.051 12.4142 671 98.9642 1174.8 483.08
3137 0 52.1172 10.5723 551 103.728 1173.95 482.234
3138 0 54.0717 11.5772 626 99.6502 1175 483.236
3139 0 53.0354 11.1058 589 101.447 1175.4 482.185
3140 0 53.1131 11.3155 601 99.8519 1174.67 484.647
3141 0 54.0686 10.9306 591 100.846 1174.84 483.398
3142 0 55.0392 12.3367 679 97.6215 1174.95 482.925
3143 0 53.1311 12.2339 650 97.6523 1175.47 485.445
3144 0 53.1185 12.1991 648 98.8364 1175.42 482.957
3145 0 53.0637 12.8148 680 97.2015 1175.6 484.613
3146 0 53.0768 10.4189 553 101.958 1175.36 483.448
3147 0 52.0653 10.9862 572 101.058 1175.46 482.729
3148 0 51.1597 11.2198 574 101.005 1174.32 481.922
3149 0 52.0251 11.1677 581 100.783 1174.17 483.614
3150 0 53.1053 11.7691 625 98.2352 1174.6 484.722
3151 0 52.1362 10.6068 553 101.09 1174.48 483.11
3152 0 50.1742 8.84917 444 106.104 1174.7 482.761
3153 0 54.1007 11.9961 649 98.0986 1173.91 483.29
3154 0 52.1134 11.4942 599 98.9733 1173.67 483.938
3155 0 52.0834 10.848 565 101.227 1174.31 483.159
3156 0 54.1834 12.0148 651 98.2826 1174.09 482.636
3157 0 53.1094 10.9773 583 100.581 1173.51 481.441
3158 0 53.1035 11.5058 611 98.5123 1173.37 483.532
3159 0 52.1917 11.9751 625 98.0304 1173.83 483.651
3160 0 54.1986 11.2364 609 98.7225 1173.84 483.759
3161 0 52.0716 11.561 602 99.1678 1174.11 480.279
3162 0 53.1385 9.69166 515 101.882 1173.53 484.54
3163 0 55.0557 11.9152 656 97.2043 1173.72 483.482
3164 0 54.1252 12.5635 680 96.4441 1173.45 481.721
3165 0 52.0238 10.6297 553 101.145 1174.13 482.91
3166 0 53.2135 10.5236 560 100.7 1175.01 482.946
3167 0 53.1233 11.7274 623 98.3371 1174.02 484.445
3168 0 54.0817 9.48564 513 100.694 1173.83 483.39
3169 0 54.1184 9.97812 540 98.9037 1173.88 485.463
3170 0 51.2011 11.0154 564 98.4149 1174.43 484.229
3171 0 53.0625 10.4028 552 99.7772 1173.43 483.524
3172 0 52.0861 9.5803 499 100.8 1173.79 483.97
3173 0 51.0763 9.98505 510 100.225 1173.96 485.539
3174 0 54.0772 10.6884 578 98.1782 1174.08 483.997
3175 0 53.1113 11.5041 611 96.928 1174.04 481.895
3176 0 53.1243 10.8613 577 97.5251 1173.86 483.763
3177 0 52.1563 11.1204 580 97.0741 1173.27 482.883
3178 0 53.0611 10.3654 550 97.7545 1173.3 485.636
3179 0 50.0579 9.26927 464 100.795 1173.44 483.509
3180 0 50.1279 7.9397 398 102.487 1172.93 484.952
3181 0 51.0579 9.30316 475 99.56 1172.98 485.815
3182 0 50.1608 10.2869 516 99.7965 1173.17 481.537
3183 0 51.1432 9.54183 488 99.627 1173.33 483.656
3184 0 51.1028 9.13844 467 99.4904 1173.73 486.009
3185 0 51.103 12.5237 640 93.9547 1173.24 483.683
3186 0 51.0844 10.4337 533 98.2739 1173.34 481.647
3187 0 51.1297 10.0333 513 98.2515 1173 483.476
3188 0 52.1655 10.2367 534 97.3633 1172.61 484.114
3189 0 53.096 11.7523 624 94.3013 1172.9 483.399
3190 0 51.1083 11.6224 594 95.8013 1173.1 483.38
3191 0 53.0598 9.34795 496 98.119 1172.57 484.921
3192 0 52.0841 10.963 571 96.6165 1173.01 482.956
3193 0 51.059 10.6739 545 98.0422 1172.53 482.31
3194 0 51.1326 9.81761 502 99.0139 1172.69 482.731
3195 0 53.2297 11.2156 597 96.4439 1172.82 482.176
3196 0 53.067 11.6457 618 95.1909 1172.24 480.691
3197 0 52.1023 11.4582 597 95.4422 1172.32 482.38
3198 0 53.0942 9.64323 512 98.3379 1172.1 482.01
3199 0 52.0807 9.67729 504 98.9325 1172.17 479.141
3200 0 52.1744 10.6757 557 97.0287 1172.15 481.144
3201 0 52.04 10.8378 564 96.7606 1172.54 482.071
3202 0 53.0522 10.1975 541 97.1867 1172.35 482.852
3203 0 51.0539 9.93069 507 98.0592 1171.82 481.481
3204 0 52.0219 11.4567 596 95.5201 1171.6 481.255
3205 0 52.1315 10.5311 549 96.3916 1171.76 482.044
3206 0 52.073 11.8295 616 94.9237 1172.31 481.615
3207 0 51.0578 11.0071 562 97.1068 1172.29 480.781
3208 0 51.126 10.2101 522 97.2069 1172.65 483.86
3209 0 51.0316 9.79786 500 99.62 1172.24 481.128
3210 0 53.0528 10.7063 568 96.3873 1172.33 483.088
3211 0 52.0304 9.72508 506 98.4545 1172.24 483.773
3212 0 52.0221 9.63052 501 114.072 1173.22 483.746
3213 0 49.0788 8.70029 427 102.417 1172.15 481.581
3214 0 53.0615 9.10265 483 99.9586 1172.66 483.642
3215 0 51.0771 11.4924 587 97.3271 1172.56 480.538
3216 0 52.0401 9.87701 514 98.3891 1172.48 483.391
3217 0 53.1944 9.70028 516 97.812 1172.3 484.033
3218 0 51.0317 10.2093 521 99.3493 1172.29 481.962
3219 0 51.0758 9.45654 483 99.6977 1172.15 483.613
3220 0 50.1182 8.24052 413 103.232 1172.51 482.056
3221 0 52.0449 9.72237 506 99.0613 1172.66 483.986
3222 1 125.436 12.4924 1567 113.189 1173.9 441.505
3223 0 128.322 12.4219 1594 113.236 1174.02 442.12
3224 1 51.0574 8.73526 446 100.93 1172.88 484.478
3225 0 51.1109 8.92178 456 100.875 1172.86 483.941
3226 0 50.1137 8.85985 444 99.6419 1173.49 482.419
3227 0 50.1778 8.19088 411 100.504 1173.35 483.611
3228 0 50.0999 8.18365 410 101.517 1173.69 482.32
3229 0 49.1002 8.00404 393 101.542 1173.55 482.486
3230 0 52.2492 10.0863 527 97.0076 1172.87 481.846
3231 0 48.1392 8.74548 421 100.732 1172.48 480.468
3232 0 51.0843 10.2576 524 96.1756 1172.64 483.193
3233 0 50.1002 7.92412 397 99.9018 1173.21 484.642
3234 0 51.1046 8.33585 426 99.4859 1172.78 481.69
3235 0 52.106 10.3827 541 94.9723 1172.72 484.094
3236 0 52.1733 10.5418 550 95.9327 1172.63 482.155
3237 0 54.111 9.14787 495 97.5131 1173.3 482.855
3238 0 52.0802 9.19735 479 97.3946 1172.95 483.762
3239 0 50.1707 10.4045 522 96.0996 1172.71 481.172
3240 0 53.1113 9.16942 487 96.7947 1172.75 483.561
3241 0 51.0826 8.10451 414 98.6039 1172.83 483.886
3242 0 53.173 9.19639 489 96.2188 1172.98 482.491
3243 0 50.1539 8.43404 423 100.27 1172.7 482.693
3244 0 53.1162 10.9948 584 96.1233 1172.64 482.682
3245 0 52.1583 9.60538 501 98.0878 1172.41 483.834
3246 0 50.1467 10.4693 525 97.7943 1171.9 482.785
3247 0 50.1038 8.20297 411 101.781 1172.86 484.37
3248 0 50.1681 9.92662 498 99.0984 1173.14 482.269
3249 0 49.1195 8.75416 430 101.074 1173.38 482.654
3250 0 49.1071 9.81528 482 100.668 1172.39 481.714
3251 0 51.0943 9.57054 489 99.2802 1172.91 483.536
3252 1 100.39 9.4332 947 113.039 1173.9 457.157
3253 0 102.56 10.0819 1034 111.516 1174.44 454.195
3254 0 102.174 10.9519 1119 104.43 1174.26 456.73
3255 0 103.178 11.1361 1149 105.292 1174.3 450.1
3256 0 105.244 10.6419 1120 105.647 1174.41 453.745
3257 0 107.279 10.5705 1134 105.852 1173.94 450.847
3258 0 111.268 11.6116 1292 102.635 1174.02 451.651
3259 0 112.223 11.7089 1314 102.543 1173.54 450.833
3260 1 51.1204 10.0938 516 97.6919 1173.3 483.132
3261 0 54.171 10.7068 580 96.2276 1173.1 480.838
3262 0 52.1012 11.113 579 95.62 1173.22 481.718
3263 0 50.0675 9.06776 454 99.8062 1173.55 482.225
3264 0 52.0706 11.8877 619 93.4249 1173.29 482.418
3265 1 126.289 10.9194 1379 106.305 1173.7 440.474
3266 0 130.264 12.728 1658 102.706 1173.66 440.247
3267 1 92.074 9.69872 893 103.71 1173.96 462.342
3268 1 49.0291 7.83209 384 100.352 1173.11 484.531
3269 0 52.1298 10.6657 556 96.1313 1173.5 482.773
3270 0 51.1295 7.78416 398 99.4774 1174.09 484.678
3271 0 52.1344 9.93586 518 97.3591 1173.95 482.143
3272 0 52.2047 8.17934 427 100.108 1173.66 479.878
3273 0 53.0919 8.8149 468 98.3397 1173.29 482.53
3274 0 51.11 10.8002 552 95.9312 1173.18 480.306
3275 0 50.0942 8.02488 402 99.7388 1173.63 481.828
3276 0 51.0708 9.59452 490 97.7776 1174.13 480.449
3277 0 51.2023 10.7612 551 95.2196 1174.07 481.613
3278 0 50.1464 9.57198 480 97.4354 1173.51 480.156
3279 0 50.1002 8.5828 430 98.7581 1174.33 479.607
3280 0 51.1767 9.49652 486 96.249 1174.25 479.111
3281 0 52.1495 9.5303 497 95.2012 1174.15 480.746
3282 0 52.2127 11.7404 613 92.5139 1173.9 479.62
3283 0 51.123 12.6558 647 90.9536 1173.73 478.852
3284 0 52.0926 10.2126 532 93.3158 1174.48 481.624
3285 0 51.1094 10.409 532 94.7293 1174.38 478.797
3286 0 52.1099 10.3435 539 93.9443 1174.35 479.373
3287 0 50.1309 10.1534 509 94.8055 1173.95 478.709
3288 0 50.0588 9.20917 461 95.7722 1173.8 480.403
3289 0 52.1356 11.4509 597 91.0067 1174.29 480.908
3290 0 52.1711 11.3089 590 92.1983 1174.41 479.905
3291 0 53.1738 11.2273 597 91.8074 1174.09 479.395
3292 0 51.1046 10.1361 518 94.5116 1174.15 480.21
3293 0 53.1662 9.81826 522 93.5843 1173.59 482.136
3294 0 51.1065 9.45086 483 94.4969 1174.41 481.474
3295 0 47.0518 7.33234 345 92.1913 1175.34 484.032
3296 0 47.0109 8.87028 417 89.6331 1174.26 483.633
3297 0 47.0118 7.74273 364 92.1044 1174.27 482.176
3298 1 107.31 11.4808 1232 96.2995 1175.21 452.126
3299 0 111.288 11.3489 1263 97.2676 1175.22 451.903
3300 0 111.275 9.84951 1096 104.029 1174.92 447.672
3301 0 114.238 12.1938 1393 99.9813 1175.05 447.489
3302 0 116.43 11.4747 1336 101.961 1174.55 446.28
3303 0 121.303 12.0937 1467 99.7478 1174.64 449.26
3304 0 121.307 9.43062 1144 107.408 1175.43 443.484
3305 1 88.3285 8.95521 791 101.516 1174.97 462.58
3306 0 90.287 9.66916 873 101.493 1175.09 458.666
3307 0 93.3428 9.80258 915 100.125 1174.81 455.462
3308 0 98.2311 9.80341 963 97.1256 1174.85 454.535
3309 0 94.3067 10.328 974 101.176 1175.55 454.281
3310 0 99.4173 11.8088 1174 97.2181 1175.29 455.864
3311 0 100.27 11.6286 1166 98.271 1175.85 453.905
3312 0 102.4 11.6211 1190 97.4933 1176.19 457.813
3313 0 101.276 11.2465 1139 99.5259 1175.6 456.018
3314 0 103.277 10.6703 1102 100.881 1175.73 453.309
3315 0 103.256 12.1445 1254 98.9394 1175.45 451.077
3316 0 104.433 10.6384 1111 102.728 1175.79 447.516
3317 0 108.27 11.5082 1246 100.292 1175.39 449.585
3318 0 108.395 11.4673 1243 100.283 1175.79 448.001
3319 0 109.198 11.383 1243 101.525 1176.09 445.038
3320 0 113.267 11.5303 1306 100.479 1175.99 447.863
3321 0 113.269 11.3624 1287 101.383 1175.79 447.57
3322 0 114.258 10.7389 1227 104.164 1176.06 443.502
3323 0 118.224 11.7319 1387 101.81 1174.76 445.28
3324 0 122.328 12.6381 1546 100.294 1176.13 445.556
3325 0 125.306 12.1862 1527 101.331 1175.64 441.461
3326 0 126.29 11.9091 1504 102.022 1175.1 438.569
3327 0 128.29 10.6478 1366 105.387 1175.26 435.788
3328 0 133.433 12.2009 1628 101.953 1175.53 438.029
3329 1 50.1793 8.01127 402 94.8781 1173.96 484.985
3330 0 49.0731 9.35339 459 94.1046 1174.05 481.512
3331 0 48.0245 5.91365 284 98.1866 1174 484.926
3332 0 50.078 6.66959 334 96.982 1173.97 483.413
3333 0 48.0921 8.60848 414 95.2874 1173.79 481.341
3334 0 48.1466 8.7649 422 95.8081 1173.4 480.251
3335 0 49.0858 7.72118 379 94.4881 1173.59 486.372
3336 0 47.1055 6.47482 305 99.2721 1174.26 482.551
3337 0 47.0844 8.70776 410 95.8122 1174.33 480.783
3338 0 48.0567 8.82291 424 95.8585 1173.48 481.925
3339 0 49.099 7.08772 348 96.4885 1173.57 485.457
3340 0 48.0474 9.22007 443 94.0813 1173.81 483.503
3341 0 49.101 9.24626 454 92.5793 1173.23 486.511
3342 0 50.053 9.07038 454 94.8789 1173.26 483.46
3343 0 47.107 8.85219 417 94.5779 1173.25 486.801
3344 0 47.0721 7.24421 341 97.1877 1173.63 485.938
3345 0 49.0731 9.00696 442 94.6041 1173.28 483.586
3346 0 48.115 7.52364 362 96.674 1173.58 483.086
3347 0 50.088 9.34356 468 93.8034 1173.76 483.147
3348 0 48.1056 8.08638 389 96.0617 1173.48 484.555
3349 0 50.1449 9.65203 484 92.9256 1173.69 483.523
3350 0 46.0728 7.37963 340 96.6824 1174.62 483.691
3351 0 48.1021 8.3988 404 94.9406 1174.07 482.423
3352 0 47.0214 8.5493 402 94.8706 1173.75 484.122
3353 0 48.0812 8.19448 394 94.8959 1174.11 482.046
3354 0 50.1032 9.18105 460 92.4544 1174.08 480.361
3355 0 48.0977 8.56589 412 94.068 1174.15 481.646
3356 0 47.1307 9.37817 442 91.8394 1174.04 483.636
3357 0 49.0826 10.6555 523 89.1625 1173.75 482.388
3358 0 45.0758 6.12302 276 96.9094 1173.56 484.859
3359 0 44.0397 4.22346 186 98.828 1173.47 485.64
3360 0 42.0144 6.18835 260 97.5346 1172.92 484.904
3361 0 46.0732 6.92377 319 95.6019 1172.93 485.564
3362 0 40.0749 8.88337 356 94.3708 1173.21 484.618
3363 0 45.0857 7.89608 356 94.7107 1172.83 485.75
3364 0 44.106 8.81966 389 93.3136 1172.8 484.532
3365 0 44.0536 6.85528 302 96.3311 1172.93 483.44
3366 0 42.0417 7.65906 322 96.2453 1172.1 481.795
3367 0 44.0353 8.33422 367 93.6839 1172.32 486.493
3368 0 43.0607 6.31666 272 95.6103 1172.36 486.309
3369 0 41.018 7.6308 313 95.6166 1172.47 482.38
3370 0 43.05 7.57259 326 93.0675 1173.35 484.497
3371 0 43.052 6.15534 265 94.6566 1173.25 483.902
3372 0 45.1073 5.29848 239 97.4519 1172.43 482.172
3373 0 42.0549 5.56416 234 97.1795 1172.79 485.996
3374 0 44.0146 5.54361 244 97.1926 1172.66 485.799
3375 0 44.1309 6.50338 287 96.0801 1173.24 483.875
3376 0 42.1002 3.30165 139 99.705 1173 482.799
3377 0 44.1136 5.7352 253 97.079 1172.62 482.518
3378 0 40.0431 4.81981 193 97.2124 1172.92 486.358
3379 0 44.056 6.15126 271 96.6162 1173.17 481.889
3380 0 39.0184 5.12578 200 97.605 1173.42 486.195
3381 0 41.0564 7.52623 309 94.2136 1173.74 485.003
3382 0 44.0958 8.27744 365 93.6822 1173.9 480.063
3383 0 41.0471 6.40728 263 96.2281 1173.88 482.266
3384 0 43.0947 8.79458 379 92.1794 1173.2 484.652
3385 0 44.0662 9.19071 405 91.5358 1173.74 483.338
3386 0 43.0453 7.43403 320 93.7969 1173.27 483.972
3387 0 46.0591 6.70878 309 93.6246 1172.82 484.948
3388 0 46.0447 9.0347 416 91.4736 1172.19 480.493
3389 0 44.058 6.19637 273 95.2528 1172.47 483.275
3390 0 44.117 7.14011 315 94.0476 1173.52 483.413
3391 0 45.0347 8.61557 388 92 1173.24 480.874
3392 0 44.0119 7.22532 318 93.9874 1173.37 483.289
3393 0 44.0511 8.73986 385 91.5766 1173.75 482.281
3394 0 45.0688 6.85619 309 94.4563 1173.38 483.375
3395 0 45.0275 8.08395 364 92.7308 1173.59 482.162
3396 0 44.0499 6.60614 291 94.3333 1173.94 480.65
3397 0 43.0955 6.70603 289 94.2526 1173.81 483.54
3398 0 45.0183 5.5755 251 94.1036 1174.4 486.996
3399 0 42.0462 4.97072 209 96.6459 1173.5 481.153
3400 0 44.0229 9.19976 405 91.2247 1173.64 480.017
3401 0 45.0375 10.4358 470 89.9702 1173.59 480.506
3402 0 42.0109 8.30738 349 90.9914 1173.56 483.427
3403 0 43.0406 6.92369 298 93.5436 1173.49 481.104
3404 0 39.0638 4.35186 170 96.7118 1173.71 481.994
3405 0 39.0495 7.2216 282 93.195 1173.28 482.064
3406 0 39.0683 7.39731 289 92.4118 1173.47 480.315
3407 0 41.0578 4.67634 192 95.3646 1173.53 484.792
3408 0 43.163 7.69177 332 92.3855 1172.71 480.898
3409 0 45.0254 8.5063 383 91.2063 1172.62 480.916
3410 0 46.0328 7.82052 360 91.7806 1173 478.486
3411 0 45.0058 4.04392 182 94.9011 1173.21 481.231
3412 0 42.0613 8.15476 343 91.277 1173.69 481.096
3413 0 41.0395 4.80026 197 95.0863 1173.41 480.178
3414 0 44.0314 7.33568 323 91.8328 1173.45 482.749
3415 0 43.0523 6.6663 287 93.3031 1172.85 482.328
3416 0 46.0255 6.58331 303 92.33 1173.33 483.739
3417 0 43.0813 8.54198 368 91.5027 1173.84 483.003
3418 0 44.0361 6.72176 296 93.4358 1173.5 484.206
3419 0 45.0534 7.85734 354 92.8475 1173.49 479.458
3420 0 44.0296 8.63057 380 90.8579 1173.13 483.732
3421 0 42.0678 5.11079 215 96.1954 1173.46 482.707
