time division length width area intensity CMx CMy
0 0 38.0145 11.1536 424 160.844 129.002 478.88
1 0 39.0236 11.5827 452 158.989 129.679 477.965
2 0 41.0218 11.5548 474 157.335 129.684 478.352
3 0 41.0579 12.2754 504 157.462 130.262 477.831
4 0 42.0181 12.0424 506 157.794 130.051 477.17
5 0 44.0563 11.9393 526 155.582 129.876 477.719
6 0 46.0461 12.8784 593 150.556 128.919 476.954
7 0 46.0461 12.7915 589 151.301 127.939 477.049
8 0 46.0898 12.5624 579 153.724 129.143 476.781
9 0 47.1444 11.942 563 155.615 129.242 475.75
10 0 50.0515 12.4272 622 153.096 129.386 476.251
11 0 52.0458 12.7196 662 151.092 129.218 475.583
12 0 55.0303 13.2654 730 145.732 128.67 474.874
13 0 55.0321 13.6648 752 145.233 128.483 474.876
14 0 56.0571 12.9332 725 149.232 128.527 474.199
15 0 58.0897 12.4979 726 147.901 128.324 474.93
16 0 58.0602 13.2277 768 147.784 128.475 472.759
17 0 60.1557 12.717 765 150.086 128.243 472.43
18 0 63.0287 12.9782 818 148.965 126.85 471.45
19 0 62.0764 12.694 788 151.419 127.951 469.84
20 0 68.0318 12.4795 849 148.562 127.707 470.006
21 0 70.0917 13.0401 914 106.756 127.523 469.724
22 0 72.0545 12.5738 906 147.394 126.4 469.137
23 0 75.0452 13.0988 983 145.704 126.484 466.789
24 0 76.0396 13.0853 995 147.273 126.606 466.452
25 0 80.1 12.4594 998 147.772 126.46 464.756
26 1 40.0093 12.3721 495 150.653 125.669 483.19
27 0 39.0199 12.0708 471 141.654 125.79 485.04
28 0 40.0434 12.7362 510 141.308 126.963 482.867
29 0 43.0276 12.5036 538 140.625 126.182 484.115
30 0 43.0363 11.6181 500 143.654 125.596 484
31 0 45.043 12.477 562 141.068 126.34 483.062
32 0 47.0256 12.8866 606 139.035 126.248 481.802
33 0 50.0382 13.3898 670 136.612 125.655 481.966
34 0 50.0343 11.9918 600 142.148 126.047 480.602
35 0 51.0417 13.0482 666 138.206 126.221 479.761
36 0 54.0857 13.5896 735 136.205 125.582 478.716
37 0 56.0772 13.2496 743 136.756 125.957 477.693
38 0 56.072 14.4279 809 134.41 125.451 476.784
39 0 58.0477 13.8162 802 136.207 125.767 476.545
40 0 60.0592 13.1204 788 138.846 126.453 476.499
41 0 63.0699 13.9211 878 135.105 125.71 475.138
42 0 64.0739 14.374 921 134.664 125.291 474.484
43 0 68.0511 13.9307 948 135.231 126.188 472.524
44 0 68.1002 13.4361 915 136.36 125.907 474.105
45 0 71.0245 14.8822 1057 132.94 124.988 471.002
46 0 73.1279 13.5926 994 137.612 124.616 470.907
47 0 79.0421 15.1565 1198 130.597 125.119 469.086
48 0 81.1333 14.6302 1187 133.06 125.604 467.379
49 0 83.1182 14.2568 1185 134.139 125.18 466.143
50 0 86.0928 14.5657 1254 133.897 124.545 465.014
51 0 90.0705 14.3998 1297 134.191 124.62 463.803
52 0 93.1081 14.6282 1362 138.878 124.619 462.581
53 1 47.0149 12.8683 605 138.079 125.494 484.805
54 0 48.0357 12.116 582 137.979 124.658 484.014
55 0 51.0117 12.3697 631 131.534 124.068 483.249
56 0 53.0724 14.5273 771 125.464 124.125 481.183
57 0 54.0111 13.5343 731 129.662 124.566 479.278
58 0 57.0224 13.9068 793 127.638 124.665 479.339
59 0 59.0887 13.4036 792 128.9 123.914 478.895
60 0 58.1161 12.7675 742 133.807 123.868 478.566
61 0 61.0617 13.7893 842 130.31 124.251 478.059
62 0 64.0702 13.3447 855 132.791 125.139 478.07
63 0 65.1661 14.4093 939 131.348 124.732 475.195
64 0 68.0573 13.8707 944 133.994 124.231 473.737
65 0 68.1211 13.1531 896 137.911 124.069 472.085
66 0 74.0508 14.8142 1097 131.236 124.8 471.847
67 0 75.0415 13.326 1000 137.573 124.098 471.745
68 0 79.1529 13.7077 1085 135.341 123.281 470.423
69 0 81.0736 14.1723 1149 135.859 123.669 467.241
70 0 84.0694 14.0003 1177 135.184 123.666 467.888
71 0 86.0794 14.87 1280 134.827 124.095 465.13
72 1 43.0991 11.6476 502 137.131 124.219 487.729
73 0 46.0389 13.3583 615 134.423 124.242 484.831
74 0 43.0512 11.196 482 130.641 124.064 483.015
75 0 45.0287 12.17 548 131.954 123.608 485.872
76 0 48.0289 13.3253 640 128.211 123.612 485.091
77 0 51.1088 13.618 696 124.427 123.391 485.389
78 0 53.0337 12.9729 688 126.215 123.294 483.923
79 0 54.1038 12.8272 694 125.994 123.182 484.244
80 0 54.0269 13.4192 725 125.462 123.419 481.774
81 0 57.0661 13.423 766 124.157 123.525 481.303
82 0 57.0592 13.5824 775 125.076 123.228 479.574
83 0 58.1327 12.093 703 127.738 123.6 481.64
84 0 63.0702 14.3015 902 120.935 123.914 479.007
85 0 63.0421 12.8327 809 127.266 123.616 477.604
86 0 64.0382 12.555 804 128.552 122.902 477.748
87 0 67.1406 12.4515 836 129.713 122.571 476.639
88 0 71.1839 14.0622 1001 125.457 122.753 474.711
89 0 73.097 14.4192 1054 125.637 122.7 474.108
90 0 75.0689 13.8406 1039 127.87 122.703 472.73
91 0 78.1339 14.488 1132 132.197 122.247 470.391
92 0 80.0469 13.9168 1114 134.34 122.303 468.91
93 0 82.1052 13.5071 1109 135.249 122.885 467.814
94 0 85.1485 13.6937 1166 131.022 122.732 466.495
95 0 89.1078 13.7923 1229 129.233 122.756 465.129
96 0 92.0571 14.7409 1357 126.647 122.841 463.898
97 1 49.0552 12.1292 595 127.613 123.052 485.815
98 0 49.0455 12.2335 600 121.932 121.91 485.637
99 0 51.0908 12.1744 622 122.111 122.222 485.235
100 0 51.0908 12.468 637 121.374 122.469 484.057
101 0 53.0415 11.8209 627 123.113 122.549 483.553
102 0 56.0573 12.8262 719 120.307 122.808 482.51
103 0 58.0447 12.4904 725 121.044 122.65 481.483
104 0 60.0314 12.9099 775 119.839 122.594 479.794
105 0 62.0881 12.4661 774 119.764 122.96 479.972
106 0 63.04 12.5 788 121.156 122.513 478.621
107 0 67.1386 12.7349 855 118.787 122.104 479.118
108 0 67.0715 12.4643 836 121.344 122.298 477.463
109 0 68.0656 12.8552 875 121.265 121.632 474.576
110 0 72.0753 13.5691 978 117.816 122.169 474.536
111 0 74.0433 13.0464 966 119.023 121.643 472.95
112 0 75.1283 12.1392 912 121.458 121.543 471.747
113 0 79.0561 12.4089 981 120.234 122.387 469.794
114 0 79.165 12.1897 965 121.12 122.772 468.637
115 0 83.1545 12.7834 1063 118.964 122.324 467.562
116 0 85.1658 12.7986 1090 118.627 122.197 465.306
117 0 87.2106 13.1979 1151 118.53 122.234 463.646
118 0 88.1595 12.3072 1085 120.466 122.3 462.328
119 0 92.1115 11.7683 1084 122.673 122.851 463.598
120 0 93.1608 11.7431 1094 122.946 122.636 460.72
121 0 99.1998 12.6109 1251 119.803 122.193 458.179
122 0 103.075 13.2525 1366 117.621 121.701 454.426
123 0 105.113 12.1869 1281 120.361 122.262 453.149
124 0 110.137 12.9839 1430 117.559 122.397 452.397
125 0 113.194 12.8364 1453 118.786 122.169 447.55
126 0 119.208 12.3062 1467 118.339 122.067 448.208
127 1 58.0454 10.9225 634 115.429 122.137 480.248
128 0 61.1892 11.8975 728 113.071 122.935 478.516
129 0 64.0898 12.6853 813 111.117 122.715 478.28
130 0 65.0349 13.7465 894 111.056 122.02 475.601
131 0 68.0743 11.9722 815 114.502 122.98 475.924
132 0 64.0948 12.2787 787 105.644 122.992 475.49
133 0 60.0908 11.5492 694 97.0418 121.731 475.065
134 0 57.1655 3.37616 193 89.8446 122.653 483.56
135 0 61.1337 8.11337 496 85.3569 122.643 480.51
136 0 62.1896 9.08512 565 85.4195 122.269 476.044
137 0 58.0543 7.07958 411 87.3139 121.742 475.803
138 0 56.0827 7.9882 448 87.4308 122.069 474.978
139 1 143.1 9.72745 1392 128.182 122.36 421.7
140 0 145.164 9.50651 1380 133.722 121.22 411.233
141 0 149.233 11.0901 1655 128.413 121.549 420.162
142 0 149.184 9.43801 1408 137.217 121.294 407.505
143 1 101.183 6.45367 653 129.417 122.268 438.902
144 0 104.045 6.82397 710 130.886 122.024 432.3
145 0 104.122 6.58843 686 132.515 122.19 432.586
146 0 107.128 10.0347 1075 118.099 122.624 439.486
147 0 110.084 5.66838 624 137.926 122.619 428.42
148 0 113.133 7.36302 833 128.946 122.724 433.425
149 0 111.119 5.66062 629 142.084 121.936 419.874
150 0 113.08 6.96849 788 136.734 121.421 420.89
151 0 123.15 13.8124 1701 141.456 121.078 385.774
152 0 122.063 12.51 1527 144.673 121.792 390.699
153 0 122.148 11.2404 1373 149.901 121.806 391.494
