time division length width area intensity CMx CMy
0 0 71.141 13.2694 944 107.671 1268.79 383.775
1 0 73.1262 13.6203 996 108.924 1268.43 382.1
2 0 76.0826 12.8676 979 110.745 1267.96 380.866
3 0 80.0703 13.2883 1064 109.572 1266.97 380.864
4 0 82.137 13.3801 1099 110.946 1267.51 379.015
5 0 85.1929 13.2992 1133 111.505 1267.22 377.813
6 0 88.1552 13.7485 1212 110.948 1267.61 377.858
7 0 92.161 13.5632 1250 111.41 1268.82 376.869
8 0 96.1257 13.5136 1299 113.732 1268.33 374.056
9 0 99.1018 12.805 1269 115.463 1267.47 372.593
10 0 102.223 13.6955 1400 114.484 1266.3 369.229
11 1 52.1876 12.4359 649 111.445 1267.95 394.909
12 0 55.1379 12.6048 695 110.942 1269.57 394.551
13 0 53.0608 11.402 605 115.899 1268.14 394.286
14 0 55.0562 11.9151 656 112.107 1269.74 398.355
15 0 57.0399 11.7988 673 113.342 1268.89 394.406
16 0 60.0879 11.8826 714 112.859 1268.68 392.352
17 0 59.0829 11.9662 707 114.266 1267.75 390.656
18 0 66.0926 12.664 837 110.369 1268.73 390
19 0 65.1237 12.4532 811 111.778 1269 390.168
20 0 67.0389 11.6649 782 114.757 1269.43 386.93
21 0 71.0198 11.7714 836 113.573 1269.74 385.712
22 0 74.062 12.9486 959 110.777 1268.6 382.259
23 0 74.102 13.0766 969 112.53 1268.76 380.259
24 0 78.0985 12.7531 996 112.129 1269.58 381.534
25 0 83.1219 13.7148 1140 110.186 1269.64 379.204
26 0 83.2842 12.7395 1061 114.707 1269.27 377.26
27 0 85.1283 14.0846 1199 112.973 1269.61 374.296
28 0 88.0774 12.2506 1079 116.518 1269.95 375.361
29 0 92.0871 13.7479 1266 113.195 1269.62 374.788
30 0 95.0708 13.3164 1266 116.488 1270.64 372.347
31 0 98.1208 15.4096 1512 111.775 1270.49 370.127
32 0 102.121 15.1586 1548 112.314 1269.83 371.019
33 0 103.117 13.8968 1433 117.911 1270.95 370.415
34 0 105.082 13.2848 1396 120.778 1269.48 365.406
35 0 109.09 13.9151 1518 118.349 1269.27 362.499
36 0 112.135 13.1716 1477 119.097 1269.14 352.973
37 0 118.18 13.9448 1648 117.789 1268.57 347.43
38 1 66.0363 11.5088 760 117.526 1268.68 380.057
39 0 69.0506 13.787 952 110.563 1269.03 385.484
40 0 67.1581 12.5227 841 107.422 1268.42 385.878
41 0 70.0626 12.5602 880 106.732 1269.9 385.201
42 0 71.0806 11.8738 844 110.076 1269.41 383.332
43 0 73.0327 11.8714 867 109.143 1269.5 383.505
44 0 77.0934 12.193 940 108.25 1269.68 381.88
45 0 80.111 13.6935 1097 106.131 1268.89 378.684
46 0 81.0892 11.8635 962 109.968 1269.02 380.246
47 0 86.1545 13.0115 1121 107.447 1268.42 376.703
48 0 88.2011 13.2198 1166 107.116 1269.09 377.075
49 0 91.0726 13.6594 1244 106.319 1269.3 375.408
50 0 94.1394 12.3115 1159 109.87 1268.93 372.15
51 0 97.1067 13.4594 1307 107.755 1269.14 372.076
52 0 102.129 14.1389 1444 108.434 1268.92 369.569
53 0 105.149 13.305 1399 109.335 1269.27 371.257
54 0 107.082 12.9527 1387 110.287 1268.23 369.658
55 0 110.102 12.6064 1388 111.279 1269.02 364.535
56 1 62.045 11.6206 721 110.394 1268.06 391.476
57 0 64.0817 12.9366 829 108.755 1268.8 389.271
58 0 62.1136 11.5112 715 110.952 1269.01 390.067
59 0 65.0959 12.7965 833 107.024 1268.59 390.144
60 0 68.2876 12.257 837 107.956 1268.29 389.086
61 0 71.1881 12.6004 897 107.682 1268.44 387.433
62 0 72.0999 12.8572 927 106.697 1269.47 384.873
63 0 75.038 13.3666 1003 105.54 1269.33 383.449
64 0 76.0891 12.3539 940 107.723 1269.41 384.307
65 0 80.0404 13.0934 1048 105.608 1269.19 382.143
66 0 81.0709 13.1737 1068 104.142 1269.44 381.942
67 0 84.1067 13.1619 1107 104.989 1268.75 380.401
68 0 86.1078 12.043 1037 107.962 1268.93 379.395
69 0 89.0522 13.8683 1235 103.773 1269.03 376.083
70 0 92.1484 12.7729 1177 106.632 1268.6 374.958
71 0 96.1667 13.539 1302 104.128 1269.15 376.287
72 0 97.1305 12.4575 1210 108.888 1268.32 371.377
73 0 101.068 13.3573 1350 106.049 1268.51 372.649
74 0 105.114 12.6339 1328 107.248 1268.88 371.996
75 1 59.1645 11.899 704 107.592 1268.8 391.369
76 0 60.0615 12.071 725 109.342 1269.24 390.305
77 0 63.1692 13.1076 828 106.083 1270.59 383.412
78 0 63.148 13.3338 842 107.222 1269.2 380.892
79 0 65.1613 12.2926 801 100.938 1269.92 386.2
80 0 65.1008 13.5943 885 100.287 1269.91 386.158
81 0 66.0848 11.4096 754 105.349 1269.73 388.145
82 0 69.1163 11.5168 796 105.985 1269.99 385.487
83 0 74.2209 13.0556 969 99.6811 1270.35 369.858
84 0 77.1744 13.0743 1009 101.565 1270.21 359.255
85 0 78.0743 11.8221 923 104.092 1270.16 363.62
86 0 82.0924 12.2423 1005 102.878 1269.99 370.855
87 0 83.0453 12.4149 1031 103.603 1270.02 372.962
88 0 87.1867 12.1119 1056 103.857 1270.2 372.589
89 0 90.1575 12.1898 1099 104.592 1269.57 371.669
90 0 94.1832 12.8048 1206 103.215 1269.76 370.422
91 1 50.0388 11.9907 600 104.398 1269.59 394.133
92 0 52.0397 11.472 597 101.157 1270.91 395.915
93 0 54.0489 12.3037 665 97.7128 1269.98 396.334
94 0 51.0749 10.6314 543 102.203 1270.18 395.448
95 0 53.1706 12.0555 641 100.197 1269.7 394.504
96 0 55.023 12.1585 669 99.3483 1269.07 394.513
97 0 57.0758 11.8614 677 99.7415 1269.31 394.699
98 0 59.1333 11.3472 671 100.267 1268.76 393.684
99 0 60.0792 12.6 757 90.0423 1269.63 390.746
100 0 61.0576 10.531 643 93.5816 1269.32 392.809
101 0 64.0477 11.8037 756 91.9167 1269.51 389.529
102 0 66.0614 11.9283 788 92.2411 1268.93 388.747
103 0 66.0478 11.6885 772 92.9184 1268.57 388.784
104 0 69.0704 11.9878 828 92.1413 1268.42 388.785
105 0 71.0419 11.4299 812 93.9187 1268.11 387.071
106 0 76.1201 12.165 926 92.3683 1267.96 386.108
107 0 77.1033 11.9321 920 92.537 1268.88 384.797
108 0 79.0905 10.5322 833 94.0708 1268.59 387.236
109 0 85.1393 12.4854 1063 90.2756 1268.03 383.666
110 0 87.2254 12.5078 1091 92.0367 1268.49 378.72
111 1 45.0758 10.0719 454 93.359 1268.72 401.383
112 0 47.0946 10.1923 480 93.0708 1268.1 398.119
113 0 48.0418 12.4891 600 89.555 1267.96 399.255
114 0 47.043 11.5001 541 93.3678 1268.37 398.344
115 0 50.1683 12.4581 625 91.2848 1267.86 399.339
116 0 52.1321 11.6627 608 93.0082 1267.77 397.745
117 0 52.0877 10.7895 562 95.3292 1268.15 398.593
118 0 54.1098 11.7169 634 95.5946 1267.45 394.142
119 0 60.0443 12.6407 759 93.1792 1267.5 393.758
120 0 60.0382 11.2095 673 96.682 1268.02 395.74
121 0 62.1802 13.2357 823 96.0194 1268.76 392.371
122 0 65.0898 12.3522 804 98.0684 1268.78 391.354
123 0 68.0293 15.2875 1040 97.8096 1267.87 386.688
124 0 71.1077 14.1475 1006 100.751 1267.61 385.219
125 0 71.094 13.0391 927 103.806 1267.49 388.841
126 0 75.1896 13.9913 1052 101.899 1267.86 387.691
127 0 78.1402 13.7701 1076 101.914 1267.51 382.048
128 0 78.1099 13.1225 1025 104.805 1267.79 382.4
129 0 81.0992 14.5131 1177 102.75 1267.68 381.099
130 0 81.0968 13.0091 1055 107.542 1268.02 382.892
131 0 85.0999 14.4536 1230 104.909 1267.76 378.82
132 0 86.0839 12.7782 1100 108.695 1269.02 378.302
133 0 93.1788 13.7907 1285 104.732 1267.79 378.479
134 0 93.1561 14.0517 1309 104.943 1267.88 377.409
135 0 98.0892 14.3339 1406 103.122 1268.58 374.087
136 0 100.146 14.3791 1440 101.886 1268.56 374.983
137 0 102.135 15.0781 1540 101.932 1268.04 369.366
138 0 106.207 13.662 1451 103.941 1268.93 369.368
139 0 109.185 15.0387 1642 102.147 1268.81 367.668
140 1 52.0963 10.7109 558 103.314 1269.6 395.79
141 0 54.1546 11.3933 617 106.702 1269.19 392.003
142 0 56.137 13.3245 748 104.762 1268.75 390.424
143 0 58.1654 12.8943 750 105.291 1268.75 389.143
144 0 60.0845 12.6488 760 107.505 1269.24 389.874
145 0 62.0366 13.5565 841 106.411 1269.19 387.34
146 0 66.079 13.8622 916 104.978 1268.95 387.306
147 0 66.123 13.5959 899 108.565 1268.62 384.395
148 0 68.1291 12.3149 839 111.061 1268.53 385.777
149 0 72.0501 13.1298 946 110.087 1268.65 385.191
150 0 73.0819 14.0938 1030 109.257 1269.09 382.395
151 0 74.1547 12.0559 894 114.866 1267.91 382.013
152 0 78.0629 13.1433 1026 112.555 1268.1 380.987
153 0 80.0975 13.134 1052 113.543 1268.97 379.62
154 0 83.0633 13.3272 1107 115.071 1268.44 379.105
155 0 85.1077 12.7721 1087 115.328 1268.18 378.22
156 0 86.0825 12.883 1109 115.757 1268.01 375.562
157 0 91.1096 13.8405 1261 113.047 1268.93 376.626
158 0 94.1024 13.6872 1288 113.158 1268.19 372.179
159 0 97.1406 13.1047 1273 113.966 1267.66 371.254
160 1 52.0713 11.4843 598 115.953 1268.2 390.746
161 0 52.2039 11.6275 607 119.727 1267.8 386.585
162 0 56.1857 12.1561 683 114.026 1268.24 390.268
163 0 59.0519 13.6829 808 110.905 1267.64 387.955
164 0 61.0789 13.8673 847 109.664 1267.5 388.524
165 0 61.0516 11.0562 675 107.209 1267.32 389.68
166 0 61.0713 12.1661 743 104.773 1267.54 388.001
167 0 63.0822 11.7466 741 106.119 1267.58 387.238
168 0 66.0839 12.0453 796 104.749 1267.12 387.829
169 0 68.0713 11.6936 796 103.995 1267.55 389.225
170 0 72.2417 12.735 920 102.228 1267.52 384.754
171 0 73.0882 13.7642 1006 100.439 1268.03 383.627
172 0 76.1786 13.022 992 101.887 1268.03 379.834
173 0 77.1467 12.9753 1001 101.75 1267.67 378.953
174 0 83.0723 12.6276 1049 100.292 1267.44 380.786
175 0 86.1919 12.2517 1056 100.394 1266.98 378.98
176 0 86.2039 12.83 1106 100.514 1266.62 375.694
177 1 47.0845 12.1696 573 100.785 1268.2 393.894
178 0 50.08 10.7827 540 100.298 1268.28 395.759
179 0 50.0829 12.1199 607 97.9786 1268.25 395.694
180 0 53.0626 13.0789 694 96.1023 1268.04 394.156
181 0 56.0821 12.446 698 95.9284 1267.73 394.272
182 0 55.0651 12.1674 670 98.2015 1267.17 392.019
183 0 57.0602 12.7584 728 97.1621 1267.58 387.391
184 0 59.1358 12.1077 716 97.5754 1267.9 386.869
185 0 62.0879 13.4487 835 94.1928 1267.93 387.553
186 0 64.1128 12.6652 812 99.1502 1268.08 384.372
187 0 66.0244 12.3742 817 98.6879 1268.45 385.552
188 0 66.1088 13.0542 863 98.1703 1267.39 383.419
189 0 70.1741 13.4237 942 96.5934 1267.42 370.965
190 0 71.0558 15.6778 1114 92.4102 1267.06 366.39
191 0 72.1319 13.6694 986 97.1217 1267.34 368.265
192 0 74.0937 13.105 971 98.0196 1267.73 363.104
193 0 77.0735 14.2202 1096 97.0274 1267.84 346.893
194 0 80.1005 15.1809 1216 93.7434 1267.68 346.637
195 0 83.1323 15.0603 1252 93.4145 1267.25 343.838
196 0 83.1795 13.9457 1160 97.2871 1267.17 347.641
197 0 84.0929 14.6861 1235 96.9142 1267.07 346.87
198 0 90.1935 15.4002 1389 94.3139 1267.61 349.18
199 0 92.0802 13.9552 1285 97.2599 1267.41 352.468
200 1 45.0381 11.7234 528 97.8011 1267.35 378.227
201 0 46.1033 12.4937 576 96.5069 1267.75 377.719
202 0 51.0717 12.4922 638 94.5235 1267.73 382.038
203 0 51.0911 12.6832 648 95.0293 1267.65 384.202
204 0 53.0315 13.3317 707 97.0495 1267.71 384.325
205 0 56.0493 13.0421 731 97.6074 1267.51 386.38
206 0 56.0313 13.1355 736 99.4497 1266.78 385.192
207 0 58.0564 13.2113 767 99.0261 1267.86 385.969
208 0 58.0859 13.3595 776 100.222 1267.71 383.701
209 0 62.0817 12.5802 781 101.018 1267.02 382.35
210 0 64.1202 12.8509 824 99.2573 1267.9 381.473
211 0 65.0714 14.169 922 97.4024 1267.48 380.304
212 0 67.0383 14.3351 961 97.7399 1268.11 381.15
213 0 69.0783 14.4184 996 98.3564 1267.22 377.975
214 0 71.1258 13.1317 934 101.669 1269.6 377.498
215 0 74.0941 15.3858 1140 96.9921 1268.53 376.457
216 0 75.0609 15.3342 1151 98.172 1268.24 373.86
217 0 79.0718 13.2411 1047 101.917 1267.43 376.218
218 0 81.1184 14.4234 1170 99.2838 1267.63 376.922
219 0 83.1328 13.8092 1148 99.8519 1268.29 375.516
220 0 87.1338 13.3014 1159 99.9111 1268.21 375.631
221 0 90.1098 14.2937 1288 98.6584 1268.36 375.233
222 0 92.069 13.5551 1248 100.93 1268.85 374.375
223 0 94.081 13.499 1270 101.546 1267.76 373.131
224 0 99.1319 13.9007 1378 100.298 1267.45 372.845
225 1 54.027 13.012 703 103.282 1268.62 390.279
226 0 55.026 12.7212 700 103.623 1268.57 391.351
227 0 57.0659 13.0025 742 102.582 1268.11 390.461
228 0 59.0451 14.2772 843 100.007 1267.93 387.93
229 0 61.1065 13.4356 821 100.599 1267.9 389.709
230 0 65.1194 14.0358 914 98.8501 1267.9 387.601
231 0 66.0791 13.272 877 101.408 1268.12 385.405
232 0 68.0335 13.0524 888 101.76 1267.95 385.412
233 0 69.1088 13.6741 945 101.641 1267.91 384.37
234 0 73.0763 14.0675 1028 99.1566 1268.48 383.196
235 0 75.0914 13.2239 993 101.631 1268.32 381.28
236 0 77.1488 14.1804 1094 99.4497 1267.98 379.676
237 0 81.0573 14.4712 1173 97.5737 1268.13 380.713
238 0 82.1593 13.6077 1118 99.8479 1267.77 378.274
239 0 88.0833 14.4749 1275 96.2478 1267.53 378.225
240 0 89.1082 13.0964 1167 100.167 1266.88 375.685
241 0 91.1239 12.3678 1127 100.796 1267.09 376.246
242 0 95.2512 13.7426 1309 97.8434 1267.48 373.419
243 1 47.091 11.361 535 97.0579 1267.26 396.518
244 0 49.0396 12.3166 604 90.9503 1267.72 398.012
245 0 50.0229 13.9536 698 87.2822 1268.21 395.085
246 0 52.0529 12.4489 648 90.4583 1268.04 395.11
247 0 55.0517 13.0241 717 90.0056 1267.75 393.833
248 0 57.1195 14.3384 819 86.9426 1267.46 393.524
249 0 57.2157 11.4304 654 92.4006 1268.01 393.133
250 0 60.2297 11.4561 690 91.3217 1267.34 394.081
251 0 61.0995 12.3405 754 91.6751 1268.3 389.939
252 0 65.1564 12.7079 828 90.4203 1268.07 389.15
253 0 65.0874 12.2144 795 91.2377 1268.03 388.818
254 0 67.1655 13.5486 910 88.9681 1268.68 388.267
255 0 70.1239 12.7204 892 90.435 1267.56 388.529
256 0 72.2334 13.221 955 95.0796 1267.53 383.347
257 0 76.2235 13.9721 1065 93.1408 1267.97 384.546
258 0 78.1128 12.4563 973 96.5478 1268.01 383.222
259 0 78.099 12.497 976 96.9211 1268.02 381.067
260 0 83.143 12.7491 1060 95.5566 1267.44 380.617
261 0 86.1175 13.0403 1123 94.9751 1268.12 378.053
262 0 91.2261 12.1566 1109 96.2804 1268.21 377.041
263 0 93.1103 11.9106 1109 95.9044 1267.89 378.326
264 1 48.1032 12.2029 587 90.6542 1267.7 398.787
265 0 51.2802 12.5 641 88.6552 1267.88 399.78
266 0 54.1574 12.8699 697 92.6456 1268.04 395.77
267 0 54.1264 12.0459 652 95.8006 1267.13 394.888
268 0 55.123 11.8281 652 95.5307 1267.74 396.224
269 0 59.1131 12.6875 750 93.8053 1267.76 392.639
270 0 60.1199 12.525 753 94.591 1267.14 391.513
271 0 61.2261 12.707 778 95.7031 1268.19 391.068
272 0 61.2261 12.7887 783 151.538 1269.18 391.137
273 0 64.2809 14.0788 905 93.9669 1267.26 388.886
274 0 66.1172 12.5232 828 96.8309 1267.97 389.372
275 0 68.1963 11.7748 803 99.2889 1267.67 388.102
276 0 69.171 13.4305 929 96.408 1268.67 387.869
277 0 71.0691 12.0728 858 99.5105 1267.88 387.509
278 0 76.3088 13.0784 998 96.495 1268.11 386.339
279 0 76.1712 13.0627 995 96.8814 1268.05 386.01
280 0 78.1694 12.3194 963 99.1599 1268.46 384.308
281 0 81.108 12.3416 1001 99.3896 1268.01 381.81
282 0 83.1172 12.3681 1028 98.963 1267.44 381.732
283 0 85.0678 10.9325 930 101.186 1268.14 381.465
284 0 89.308 12.149 1085 97.8212 1267.6 380.553
285 0 95.1594 10.7924 1027 100.161 1267.79 379.499
286 1 48.1002 12.4324 598 94.4849 1268.37 399.711
287 0 48.1215 12.4269 598 96.4816 1268.1 398.823
288 0 49.3069 12.2904 606 95.3663 1268.51 396.523
289 0 53.1294 12.9119 686 93.5991 1268.04 396.52
290 0 54.1679 13.1443 712 96.0857 1267.53 395.117
291 0 55.2007 13.4056 740 96.1095 1268.19 392.582
292 0 56.2178 12.4516 700 97.1229 1267.93 393.686
293 0 58.1781 13.9399 811 92.9827 1267.23 393.769
294 0 58.0978 12.5134 727 97.7868 1267.12 389.813
295 1 70.1055 23.1365 1622 71.3564 1267.74 377.562
296 0 68.1426 17.933 1222 82.7717 1268.33 372.759
297 0 71.1671 16.932 1205 83.9602 1267.96 372.475
298 0 72.0854 17.077 1231 84.3046 1267.63 370.74
299 0 73.1778 15.1412 1108 89.7852 1267.63 373.8
300 0 75.1143 15.4431 1160 89.2457 1267.15 371.732
301 0 81.2552 18.1158 1472 82.0897 1267.56 374.793
302 0 84.3526 20.438 1724 77.3805 1267.67 370.818
303 0 85.2173 17.2031 1466 84.2742 1268.45 377.162
304 0 85.1526 15.3019 1303 89.4536 1268.31 375.464
305 0 85.2551 15.5416 1325 92.0121 1268.81 375.761
306 0 85.2551 15.5181 1323 145.632 1268.8 375.798
307 0 88.2661 13.3347 1177 98.1232 1268.43 374.828
308 0 91.1413 12.4422 1134 99.963 1268.34 369.999
309 1 49.1001 11.1201 546 92.0696 1268.82 384.123
310 0 49.0925 10.5515 518 93.2896 1268.42 384.846
311 0 51.115 11.0144 563 91.0924 1268.8 383.515
312 0 52.1342 12.5254 653 89.0015 1268.81 382.234
313 0 52.0349 11.5692 602 92.2409 1268.54 381.257
314 0 53.0238 11.2402 596 92.4362 1268.02 380.456
315 0 57.0232 12.9947 741 88.7895 1268.76 380.501
316 0 57.0713 12.6158 720 89.7944 1268.67 381.839
317 0 59.0873 11.3561 671 93.301 1268.76 379.27
318 0 61.0755 11.625 710 92.269 1268.3 379.682
319 0 64.0926 13.0124 834 89.7446 1268.44 377.325
320 0 64.1406 11.6619 748 92.0254 1269.04 378.231
321 0 68.0309 12.1121 824 91.932 1268.56 376.231
322 0 69.0504 12.1795 841 91.9964 1268.71 375.969
323 0 73.0395 12.7465 931 91.0548 1269.11 373.377
324 0 73.0751 11.4266 835 94.6371 1268.79 372.528
325 0 77.0617 11.9255 919 93.9804 1269.41 369.828
326 0 81.101 12.281 996 93.0643 1268.3 369.276
327 0 85.1355 11.4758 977 94.1259 1268.83 368.713
328 0 86.1211 12.018 1035 94.8126 1268.7 363.904
329 0 89.0725 10.1715 906 97.2715 1269.07 366.015
330 1 50.1903 12.094 607 97.2389 1269.63 391.811
331 0 52.084 13.2862 692 95.6402 1268.73 394.86
332 0 53.033 11.936 633 91.3081 1268.62 395.237
333 0 51.0509 11.655 595 92.7697 1268.54 396.212
334 0 53.0434 10.5762 561 95.2406 1268.67 393.638
335 0 55.0803 11.8373 652 94.4034 1268.91 393.198
336 0 57.0523 12.8654 734 91.6785 1268.73 393.567
337 0 57.0355 12.3607 705 92.9262 1268.93 392.289
338 0 60.0886 12.5814 756 92.2328 1268.68 391.615
339 0 60.0906 12.3147 740 92.3541 1268.25 391.899
340 0 62.0344 11.7838 731 93.5404 1268.49 392.153
341 0 63.082 10.3516 653 96.2435 1268.56 390.337
342 0 67.0493 12.6921 851 90.8719 1269.41 389.315
343 0 69.0915 12.4762 862 91.6195 1269.2 387.094
344 0 71.048 12.1045 860 92.6686 1268.42 384.606
345 0 73.0842 11.7262 857 93.252 1268.04 387.516
346 0 75.059 10.8581 815 95.189 1267.82 385.89
347 1 43.0494 11.9165 513 94.8324 1268.36 399.62
348 0 43.1105 10.7862 465 99.2301 1268.8 399.811
349 0 49.0263 11.6468 571 94.4851 1268.22 399.835
350 0 47.0158 12.5915 592 94.6064 1268.79 398.351
351 0 49.0285 13.1352 644 93.5947 1268.28 396.733
352 0 50.0503 10.8091 541 99.5564 1267.84 395.466
353 0 53.0719 12.4548 661 94.6415 1267.64 393.582
354 0 51.1136 11.8168 604 97.7185 1267.01 392.879
355 0 56.0736 12.7868 717 95.742 1267.42 391.915
356 0 56.1117 12.0118 674 97.5816 1268.47 391.463
357 0 59.0319 13.0438 770 93.4519 1268.36 392.991
358 0 60.1457 13.3842 805 94.3081 1268.19 388.939
359 0 62.1517 13.3383 829 93.5296 1268.17 389.481
360 0 62.2835 13.8078 860 95.0733 1268.3 384.402
361 0 63.1894 12.5812 795 96.5396 1267.98 386.321
362 0 66.2909 13.7575 912 94.2303 1268.1 381.378
363 0 68.1925 13.5059 921 94.8719 1268.97 382.202
364 0 69.269 13.5559 939 94.6081 1267.99 380.12
365 0 73.1981 12.9648 949 94.0348 1268.78 380.7
366 0 75.163 13.4242 1009 93.0644 1268.99 378.5
367 0 77.2738 14.4292 1115 91.0063 1268.36 374.807
368 0 78.0901 12.6264 986 94.6765 1269.22 366.881
369 0 82.2797 12.6155 1038 94.5125 1269.25 369.35
370 0 85.2681 12.9005 1100 93.3555 1269.35 376.782
371 1 47.1629 12.0646 569 94.3163 1268.9 391.459
372 0 49.1011 11.7513 577 95.1456 1269.21 388.274
373 0 48.1538 11.1725 538 92.9387 1268.71 393.805
374 0 52.0899 12.0753 629 89.434 1269.19 395.504
375 0 52.0448 12.1434 632 90.4082 1268.34 393.894
376 0 55.1134 12.4471 686 90.3848 1268.19 389.65
377 0 58.2603 14.1606 825 85.1661 1268.7 392.088
378 0 58.1466 13.1564 765 88.3072 1268.68 390.929
379 0 61.0931 14.3715 878 86.9408 1267.88 375.42
380 0 61.2893 13.216 810 89.9877 1268.06 370.106
381 0 63.2856 13.5418 857 90.287 1267.94 361.155
382 0 61.2822 11.9611 733 95.2538 1268.52 361.221
383 0 65.0805 12.2464 797 93.9009 1268.55 363.082
384 0 67.0733 12.9113 866 91.7309 1267.87 362.376
385 0 71.1146 13.7103 975 89.68 1268.93 363.483
386 0 73.2849 13.891 1018 90.0383 1267.74 363.436
387 0 73.3341 12.5726 922 92.8297 1267.87 365.209
388 0 80.1641 13.4599 1079 89.7377 1268.27 364.648
389 0 80.0895 12.8981 1033 92.2769 1267.88 364.516
390 0 85.1615 13.2337 1127 90.764 1268.03 361.783
391 0 86.2772 11.776 1016 93.7146 1268.58 363.073
392 1 41.0879 9.92994 408 88.826 1269.11 387.002
393 0 43.099 12.5525 541 87.7689 1268.7 387.824
394 0 44.0733 10.6867 471 87.7834 1267.66 387.567
395 0 44.0139 9.70147 427 89.0422 1267.34 385.033
396 0 46.0787 12.3484 569 85.0492 1267.26 386.336
397 0 48.0291 11.7845 566 86.0954 1267.61 382.359
398 0 50.0613 10.4272 522 87.6284 1268.27 376.414
399 0 53.0417 12.4996 663 85.3092 1268 365.59
400 0 55.015 11.5241 634 87.0521 1267.79 368.442
401 0 56.087 12.1419 681 86.2746 1267.81 365.68
402 0 58.0581 10.5067 610 87.9541 1268.05 365.152
403 0 59.084 11.0521 653 88.7152 1267.56 364.626
404 0 60.1297 11.2091 674 89.6469 1267.2 364.653
405 0 62.0499 10.8783 675 89.9319 1268.25 365.182
406 0 62.1153 10.9796 682 90.3534 1267.58 366.343
407 0 66.0803 11.713 774 88.9302 1268.03 368.707
408 0 69.0844 12.738 880 88.2898 1268.4 365.035
409 0 69.4119 11.2373 780 91.3359 1268.47 365.355
410 0 73.0958 10.9172 798 91.1416 1268.38 364.554
411 0 77.0913 11.7004 902 89.2129 1267.71 364.048
412 0 79.1027 11.0868 877 91.4401 1267.51 362.356
413 0 82.0868 12.2188 1003 89.6201 1267.72 368.358
414 1 44.0353 10.5143 463 88.9957 1268.03 394.367
415 0 45.0959 10.4001 469 87.5608 1268.46 398.337
416 0 47.0395 10.5443 496 86.9617 1267.81 397.482
417 0 48.0347 9.84704 473 89.241 1267.19 396.932
418 0 51.1129 11.817 604 85.6325 1268.04 396.684
419 0 54.1314 13.1901 714 83.5588 1268.78 396.896
420 0 53.0253 10.5421 559 90.2075 1268.37 396.431
421 0 55.042 12.5359 690 86.1188 1268.53 394.577
422 0 54.0637 12.2078 660 88.5288 1268.44 392.392
423 0 57.0775 12.9999 742 86.969 1267.81 390.43
424 0 59.0586 12.022 710 88.1915 1268.34 391.41
425 0 59.0857 13.0827 773 87.6611 1267.98 390.023
426 0 62.1004 12.673 787 87.7903 1267.74 388.569
427 0 64.0992 12.4495 798 88.3484 1268.52 387.685
428 0 67.0435 12.6485 848 87.9033 1269.33 387.693
429 0 68.0799 11.9272 812 89.6638 1268.89 386.637
430 0 69.0994 12.4603 861 88.5947 1268.8 387.24
431 0 71.08 12.4226 883 89.53 1268.27 385.779
432 0 74.1048 13.2245 980 88.2337 1268.86 384.484
433 0 76.1061 12.3512 940 91.266 1268.85 382.471
434 0 79.0447 13.8529 1095 88.7744 1268.26 379.254
435 0 82.1029 13.0568 1072 90.0662 1268.13 378.368
436 0 84.1938 12.6137 1062 91.9802 1267.54 378.7
437 0 87.0938 13.3764 1165 89.5116 1268.17 378.555
438 0 89.2017 13.5984 1213 90.338 1267.47 373.63
439 0 94.1239 12.441 1171 92.6268 1267.12 372.949
440 0 97.1615 13.5445 1316 91.5137 1267.3 370.719
441 0 98.285 14.1934 1395 91.1527 1267.32 372.799
442 0 102.205 12.7783 1306 98.2779 1267.43 360.072
443 0 105.264 12.7774 1345 98.1829 1267.32 345.606
444 0 108.279 11.9045 1289 97.6711 1268.17 348.531
445 0 110.133 12.494 1376 96.5523 1266.67 343.211
446 0 116.115 12.7976 1486 95.0343 1267.26 344.805
447 1 64.0484 11.4445 733 88.7763 1267.76 374.1
448 0 64.0855 12.2805 787 90.9403 1267.51 370.715
449 0 67.1023 13.3528 896 88.2444 1266.64 370.204
450 0 71.0559 12.9475 920 88.1522 1266.77 371.215
451 0 71.0883 13.5325 962 88.499 1266.82 371.956
452 0 75.1106 12.0622 906 90.3962 1267.41 375.853
453 0 77.1102 13.0852 1009 88.9158 1267.61 377.743
454 0 80.075 12.1886 976 91.3811 1267.96 372.762
455 0 82.1151 13.0305 1070 90.0561 1267.47 371.61
456 0 85.1333 12.639 1076 90.9387 1266.94 358.02
457 0 88.1406 13.7848 1215 89.2049 1266.91 360.315
458 0 91.1355 13.4306 1224 90.3987 1266.58 360.56
459 0 94.3086 13.9542 1316 89.0874 1266.83 360.111
460 0 95.1652 12.5466 1194 91.6139 1266.97 362.554
461 0 101.094 13.5319 1368 90.3004 1266.82 362.684
462 0 103.184 12.531 1293 92.7432 1267.73 362.196
463 0 104.155 12.0973 1260 94.3897 1266.92 366.669
464 0 110.141 14.1455 1558 90.8434 1267.26 365.209
465 0 115.146 13.1051 1509 94.4374 1267.28 364.903
466 1 64.0347 12.1965 781 96.6748 1267.27 385.296
467 0 66.1449 13.1076 867 95.7013 1267.46 387.367
468 0 69.0532 13.9168 961 94.8959 1267.38 375.241
469 0 71.0874 12.773 908 98.1674 1267.43 364.623
470 0 72.2205 13.2926 960 97.474 1266.94 365.785
471 0 77.1822 12.8009 988 97.6407 1267.63 367.642
472 0 77.1484 14.336 1106 95.34 1267.54 372.019
473 0 81.1591 12.4447 1010 99.3723 1267.03 372.099
474 0 83.1584 12.5423 1043 99.9732 1267.11 373.723
475 0 88.234 12.8862 1137 99.4591 1267.01 378.056
476 0 89.1952 13.5321 1207 99.6454 1267.64 378.951
477 0 94.1157 15.4066 1450 96.2641 1268.98 375.545
478 0 97.1057 15.3235 1488 97.8112 1268.77 375.229
479 1 53.1789 11.8468 630 100.476 1267.97 396.022
480 0 55.0448 12.1356 668 101.289 1268.09 396.313
481 0 55.2495 12.887 712 97.8371 1268.23 396.601
482 0 53.3258 10.9328 583 98.024 1267.07 399.566
483 0 57.1241 11.9739 684 95.8085 1267.52 399.784
484 0 59.2238 12.3092 729 95.1687 1267.06 399.182
485 0 58.078 11.6567 677 98.9601 1267.98 397.77
486 0 61.0903 12.4242 759 97.6008 1267.81 395.719
487 0 63.1081 13.3263 841 96.7277 1268.44 392.97
488 0 66.2228 12.4428 824 98.7864 1267.47 392.893
489 0 66.2045 12.7333 843 99.7711 1267.89 391.298
490 0 69.0849 13.563 937 98.3991 1267.03 388.955
491 0 69.0681 11.4814 793 105.627 1268.07 388.879
492 0 72.1548 12.4732 900 104.563 1267.89 389.223
493 0 74.1299 12.4781 925 105.831 1267.78 388.901
494 0 78.0705 12.8858 1006 106.043 1267.78 384.261
495 0 82.0831 12.8406 1054 105.824 1268.09 382.059
496 0 85.121 12.3706 1053 106.518 1268.22 381.918
497 0 89.0673 13.6638 1217 103.034 1268.15 381.103
498 0 93.0539 14.2821 1329 102.166 1267.69 376.92
499 0 97.1167 13.3654 1298 102.369 1267.56 380.593
500 0 97.13 13.3326 1295 104.483 1268.07 377.5
501 1 54.0834 11.2604 609 108.08 1267.2 397.386
502 0 55.1127 12.048 664 106.679 1267.7 397.479
503 0 57.1491 12.2662 701 105.718 1267.53 396.919
504 0 56.072 11.7706 660 98.4864 1267.13 398.965
505 0 55.0848 10.9104 601 101.88 1266.41 397.005
506 0 57.1194 11.5372 659 101.832 1267.23 396.581
507 0 58.2977 10.8752 634 103.344 1266.84 394.513
508 0 64.0988 12.8864 826 96.1453 1267.2 394.609
509 0 64.0394 13.0857 838 96.6706 1267.72 393.673
510 0 66.0555 11.8537 783 100.049 1267.08 392.252
511 0 69.0778 12.9419 894 99.2371 1268.05 388.085
512 0 71.0282 13.3327 947 99.3633 1267.64 387.345
513 0 73.0577 13.5646 991 101.032 1268 386.281
514 0 77.0887 12.7775 985 101.737 1267.64 387.015
515 0 78.0885 12.6523 988 104.03 1267.91 384.28
516 0 79.045 12.6384 999 105.303 1267.43 381.861
517 0 83.1042 11.3592 944 107.797 1267.65 382.047
518 0 86.0567 12.6312 1087 105.428 1267.68 380.326
519 0 88.0638 13.5243 1191 105.529 1267.88 376.534
520 0 92.0846 12.3691 1139 107.802 1268.24 377.126
521 0 96.0807 13.6448 1311 104.576 1267.56 374.351
522 1 52.0795 12.0201 626 101.85 1267.86 398.088
523 0 52.096 12.8417 669 100.716 1267.7 398.348
524 0 52.0656 12.6379 658 100.492 1267.71 399.114
525 0 52.1577 11.6378 607 104.013 1268.85 396.44
526 0 53.0307 12.2571 650 101.832 1268.75 397.731
527 0 56.1396 11.9702 672 101.728 1268.96 395.426
528 0 56.067 12.4494 698 101.758 1268.24 395.765
529 0 57.1098 11.8719 678 104.683 1268.45 393.602
530 0 60.1418 11.8054 710 104.424 1267.97 394.789
531 0 64.0507 12.3964 794 102.621 1267.88 391.955
532 0 65.0948 12.9503 843 105.215 1267.44 388.512
533 0 66.1185 12.5532 830 104.351 1267.56 388.013
534 0 68.0687 12.1201 825 105.783 1268.26 385.83
535 0 72.1236 13.1025 945 102.367 1267.55 387.638
536 0 75.0797 14.5579 1093 101.296 1267.63 384.459
537 0 76.0647 13.8829 1056 104.167 1268.11 381.13
538 0 79.1193 13.4481 1064 103.289 1268.03 383.561
539 0 79.1515 13.1394 1040 104.812 1268.06 381.193
540 0 83.1752 13.706 1140 104.311 1268.63 380.014
541 0 87.1065 12.7086 1107 106.776 1267.67 379.06
542 0 88.1207 13.2999 1172 105.456 1267.44 379.609
543 0 91.0883 13.5144 1231 105.571 1267.67 377.059
544 0 94.1681 14.283 1345 105.001 1267.36 375.836
545 0 98.1446 13.1744 1293 108.336 1267.58 375.343
546 0 99.1087 13.8131 1369 108.559 1268.66 373.953
547 1 54.0911 13.4588 728 104.598 1268.75 395.037
548 0 55.0286 12.9387 712 106.383 1269.31 395.449
549 0 59.0538 12.4971 738 109.256 1268.99 391.431
550 0 60.034 13.559 814 108.328 1268.46 388.65
551 0 62.0636 12.7128 789 110.151 1268.55 389.075
552 0 64.0951 14.3381 919 107.551 1268.66 385.609
553 0 66.0725 13.1522 869 109.437 1268.64 386.831
554 0 67.0305 13.9041 932 108.618 1268.71 384.396
555 0 69.0811 14.5916 1008 104.001 1268.95 384.615
556 0 72.0283 14.4388 1040 107.878 1268.43 384.422
557 0 72.0826 13.3458 962 113.124 1268.1 384.836
558 0 73.03 13.3781 977 107.207 1268.93 386.289
559 0 75.0745 13.9595 1048 108.748 1269.18 386.103
560 0 75.0671 13.5212 1015 111.28 1268.1 384.598
561 0 76.0783 13.7753 1048 111.604 1268.12 384.796
562 0 77.1064 13.4619 1038 113.655 1267.34 385.884
563 0 76.066 13.7906 1049 115.141 1268.01 386.134
564 0 79.086 13.9721 1105 115.656 1267.19 382.66
565 0 81.0918 12.8866 1045 115.99 1268.09 383.701
566 0 82.132 13.4905 1108 113.742 1267.42 381.076
567 0 88.083 14.1117 1243 109.007 1267.21 381.463
568 1 46.0431 12.0105 553 110.183 1267.8 399.291
569 0 50.0702 11.9632 599 107.015 1267.4 398.983
570 0 50.0672 12.0239 602 107.864 1267.72 396.902
571 0 52.0275 12.5703 654 105.303 1267.66 399.396
572 0 51.0581 12.143 620 105.919 1266.99 399.603
573 0 55.0489 12.8795 709 104.568 1267.72 398.147
574 0 56.0449 12.5435 703 105.385 1267.46 398.097
575 0 57.0696 12.4409 710 106.625 1267.6 397.559
576 0 57.0204 13.6442 778 106.003 1267.76 396.22
577 0 59.1481 13.8297 818 104.333 1267.13 396.493
578 0 60.0519 12.5558 754 110.038 1267.34 393.475
579 0 63.1063 13.1207 828 108.871 1267.26 392.652
580 0 65.0535 13.0815 851 109.758 1266.98 392.224
581 0 65.124 11.3322 738 115.688 1266.62 392.76
582 0 66.0647 11.7461 776 115.647 1266.35 390.782
583 0 68.0477 12.2561 834 113.191 1267.41 391.361
584 0 72.0905 13.3027 959 111.184 1267.24 389.981
585 1 35.0367 9.7612 342 113.746 1267.01 406.056
586 0 37.0336 10.72 397 110.995 1267.06 406.95
587 0 39.0738 11.184 437 111.112 1267.21 404.499
588 0 41.0068 12.9247 530 108.596 1266.55 403.636
589 0 41.0258 11.4562 470 114.836 1267.01 404.857
590 0 42.0547 12.5075 526 114.27 1266.74 401.977
591 0 41.0648 12.1028 497 115.648 1268 403.795
592 0 42.0527 12.3179 518 115.822 1267.57 401.637
593 0 44.0867 11.9991 529 116.335 1267.07 400.297
594 0 48.0402 13.6136 654 110.706 1266.87 400.576
595 0 48.0311 13.054 627 112.837 1266.79 398.26
596 0 48.0301 12.7212 611 114.579 1266.46 398.858
597 0 52.0614 13.0039 677 110.969 1266.76 400.399
598 0 50.0725 11.8828 595 115.422 1267.41 397.77
599 0 52.0436 11.8362 616 116.385 1267.02 396.916
600 0 55.0391 12.4275 684 113.962 1266.79 396.765
601 0 56.1214 12.7224 714 113.099 1267.05 397.171
602 0 58.0327 13.3028 772 111.943 1267.12 396.706
603 0 60.0632 13.286 798 111.982 1266.75 395.272
604 0 61.0643 14.2145 868 110.145 1267.32 394.055
605 0 62.0334 13.9602 866 110.701 1266.75 392.477
606 0 63.0462 12.6732 799 114.562 1267.21 390.911
607 0 66.0759 12.6824 838 112.076 1268.17 391.253
608 0 68.0635 13.2523 902 110.09 1267.81 390.171
609 0 70.0611 13.3883 938 108.612 1267.46 388.511
610 0 72.0926 12.7059 916 109.806 1267.86 387.136
611 0 74.1372 13.5964 1008 107.613 1267.36 385.961
612 0 79.1246 13.4345 1063 106.834 1267.25 385.124
613 0 81.0658 13.5692 1100 105.487 1267.41 383.727
614 0 83.2048 12.7877 1064 107.538 1267.33 380.696
615 1 40.1144 10.9188 438 109.228 1267.42 403.932
616 0 43.0176 11.7859 507 107.432 1267.4 403.602
617 0 44.0813 11.751 518 107.023 1266.86 404.326
618 0 48.0376 13.0315 626 108.134 1266.71 400.522
619 0 47.1226 12.4781 588 102.058 1266.14 402.665
620 0 47.0407 12.6699 596 101.99 1266.66 402.354
621 0 52.0511 11.1237 579 102.434 1266.6 403.047
622 0 52.0453 12.0856 629 102.13 1266.57 401.121
623 0 53.1127 13.2737 705 101.196 1265.8 399.206
624 0 53.0354 11.5018 610 104.451 1266.79 399.523
625 0 57.0677 13.1072 748 100.916 1266.28 397.314
626 0 59.0548 13.3266 787 104.972 1266.31 390.992
627 0 61.0219 13.7656 840 103.355 1266.33 393.343
628 0 64.0592 13.3782 857 103.277 1266.4 391.553
629 0 65.0761 12.7389 829 105.209 1265.61 388.043
630 0 68.0846 12.9545 882 103.448 1266.34 390.619
631 0 69.2822 12.4274 861 104.417 1266 390.815
632 0 73.0577 13.4825 985 102.999 1266.37 387.204
633 0 74.0548 12.6123 934 105.146 1266.22 387.884
634 0 78.1426 14.0256 1096 102.174 1266.42 384.566
635 0 81.0553 12.5593 1018 105.028 1266.19 383.03
636 0 84.0612 12.7288 1070 104.85 1266.36 383.603
637 1 42.0124 11.0443 464 103.679 1266.5 402.427
638 0 44.0115 10.8835 479 103.102 1266.23 402.077
639 0 47.0608 13.1957 621 96.6312 1266.01 401.219
640 0 48.0286 12.9714 623 100.909 1266.63 396.201
641 0 49.108 12.7881 628 101.455 1266.13 399.183
642 0 50.0617 12.5246 627 102.901 1266.1 398.974
643 0 51.0566 12.2805 627 105.743 1266.29 396.456
644 0 54.0832 14.2743 772 103.332 1266.45 395.728
645 0 57.0728 13.4565 768 102.799 1266.62 397.12
646 0 59.02 12.4704 736 105.584 1267.33 393.584
647 0 61.111 14.7109 899 101.542 1267.12 391.873
648 0 62.0414 12.3143 764 106.743 1266.85 391.691
649 0 66.1486 16.1455 1068 97.0871 1266.55 392.409
650 0 68.0575 14.5024 987 100.534 1267.56 390.118
651 0 70.0808 13.7698 965 103.452 1266.91 388.848
652 0 72.0967 13.787 994 103.347 1266.77 388.949
653 0 75.0575 14.3756 1079 102.358 1267.23 386.765
654 0 78.0685 14.0262 1095 102.137 1267.1 386.803
655 0 80.0939 13.0971 1049 104.671 1266.1 387.214
656 0 84.1004 13.7574 1157 104.65 1265.95 385.638
657 0 87.2129 13.4154 1170 106.006 1266.77 382.362
658 0 88.0803 12.9087 1137 106.261 1266.75 382.287
659 1 46.019 10.626 489 103.769 1267.19 403.051
660 0 47.0731 11.9176 561 103.068 1267.04 399.911
661 0 50.0633 11.825 592 104.716 1267.83 399.573
662 0 49.1235 12.1937 599 102.144 1267.64 400.596
663 0 52.051 13.0641 680 99.2206 1267.53 400.65
664 0 54.0175 12.9217 698 100.516 1267.73 397.097
665 0 57.0634 12.3547 705 102.18 1267.09 395.21
666 0 60.0885 13.2138 794 100.242 1267.81 395.199
667 0 61.0902 13.7174 838 101.379 1267.44 391.421
668 0 62.0526 12.8601 798 103.431 1268.16 391.213
669 0 64.1353 14.2823 916 101.258 1268.17 390.168
670 0 65.1027 14.3773 936 101.835 1268.12 390.182
671 0 70.0906 14.6239 1025 100.771 1268.36 388.025
672 0 70.0986 12.4396 872 107.037 1267.67 386.838
673 0 74.1163 13.6812 1014 104.471 1267.28 384.434
674 0 75.0913 12.7179 955 107.675 1267.49 384.298
675 0 79.1256 13.2448 1048 105.67 1267.93 384.348
676 0 81.0229 12.589 1020 107.713 1267.3 382.036
677 0 86.1054 13.4719 1160 103.982 1267.87 382.793
678 1 47.0714 11.5781 545 104.763 1267.97 399.794
679 0 49.0546 12.2721 602 104.299 1267.74 399.289
680 0 50.1375 12.3461 619 102.866 1268.76 399.204
681 0 52.0601 13.6381 710 100.375 1267.91 398.659
682 0 53.0609 14.097 748 100.557 1268.68 395.061
683 0 55.0801 13.1445 724 101.318 1267.88 393.965
684 0 58.035 14.5429 844 98.2476 1267.82 389.796
685 0 60.0596 14.8353 891 98.0258 1267.95 386.516
686 0 63.0716 13.1279 828 101.001 1268.34 386.806
687 0 65.0578 13.8031 898 100.451 1268.74 385.029
688 0 67.0768 12.6273 847 103.257 1268.53 380.666
689 0 68.0777 13.0586 889 102.084 1268.58 381.584
690 0 69.0727 13.7102 947 102.212 1269.35 376.237
691 0 74.0521 13.5985 1007 100.848 1268.76 377.134
692 0 77.0657 13.4431 1036 102.179 1269.3 373.39
693 0 78.0826 12.7685 997 103.688 1269.01 374.358
694 0 82.0374 14.0668 1154 101.647 1268.77 370.764
695 0 85.0572 13.7202 1167 103.088 1268.98 369.483
696 0 90.064 14.0456 1265 102.586 1268.37 366.637
697 0 92.0843 13.1618 1212 104.907 1268.8 367.205
698 1 49.0284 11.1568 547 104.996 1269.17 388.181
699 0 53.0363 13.0288 691 105.119 1269.11 387.035
700 0 55.093 13.8856 765 104.122 1269.53 386.933
701 0 52.0228 12.2062 635 106.784 1268.57 389.906
702 0 55.0813 13.9067 766 103.09 1269 390.356
703 0 59.0367 12.4329 734 105.063 1268.29 389.215
704 0 60.0441 12.7073 763 107.071 1268.54 385.215
705 0 61.0202 13.2251 807 107.886 1269.3 382.621
706 0 63.0486 13.1803 831 106.57 1268.3 382.189
707 0 66.243 14.2958 947 102.653 1268.54 384.203
708 0 70.1101 14.9479 1048 102.79 1269.24 380.313
709 0 71.1483 13.6054 968 107.269 1268.25 378.398
710 0 71.119 14.2859 1016 108.263 1269.01 374.345
711 0 74.2095 13.5832 1008 109.845 1269.01 376.1
712 0 79.0675 13.8995 1099 107.982 1269.14 374.419
713 0 82.079 15.217 1249 104.865 1269.92 373.771
714 0 84.2133 13.5252 1139 109.765 1269.67 371.226
715 0 87.0843 13.5845 1183 108.952 1269.75 369.706
716 0 90.1098 13.9164 1254 108.656 1268.82 365.766
717 0 94.0813 13.9985 1317 105.326 1268.73 368.896
718 1 46.0425 11.0116 507 108.986 1269.48 388.576
719 0 48.0629 11.485 552 107.274 1269.66 388.364
720 0 48.0629 11.5474 555 155.141 1268.62 388.461
721 0 52.0613 13.292 692 105.286 1269.55 387.996
722 0 51.0336 12.1489 620 108.153 1269.29 393.61
723 0 55.0762 13.0728 720 105.178 1269.17 386.225
724 0 57.0193 12.715 725 104.992 1269.06 383.554
725 0 60.0208 12.7789 767 103.622 1269.5 383.16
726 0 62.0576 14.2448 884 100.595 1269.51 385.722
727 0 66.0666 14.4248 953 100.054 1269.13 381.116
728 0 68.0186 14.7754 1005 98.9841 1268.29 380.374
729 0 69.0885 13.6057 940 101.797 1268.61 381.232
730 0 74.083 13.3094 986 102.827 1268.48 378.676
731 0 72.1148 12.3553 891 107.277 1268 376.447
732 0 76.044 13.7815 1048 104.222 1268.48 375.061
733 0 81.0379 13.9194 1128 102.716 1268.85 374.85
734 0 81.0734 12.6429 1025 106.403 1269.24 373.603
735 0 84.1262 15.239 1282 101.171 1267.95 369.476
736 0 89.0386 13.7468 1224 103.495 1268.14 370.846
737 0 92.1361 14.5654 1342 102.125 1268.01 369.105
738 0 95.1884 13.7727 1311 104.362 1267.49 367.207
739 1 50.0615 12.0252 602 103.55 1268.12 389.143
740 0 53.0192 12.222 648 105.389 1267.31 389.196
741 0 53.0369 13.1418 697 104.317 1268.64 392.238
742 0 54.0466 13.0258 704 103.741 1268 394.399
743 0 59.0978 15.2967 904 99.1659 1268.57 391.205
744 0 59.0749 13.5591 801 103.665 1268.08 391.896
745 0 60.2354 12.9326 779 104.985 1268 393.006
746 0 61.03 14.0914 860 104.638 1267.82 389.667
747 0 66.1436 13.1986 873 104.435 1267.79 391.627
748 0 68.117 15.3412 1045 101.427 1267.33 389.124
749 0 68.063 14.2515 970 105.579 1268.17 384.928
750 0 73.0513 13.9628 1020 104.389 1268.2 387.913
751 0 74.0577 13.422 994 106.957 1268.38 385.701
752 0 76.046 13.9126 1058 105.511 1267.8 384.77
753 0 80.0681 15.0122 1202 103.458 1268.26 383.751
754 0 81.0373 12.7102 1030 109.967 1267.81 380.037
755 0 85.1154 13.1116 1116 108.361 1268 380.164
756 0 88.0457 14.1517 1246 106.173 1268.29 379.273
757 0 93.0678 14.3551 1336 105.025 1268.08 377.609
758 0 96.1276 14.2831 1373 105.13 1267.93 375.135
759 1 52.0847 12.6141 657 106.769 1267.45 397.432
760 0 56.1162 13.1691 739 104.046 1267.48 396.625
761 0 58.0833 13.4462 781 106.399 1267.54 392.876
762 0 60.1085 13.8084 830 105.953 1268.75 391.198
763 0 63.0643 13.8589 874 105.094 1267.42 391.22
764 0 66.0861 13.8304 914 105.972 1267.91 390.152
765 0 68.1172 13.9906 953 106.458 1267.74 388.972
766 0 68.0422 13.6386 928 109.454 1266.56 387.932
767 0 72.1809 13.2861 959 109.623 1266.87 386.932
768 0 74.0927 14.7113 1090 106.146 1267.58 386.675
769 0 78.121 15.4504 1207 105.642 1268.06 384.639
770 0 81.1579 14.5765 1183 108.631 1266.93 383.763
771 0 84.0811 13.9746 1175 109.88 1266.82 381.484
772 0 86.1175 13.4119 1155 111.259 1267.05 381.755
773 0 90.2168 13.2237 1193 110.164 1266.38 379.279
774 0 93.0902 14.2442 1326 108.394 1266.76 378.417
775 1 49.0397 11.195 549 107.288 1267.52 399.767
776 0 52.124 13.1993 688 103.555 1267.49 398.727
777 0 52.0717 12.4636 649 112.273 1267.65 395.079
778 0 57.0472 13.5327 772 108.385 1267.81 394.417
779 0 57.0164 12.9787 740 110.3 1267.46 393.757
780 0 58.0177 12.6168 732 112.055 1267.01 392.918
781 0 62.0207 13.0924 812 109.241 1267.67 392.042
782 0 63.2224 13.7926 872 107.318 1267.28 391.515
783 0 63.0698 12.8112 808 111.187 1267.48 390.634
784 0 69.0245 13.1982 911 107.349 1267.8 390.748
785 0 72.0679 14.5141 1046 104.933 1268.16 387.633
786 0 72.0396 14.0895 1015 107.644 1268.38 386.672
787 0 77.0731 14.4798 1116 104.211 1268.06 387.235
788 0 79.0839 13.8208 1093 106.488 1268.7 383.715
789 0 81.0735 12.8895 1045 109.187 1268.08 381.987
790 0 92.1912 17.3661 1601 96.9669 1268.44 377.936
791 0 97.2734 18.5662 1806 93.0925 1268.05 375.718
792 0 97.3156 18.6507 1815 96.4534 1267.83 374.605
793 1 78.1955 7.90326 618 108.668 1269.11 378.494
794 1 51.0259 10.4653 534 105.403 1268.09 401.037
795 0 51.0874 12.8016 654 102.191 1267.96 396.529
796 0 51.0713 13.1972 674 102.841 1267.68 398.214
797 0 50.0606 12.3051 616 106.63 1267.81 398.193
798 0 53.0393 13.2732 704 104.707 1269.07 398.746
799 0 55.2242 13.6172 752 105.566 1267.94 397.238
800 0 59.0339 14.3477 847 106.521 1268.86 393.171
801 0 59.0258 13.2654 783 111.584 1268.27 392.958
802 0 61.034 13.4843 823 112.115 1268.16 391.067
803 0 64.1126 13.6323 874 111.351 1268 393.634
804 0 67.1277 12.7965 859 112.631 1268 392.334
805 0 68.1368 14.5883 994 110.656 1267.24 389.343
806 0 69.1426 14.4629 1000 138.587 1266.24 389.369
807 0 72.0488 13.3659 963 114.738 1267.48 388.613
808 0 74.1215 12.7763 947 116.604 1266.67 388.92
809 0 78.1272 13.4652 1052 114.722 1267.54 389.643
810 0 79.0626 13.5209 1069 116.693 1266.96 387.896
811 0 83.0876 15.1166 1256 112.408 1267.85 385.843
812 0 86.0987 13.9026 1197 115.116 1266.75 383.968
813 0 89.0644 14.6748 1307 114.283 1267.26 380.79
814 0 89.0644 14.6748 1307 147.878 1268.26 380.852
815 0 93.1143 13.6069 1267 118.763 1267.17 379.635
816 0 98.0596 14.1751 1390 116.651 1266.9 378.551
817 0 102.144 14.6656 1498 115.389 1267.29 377.903
818 1 56.0508 13.2201 741 116.592 1267 399.383
819 0 57.165 13.0149 744 116.249 1267.17 399.663
820 0 58.0308 13.6996 795 114.857 1266.74 397.426
821 0 61.0261 14.3545 876 113.162 1267.35 396.809
822 0 62.0568 14.3417 890 114.48 1266.82 395.36
823 0 65.0531 14.6496 953 112.403 1267.09 393.615
824 0 67.0768 14.9381 1002 112.236 1267.67 391.569
825 0 71.063 14.8319 1054 112.042 1266.58 390.027
826 0 74.1419 15.0657 1117 111.572 1267.25 388.433
827 0 75.1603 14.8483 1116 113.432 1267.48 387.397
828 0 77.1416 14.1039 1088 115.198 1266.69 385.494
829 0 81.1702 15.3997 1250 111.226 1267.48 387.938
830 0 85.0586 14.9074 1268 112.959 1267.41 384.253
831 0 86.123 14.3748 1238 115.297 1265.97 383.976
832 0 89.1694 14.2986 1275 116.595 1266.82 378.845
833 0 92.1057 14.3205 1319 116.613 1266.69 376.828
834 0 98.1159 16.2869 1598 109.593 1265.32 379.472
835 0 100.102 13.9958 1401 116.488 1265.68 376.314
836 1 54.1472 11.5426 625 113.498 1266.87 400.864
837 0 55.063 13.0215 717 112.243 1266.94 399.061
838 0 59.0693 13.391 791 111.437 1267.51 394.234
839 0 61.0405 13.188 805 111.738 1267.3 394.01
840 0 62.0752 13.532 840 110.185 1267.49 395.071
841 0 63.065 13.3989 845 111.16 1267.36 393.394
842 0 68.1506 15.5538 1060 108.122 1267.69 389.654
843 0 69.0293 14.5445 1004 110.84 1267.52 390.616
844 0 71.0509 14.6093 1038 112.167 1267.8 388.696
845 0 75.1876 14.6434 1101 113.876 1268.59 385.559
846 0 77.0409 14.0705 1084 116.019 1268.35 383.895
847 0 79.0596 14.1918 1122 118.152 1268.64 382.754
848 0 83.0615 14.2665 1185 118.314 1268.61 382.028
849 0 86.0924 13.8804 1195 117.485 1268.35 383.276
850 0 89.1166 13.8021 1230 117.509 1268.24 379.046
851 0 93.0865 14.2233 1324 116.835 1267.59 376.911
852 0 95.1944 12.6793 1207 119.675 1267.8 376.489
853 1 52.0838 12.6719 660 115.474 1267.93 397.13
854 0 53.0413 12.2358 649 114.453 1268.68 397.536
855 0 55.0849 13.6516 752 111.226 1268.09 395.644
856 0 56.0202 13.7986 773 113.955 1267.66 394.583
857 0 57.0404 13.4466 767 110.635 1267.88 396.162
858 0 60.0908 12.0984 727 112.81 1267.46 394.583
859 0 62.0608 13.1967 819 109.579 1268 393.167
860 0 65.0759 12.5085 814 111.601 1266.86 392.241
861 0 68.0677 13.6188 927 108.723 1267.38 391.609
862 0 71.0945 14.6425 1041 105.68 1267.23 391.078
863 0 74.1533 14.2003 1053 106.594 1266.87 388.531
864 0 75.0654 13.6015 1021 109.139 1267.15 388.144
865 0 79.0596 14.331 1133 107.217 1267.49 386.174
866 0 82.0643 14.4886 1189 106.231 1267.37 387.542
867 0 85.0917 14.8663 1265 106.295 1267.41 384.678
868 0 88.1303 15.3182 1350 105.136 1267.4 383.269
869 0 90.0621 15.2117 1370 106.497 1268.11 380.968
870 0 94.1612 15.1655 1428 106.293 1267.97 378.753
871 0 98.0763 15.5083 1521 105.08 1267.75 379.451
872 0 100.162 13.9374 1396 108.812 1267.43 377.107
873 0 106.142 15.6959 1666 103.149 1267.6 373.119
874 1 56.0624 12.9855 728 110.121 1268.1 398.563
875 0 60.0629 14.285 858 103.533 1267.62 392.484
876 0 62.1086 14.4585 898 104.371 1267.64 394.255
877 0 65.0492 13.3284 867 107.08 1266.96 391.569
878 0 68.0545 13.9594 950 105.412 1267.01 391.117
879 0 69.0571 12.5259 865 107.786 1267.5 389.55
880 0 73.0939 14.5977 1067 102.512 1267.5 378.031
881 0 74.149 13.6212 1010 104.8 1268.57 380.226
882 0 77.1724 13.8132 1066 103.446 1267.81 380.361
883 0 79.1766 13.4636 1066 104.365 1267.53 378.644
884 0 82.1002 16.3093 1339 97.6468 1268.41 379.783
885 0 85.0864 13.6097 1158 103.016 1267.62 379.332
886 0 89.0913 14.0754 1254 102.215 1266.83 377.526
887 0 92.1348 14.3702 1324 102.082 1267.54 375.201
888 0 95.1612 13.6926 1303 103.902 1267.7 375.715
889 0 96.1419 14.125 1358 103.531 1267.38 371.407
890 0 101.123 17.0188 1721 96.3672 1267.27 370.763
891 0 102.42 14.2159 1456 103.191 1267.2 368.26
892 0 105.104 13.6245 1432 103.897 1266.93 369.605
893 0 110.078 15.3982 1695 101.245 1266.96 361.732
894 1 57.0596 11.0761 632 104.184 1268.22 387.405
895 0 59.1305 14.2566 843 96.981 1268.55 386.313
896 0 63.0942 13.9315 879 98.5506 1268.43 384.49
897 0 65.1384 12.8496 837 105.016 1267.7 381.051
898 0 69.0677 14.6812 1014 101.133 1267.76 380.173
899 0 71.1025 13.7548 978 102.897 1267.56 381.236
900 0 72.1506 14.0262 1012 103.652 1267.14 379.243
901 0 75.0367 14.7128 1104 102.536 1267.94 376.37
902 0 78.109 14.6078 1141 101.173 1268.1 378.22
903 0 80.0642 15.2877 1224 100.875 1268.56 373.862
904 0 82.0549 13.0157 1068 106.147 1268.65 372.947
905 0 86.0394 15.2256 1310 100.837 1268.56 374.575
906 0 89.0699 14.9209 1329 102.533 1268.58 370.953
907 0 93.115 15.5077 1444 100.783 1268.5 369.621
908 0 95.1412 15.9552 1518 99.7319 1268.36 370.975
909 0 99.1173 14.8006 1467 102.965 1267.97 368.184
910 0 99.1099 14.3982 1427 105.488 1268.06 365.731
911 0 103.091 14.851 1531 104.422 1268.59 362.959
912 0 109.193 14.7445 1610 102.983 1268.79 362.211
913 0 110.23 14.9596 1649 102.369 1268.1 361.671
914 0 115.117 14.0901 1622 103.662 1267.9 360.221
915 0 119.151 15.6272 1862 101.284 1268.16 356.246
916 0 122.181 15.2478 1863 102.187 1268.26 354.528
917 0 126.106 14.8605 1874 103.289 1266.8 350.294
918 0 132.118 14.8276 1959 102.765 1267.8 347.975
919 0 140.181 15.5086 2174 99.9664 1266.89 345.779
920 0 142.247 14.278 2031 104.156 1267.58 343.247
921 0 149.203 15.6967 2342 101.525 1267.18 341.169
922 0 154.184 15.1313 2333 102.896 1267.79 338.291
923 0 162.173 15.7486 2554 102.41 1267.76 335.766
924 0 165.14 14.9934 2476 104.815 1268.06 329.639
925 0 172.156 14.9981 2582 105.05 1267.81 329.124
926 1 72.1031 14.2157 1025 101.375 1268.05 377.527
927 0 75.0602 14.3352 1076 101.259 1267.08 377.928
928 0 79.0785 14.3781 1137 100.967 1268.16 376.347
929 0 79.0785 14.4414 1142 151.393 1268.15 376.389
930 0 83.2204 15.4169 1283 98.092 1267.95 374.513
931 0 83.0949 13.7794 1145 104.277 1268.11 370.163
932 0 90.0703 14.955 1347 99.5843 1268.28 371.732
933 0 94.1129 13.9301 1311 102.288 1267.88 368.523
934 0 97.09 15.2848 1484 100.899 1267.54 365.52
935 0 100.159 13.5684 1359 104.636 1268.3 361.728
936 0 105.074 17.4925 1838 96.8596 1267.62 362.35
937 0 109.223 15.2531 1666 102.586 1267.33 358.018
938 0 114.237 14.715 1681 104.639 1267.79 355.126
939 0 120.16 16.4364 1975 101.663 1267.61 353.987
940 0 121.106 13.5254 1638 110.297 1267.44 350.488
941 0 129.181 14.7932 1911 106.673 1267.6 349.619
942 0 136.138 15.6312 2128 104.075 1268.46 348.574
943 0 139.107 13.486 1876 110.641 1268.59 344.794
944 0 142.186 14.4599 2056 107.917 1267.78 342.361
945 0 149.154 14.2605 2127 108.526 1267.75 341.121
946 0 154.247 13.8674 2139 109.154 1267.46 339.834
947 0 157.286 13.822 2174 109.549 1267.11 337.688
948 0 162.142 13.075 2120 112.197 1268.08 335.573
949 0 169.269 13.5996 2302 111.016 1267.24 330.055
950 0 178.357 13.8486 2470 110.567 1266.92 324.77
951 1 101.099 14.3226 1448 105.094 1267.43 362.878
952 0 104.179 13.1313 1368 109.031 1267.59 360.261
953 0 109.22 14.2373 1555 106.693 1268.1 358.476
954 0 115.261 14.3327 1652 106.22 1267.51 357.27
955 0 120.483 13.8941 1674 107.542 1267.29 354.134
956 0 124.266 13.7688 1711 108.921 1267.51 350.468
957 0 130.114 13.6265 1773 110.043 1267.59 349.986
958 0 137.181 14.5939 2002 107.365 1267.88 348.381
959 0 140.13 14.2367 1995 108.311 1267.4 342.905
960 0 148.404 15.195 2255 105.992 1267.25 339.146
961 0 154.258 14.5989 2252 107.786 1267.53 339.118
962 0 160.24 14.3659 2302 109.012 1267.87 335.652
963 0 168.204 15.392 2589 106.808 1268.62 330.434
964 1 86.1261 15.0361 1295 103.917 1268.58 374.154
965 0 89.1955 14.3729 1282 107.834 1268.21 372.025
966 0 91.2554 14.0485 1282 109.015 1268.17 371.829
967 0 93.2299 13.8046 1287 109.914 1268.38 368.566
968 0 96.129 13.253 1274 111.425 1268.22 367.367
969 0 99.1894 13.4087 1330 110.775 1268.21 367.632
970 0 105.215 15.1974 1599 105.971 1268.17 369.963
971 0 109.208 13.6804 1494 108.954 1268 370.064
972 0 112.089 13.8551 1553 108.583 1268.29 365.11
973 0 117.459 14.4561 1698 106.657 1268.56 362.034
974 0 121.22 13.7683 1669 108.144 1267.75 358.163
975 0 126.125 15.1675 1913 103.775 1267.66 356.592
976 0 131.298 14.1282 1855 105.103 1267.13 353.009
977 0 135.154 13.9618 1887 105.739 1267.65 349.48
978 1 61.1495 12.0034 734 98.2057 1267.46 390.531
979 0 62.2334 11.8104 735 97.8531 1267.68 390.635
980 0 66.2382 13.6326 903 93.361 1267.75 387.63
981 0 66.1494 13.1672 871 96.3307 1267.54 387.692
982 0 68.2326 13.5712 926 94.9536 1267.49 387.1
983 0 71.0903 13.1101 932 92.2951 1268.51 383.377
984 0 73.1929 13.8675 1015 91.334 1268.42 379.515
985 0 74.1209 12.6955 941 93.4527 1268.18 379.85
986 0 77.0903 12.7772 985 93.7168 1268.38 377.338
987 0 80.0445 13.2052 1057 95.176 1268.25 373.41
988 0 82.1055 12.3743 1016 96.4813 1268.42 373.623
989 0 83.1587 13.9492 1160 94.6362 1268.47 368.555
990 0 87.0826 13.3092 1159 96.2623 1268.02 369.483
991 0 90.1712 12.2212 1102 97.9492 1268.38 368.923
992 0 95.1314 12.7718 1215 97.0543 1267.29 366.894
993 0 101.083 13.385 1353 94.6733 1268.04 363.91
994 0 105.095 14.3013 1503 92.7438 1267.43 360.391
995 1 55.1243 11.8641 654 93.5489 1268.13 386.682
996 0 55.0496 12.8066 705 92.9163 1268.04 387.001
997 0 56.1425 12.8423 721 91.6727 1268.17 389.135
998 0 58.1102 13.3367 775 90.9019 1268.66 387.874
999 0 59.0842 13.7093 810 92.1025 1268.25 386.76
1000 0 62.1124 13.6205 846 91.6572 1269.12 387.285
1001 0 64.0613 12.3007 788 93.986 1268.63 387.217
1002 0 67.0363 14.1863 951 92.4679 1268.6 381.273
1003 0 69.0365 13.3263 920 93.813 1268 380.691
1004 0 71.173 14.2751 1016 92.9882 1267.88 379.253
1005 0 73.0659 14.7401 1077 92.9786 1268.03 377.458
1006 0 75.1943 13.6845 1029 94.931 1267.5 377.156
1007 0 77.0854 13.1024 1010 95.5198 1267.8 379.633
1008 0 81.0881 14.3178 1161 94.5719 1268.25 373.615
1009 0 84.067 12.9064 1085 98.0488 1268.16 371.924
1010 0 86.1607 13.9042 1198 96.9357 1268.21 369.472
1011 0 88.0602 14.1494 1246 96.931 1268.94 370.506
1012 0 95.1657 15.0474 1432 93.9385 1268.33 368.075
1013 0 97.108 13.5416 1315 97.7734 1268.3 366.576
1014 0 101.055 14.8236 1498 94.9339 1268.32 364.786
1015 0 106.129 15.632 1659 92.7607 1268.52 362.96
1016 1 55.0386 12.8455 707 98.9661 1268.25 386.342
1017 0 58.0258 13.27 770 99.6143 1268.55 385.366
1018 0 63.0439 14.133 891 96.3895 1268.25 384.874
1019 0 64.0795 14.6537 939 96.2929 1268.41 382.747
1020 0 65.0629 13.218 860 99.7395 1268.01 381.753
1021 0 68.2291 14.6712 1001 96.3017 1269.77 381.786
1022 0 70.0888 14.5102 1017 97.2812 1269.08 381.262
1023 0 73.0728 14.2187 1039 98.2762 1268.48 378.63
1024 0 75.1213 14.1771 1065 98.1352 1268.84 377.603
1025 0 79.0646 14.5704 1152 97.546 1268.45 374.542
1026 0 83.1041 14.7285 1224 97.0507 1269.06 375.741
1027 0 84.0508 14.17 1191 98.6171 1268.78 374.633
1028 0 85.1786 13.9472 1188 100.854 1268.9 371.734
1029 0 89.0861 14.6712 1307 99.0474 1268.51 370.622
1030 0 92.181 14.3088 1319 99.6998 1268.59 370.026
1031 0 95.1567 14.8177 1410 98.9695 1268.82 369.624
1032 0 98.2632 13.7386 1350 101.341 1268.7 368.41
1033 1 49.0652 13.0031 638 100.867 1269.21 390.95
1034 0 51.0324 14.1087 720 102.897 1268.89 388.258
1035 0 51.0272 14.3257 731 103.878 1269.07 389.85
1036 0 53.0713 14.8856 790 102.009 1269.16 390.92
1037 0 57.037 14.0786 803 103.411 1268.58 389.489
1038 0 58.0347 14.8704 863 103.111 1269.31 388.301
1039 0 61.1617 14.4699 885 103.693 1268.63 387.597
1040 0 64.0756 15.2476 977 101.6 1268.39 387.056
1041 0 65.0566 15.6018 1015 102.512 1268.78 384.283
1042 0 67.0992 16.3191 1095 102.381 1268.94 382.929
1043 0 69.0457 15.8301 1093 104.716 1268.74 382.619
1044 0 70.0915 14.8235 1039 107.785 1268.62 381.946
1045 0 73.1228 16.1236 1179 106.185 1267.93 378.603
1046 0 76.1208 16.5001 1256 105.307 1269.07 378.334
1047 0 80.0845 15.9332 1276 106.732 1268.53 377.888
1048 0 83.1336 16.287 1354 107.009 1268.19 375.033
1049 0 86.1095 15.0274 1294 109.969 1267.77 373.886
1050 1 45.0923 13.1951 595 113.704 1267.87 394.329
1051 0 46.0477 13.5077 622 115.243 1267.76 392.178
1052 0 47.1945 14.3237 676 114.309 1267.99 392.475
1053 0 51.1527 14.0364 718 114.185 1268.04 390.94
1054 0 53.0622 15.152 804 110.491 1267.6 392.127
1055 0 54.1579 15.4179 835 110.656 1268.14 391.026
1056 0 56.0227 15.5294 870 111.125 1268.57 389.087
1057 0 57.0418 15.5851 889 112.812 1268.8 388.974
1058 0 57.1342 15.2973 874 115.312 1268.26 386.283
1059 0 62.2838 15.1404 943 113.664 1268.46 388.983
1060 0 65.0321 14.2852 929 116.379 1268.81 386.463
1061 0 67.0886 17.216 1155 109.849 1268.89 384.508
1062 0 67.1165 15.1528 1017 116.524 1268.6 385.312
1063 0 70.1197 16.315 1144 112.437 1268.24 384.489
1064 0 71.1772 15.2858 1088 116.669 1268.28 382.699
1065 0 76.1078 15.3335 1167 115.182 1267.84 382.133
1066 0 79.2085 14.3924 1140 117.061 1268.31 380.653
1067 0 82.0931 15.9819 1312 113.268 1268.12 377.123
1068 0 87.0998 14.7532 1285 114.286 1267.89 378.242
1069 1 45.1176 13.3429 602 115.503 1268.71 397.028
1070 0 47.1342 13.3873 631 116.36 1268.11 396.03
1071 0 46.0179 13.0819 602 119.053 1267.88 395.56
1072 0 49.0494 13.6597 670 117.21 1268.38 394.127
1073 0 52.0958 14.1278 736 113.671 1268.83 395.341
1074 0 52.1118 13.6821 713 116.475 1268.78 393.864
1075 0 58.0386 14.7143 854 111.602 1268.73 393.713
1076 0 56.239 12.5891 708 119.614 1269 393.275
1077 0 58.1657 14.0633 818 117.762 1268.52 390.801
1078 0 63.0631 15.4766 976 111.883 1269.92 391.839
1079 0 65.0719 15.4291 1004 113.012 1269.54 390.424
1080 0 68.212 15.0267 1025 114.079 1269.54 388.971
1081 0 71.111 14.2453 1013 115.071 1269.72 388.775
1082 0 74.101 15.8567 1175 112.418 1269.56 388.394
1083 0 76.0527 14.7924 1125 115.428 1269.72 387.469
1084 0 80.2135 15.4961 1243 114.481 1270.55 385.465
1085 0 84.1121 14.659 1233 117.242 1270.21 384.539
1086 0 86.0974 14.7856 1273 118.278 1270.45 383.755
1087 0 90.2506 14.5816 1316 118.997 1269.61 380.106
1088 1 49.1154 12.2365 601 121.418 1270.6 400.707
1089 0 53.1188 12.2744 652 120.738 1270 400.215
1090 0 53.1116 13.4999 717 118.442 1269.81 401.414
1091 0 54.0947 12.7739 691 123.13 1269.84 398.352
1092 0 58.143 12.9164 751 120.844 1270.18 398.719
1093 0 60.1502 14.7963 890 116.771 1269.25 398.552
1094 0 62.2021 14.3404 892 118.303 1269.38 396.691
1095 0 64.1352 14.563 934 119.684 1269.78 396.041
1096 0 66.1063 13.1455 869 123.443 1269.23 395.806
1097 0 66.1109 13.0689 864 126.269 1268.82 394.088
1098 0 71.1108 12.4735 887 126.582 1269.54 394.755
1099 0 72.3383 14.5843 1055 122.951 1269.08 392.937
1100 0 75.1354 12.1514 913 129.138 1269.21 393.567
1101 0 77.1494 14.3617 1108 124.69 1269.2 391.856
1102 0 83.1339 14.7112 1223 121.653 1269.86 392.99
1103 0 84.0746 13.155 1106 127.344 1269.61 392.134
1104 0 86.0447 13.5627 1167 126.47 1269.36 392.368
1105 0 86.0619 12.8745 1108 130.28 1269.39 387.976
1106 0 92.1454 13.9237 1283 125.114 1269.56 391.815
1107 0 95.2182 14.6401 1394 122.93 1269.96 389.072
1108 0 98.156 12.8265 1259 128.133 1269.18 387.512
1109 0 102.188 13.9058 1421 125.894 1269.66 385.92
1110 0 108.208 14.2503 1542 123.619 1269.38 384.748
1111 0 108.142 14.1943 1535 124.34 1269.76 382.339
1112 0 111.124 13.7504 1528 125.883 1269.91 378.428
1113 0 121.124 14.2993 1732 122.543 1269.57 379.668
1114 0 124.169 14.0373 1743 122.944 1269.61 377.243
1115 0 130.18 14.2341 1853 123.241 1269.45 374.148
1116 0 130.196 13.7638 1792 126.12 1269.33 373.091
1117 0 137.203 13.6732 1876 127.17 1269.19 366.432
1118 0 141.23 14.1471 1998 127.234 1269.12 362.543
1119 1 77.1386 10.9154 842 120.602 1268.72 397.026
1120 0 78.0693 11.4514 894 121 1269.58 395.239
1121 0 87.1284 10.5477 919 118.857 1269.46 398.185
1122 0 89.0914 11.6173 1035 117.899 1269.48 394.309
1123 0 89.1288 12.409 1106 114.637 1270.35 394.901
1124 0 94.0636 10.4929 987 119.149 1269.79 391.177
1125 0 99.2261 12.2649 1217 113.524 1269.19 392.298
1126 0 101.073 12.4069 1254 113.36 1269.11 390.935
1127 0 107.224 11.0702 1187 114.2 1269.21 394.353
1128 0 112.238 11.6627 1309 114.433 1268.92 393.679
1129 1 59.1675 7.99425 473 103.349 1269.37 421.393
1130 0 61.0486 8.74712 534 103.948 1269.36 417.633
1131 0 64.0445 10.5395 675 99.1126 1269.62 420.557
1132 0 69.0587 10.8748 751 97.1478 1269.01 420.035
1133 0 71.041 9.952 707 101.533 1269.25 418.719
1134 0 74.0641 9.82932 728 100.115 1269.69 419.001
1135 0 75.0657 8.89887 668 103.03 1269.62 414.012
1136 0 79.1287 10.325 817 100.869 1269.82 411.687
1137 0 86.1374 10.5181 906 98.7638 1269.64 413.025
1138 0 88.184 10.0245 884 99.3665 1269.95 411.063
1139 0 88.1185 8.56801 755 102.258 1269.22 405.191
1140 0 89.0948 9.89957 882 100.851 1269.73 404.32
1141 0 95.0742 9.78183 930 100.285 1269.77 402.749
1142 0 95.0844 7.60377 723 104.609 1269.59 395.815
1143 0 104.074 8.5516 890 100.426 1270.62 400.649
1144 1 55.0318 9.12199 502 89.5896 1269.99 427.355
1145 0 59.0249 6.64127 392 97.3367 1270.1 424.482
1146 0 62.0348 9.76871 606 95.0759 1270.36 422.903
1147 0 68.0408 9.12688 621 96.5362 1270.88 421.446
1148 0 69.1767 8.21086 568 99.243 1270.22 418.415
1149 0 69.2276 7.49701 519 100.019 1269.78 415.699
1150 0 74.0638 9.92387 735 95.449 1269.72 418.382
1151 0 76.1262 9.98343 760 97.0447 1269.8 413.703
1152 0 79.0535 8.34878 660 100.505 1270.44 411.138
1153 0 83.1824 8.65568 720 97.8208 1270.24 418.764
1154 0 88.1451 9.85875 869 96.3441 1271.04 409.937
1155 0 92.1597 11.6211 1071 93.4482 1271.02 408.678
1156 0 93.2902 9.73307 908 98.5947 1270.87 405.87
1157 0 96.1802 10.4491 1005 97.8229 1270.19 402.26
1158 0 96.2218 10.0601 968 100.405 1270.1 399.937
1159 0 104.149 11.4355 1191 97.3619 1270.64 403.872
1160 1 56.1518 9.34966 525 87.5638 1270.49 427.206
1161 0 59.0432 9.85718 582 87.4759 1270.73 428.067
1162 0 59.1196 8.81264 521 90.405 1270.7 425.106
1163 0 61.0527 9.45085 577 88.0641 1270.24 421.003
1164 0 64.1143 11.7758 755 84.9828 1269.94 419.474
1165 0 65.1086 11.1352 725 87.1972 1270.12 418.967
1166 0 67.0625 10.274 689 89.0798 1269.79 421.055
1167 0 67.0972 8.48024 569 91.2847 1270.73 424.13
1168 0 69.133 9.76379 675 89.4756 1270.45 422.28
1169 0 69.0679 10.9023 753 89.425 1270.43 412.822
1170 0 72.0488 11.9502 861 88.7886 1269.77 409.646
1171 0 77.0719 11.0676 853 89.3658 1270.37 409.894
1172 0 79.0808 10.0783 797 90.1619 1270.08 411.444
1173 0 81.0446 10.4017 843 90.8114 1270.1 407.409
1174 0 83.1279 10.3214 858 91.3566 1269.53 402.371
1175 0 86.0611 10.7714 927 91.4067 1269.52 401.75
1176 0 87.055 10.0281 873 94.1329 1269.84 397.577
1177 0 92.1473 10.2119 941 93.1796 1269.52 398.642
1178 0 94.1007 11.3389 1067 92.8163 1269.68 394.284
1179 0 100.141 12.2527 1227 92.0579 1269.89 398.228
1180 1 51.0378 9.91422 506 88.7609 1269.91 419.976
1181 0 56.0349 11.1895 627 85.0526 1270.17 421.348
1182 0 57.112 10.278 587 87.1193 1270.65 421.618
1183 0 60.084 10.9014 655 86.458 1269.94 419.78
1184 0 61.0304 11.0109 672 87.3051 1269.76 419.385
1185 0 58.1353 9.47788 551 91.5789 1269.65 417.209
1186 0 62.0986 11.7555 730 87.811 1269.69 418.89
1187 0 64.0392 9.99388 640 91.5969 1269.72 415.977
1188 0 66.1241 11.9775 792 88.9672 1269.71 416.769
1189 0 68.1546 11.8261 806 89.2357 1269.83 416.798
1190 0 72.1086 11.0389 796 89.8882 1269.18 418.662
1191 0 72.0524 11.9913 864 89.3681 1269 416.903
1192 0 76.19 13.3482 1017 87.3156 1269.33 415.229
1193 0 78.0489 12.8253 1001 88.3726 1269.61 414.124
1194 0 79.1097 11.0353 873 90.8923 1269.18 413.485
1195 0 83.2116 11.9575 995 89.5186 1268.67 413.954
1196 0 87.1469 12.4273 1083 88.603 1269.22 413.112
1197 0 89.192 11.7724 1050 90.2076 1269.36 408.12
1198 0 91.1774 12.3167 1123 89.1264 1269.45 410.261
1199 0 92.0727 13.7826 1269 86.5619 1269.7 408.646
1200 0 94.1467 12.0875 1138 93.2214 1269.06 408.924
1201 0 97.1785 13.0996 1273 90.3606 1269.5 409.443
1202 0 100.117 12.2456 1226 92.0579 1270.04 407.841
1203 0 104.097 11.8832 1237 92.6103 1270.3 406.808
1204 1 57.1677 11.8423 677 85.4106 1270.29 431.427
1205 0 60.2028 9.468 570 87.8614 1270.19 433.804
1206 0 63.2428 12.9185 817 83.601 1270 430.341
1207 0 62.1093 10.3527 643 88.3966 1269.33 428.593
1208 0 67.083 13.6994 919 81.8988 1269.67 429.59
1209 0 67.0755 12.3741 830 84.3301 1270.32 431.207
1210 0 73.0656 11.9071 870 84.7218 1270.63 429.139
1211 0 73.0656 11.8524 866 122.706 1270.63 429.284
1212 0 77.1103 12.2422 944 85.9555 1270.16 423.448
1213 0 82.1831 13.5186 1111 83.6274 1269.91 423.214
1214 0 82.1039 12.5938 1034 86.8143 1270.24 421.794
1215 0 85.0932 12.2571 1043 87.3519 1270.59 420.738
1216 0 90.1057 12.7739 1151 86.6229 1269.34 418.575
1217 0 92.1458 11.6554 1074 88.3724 1270.31 419.724
1218 0 97.1735 12.2667 1192 88.1468 1268.79 416.511
1219 0 101.117 12.085 1222 88.6301 1268.35 415.125
1220 0 102.266 12.1936 1247 89.4571 1269.98 413.525
1221 0 109.244 13.5935 1485 86.3899 1270.05 414.35
1222 1 57.1118 12.922 738 86.1314 1269.98 437.209
1223 0 61.1855 13.0913 801 85.8814 1270.17 435.522
1224 0 61.0691 11.9045 727 88.077 1270.47 436.253
1225 0 64.0363 12.0557 772 87.4676 1270.31 437.711
1226 0 67.1786 14.2903 960 84.5312 1269.78 435.629
1227 0 67.0935 14.1444 949 86.7619 1270.07 432.617
1228 0 70.1323 13.8025 968 87.0568 1269.07 432.615
1229 0 71.0684 13.677 972 88.466 1269.13 431.999
1230 0 74.1101 12.5759 932 90.2865 1269.58 432.752
1231 0 77.0773 14.1806 1093 87.7228 1270.37 429.024
1232 0 81.0718 13.4079 1087 88.4241 1270.3 431.133
1233 0 84.109 14.2078 1195 88.0134 1270.34 427.977
1234 0 83.0834 12.6379 1050 92.921 1270.09 427.564
1235 0 87.1185 14.0728 1226 90.0628 1270.7 426.049
1236 0 91.2102 14.4721 1320 89.0841 1271.02 425.856
1237 0 92.1411 14.3042 1318 92.7398 1270.99 421.536
1238 0 95.154 14.5869 1388 91.8429 1271.5 423.212
1239 0 97.2282 13.3295 1296 94.7755 1270.5 421.363
1240 0 101.114 14.4293 1459 93.841 1270.96 417.268
1241 1 56.1381 14.3575 806 92.366 1270.78 441.025
1242 0 56.0811 12.3749 694 96.4712 1270.77 440.452
1243 0 59.1252 14.63 865 92.7861 1270.84 438.583
1244 0 61.0697 14.4916 885 92.4972 1270.46 438.328
1245 0 61.0616 13.6256 832 95.5132 1270.77 438.829
1246 0 65.0438 13.4832 877 94.8643 1270.13 438.233
1247 0 68.0961 13.5397 922 94.9035 1270.32 436.947
1248 0 68.1023 12.9071 879 97.7053 1270.56 434.86
1249 0 71.153 12.972 923 97.2644 1270.36 434.696
1250 0 72.0713 12.5015 901 99.8524 1270.46 430.92
1251 0 78.1018 13.9049 1086 96.5018 1269.91 430.754
1252 0 81.0974 14.6244 1186 96.2926 1269.98 429.386
1253 0 84.088 13.4383 1130 100.106 1269.95 428.93
1254 0 86.0876 14.4504 1244 99.2436 1269.43 428.41
1255 0 87.093 13.9047 1211 101.558 1269.83 427.528
1256 0 91.0631 15.0006 1366 99.2365 1269.78 426.364
1257 0 93.0837 13.3858 1246 102.376 1270.06 426.637
1258 0 98.0982 15.3316 1504 99.3823 1270.34 422.384
1259 0 100.098 14.9053 1492 100.481 1270.39 421.033
1260 1 54.1316 14.317 775 98.6645 1270.43 440.846
1261 0 54.0885 12.1098 655 104.632 1270.12 437.072
1262 0 59.0977 14.3999 851 97.7791 1271.37 438.884
1263 0 61.0629 15.1483 925 97.1081 1271.4 437.216
1264 0 61.0583 13.8065 843 100.12 1271.03 438.117
1265 0 64.1116 14.9895 961 96.2893 1270.39 435.537
1266 0 67.169 15.4387 1037 94.433 1270.4 433.969
1267 0 69.1023 15.6435 1081 93.8603 1269.8 431.733
1268 0 68.0869 13.9381 949 99.9726 1270.47 433.802
1269 0 69.0341 13.9351 962 99.1455 1270.74 435.396
1270 0 73.049 14.2918 1044 97.9713 1270.7 435.222
1271 0 73.1315 13.3322 975 102.76 1271.26 431.118
1272 0 76.0435 12.4797 949 104.318 1271 430.142
1273 0 78.0672 13.7702 1075 101.684 1270.84 430.207
1274 0 81.13 14.0762 1142 101.076 1270.91 429.031
1275 0 83.0946 12.913 1073 102.321 1271.22 431.488
1276 0 85.0848 13.1868 1122 102.004 1271.12 427.398
1277 0 86.1439 12.0032 1034 105.581 1270.58 424.746
1278 0 90.0952 13.1861 1188 102.656 1271 425.2
1279 0 93.2382 12.6987 1184 102.831 1270.2 426.501
1280 0 95.0983 12.9024 1227 103.092 1271.15 422.024
1281 0 98.255 12.4981 1228 103.203 1271.44 422.66
1282 0 99.156 12.0114 1191 104.503 1271.38 420.982
1283 0 104.187 12.5064 1303 103.041 1271.3 416.51
1284 1 117.181 17.7759 2083 89.8627 1271.72 409.354
1285 0 121.349 17.4126 2113 90.8561 1271.59 407.895
1286 1 67.1004 11.4306 767 96.6819 1272.29 439.467
1287 0 68.0765 12.5741 856 96.59 1271.61 436.304
1288 0 68.1065 12.363 842 101.495 1271.25 431.768
1289 0 72.0704 12.5572 905 99.9271 1271.3 432.466
1290 0 74.0332 13.7911 1021 98.9383 1272.01 430.582
1291 0 75.1034 11.837 889 103.065 1271.9 432.198
1292 0 77.1078 12.5279 966 102.024 1271.66 428.802
1293 0 80.0604 13.4523 1077 100.327 1272.04 429.107
1294 0 84.0456 11.815 993 103.469 1272.61 426.918
1295 0 88.1338 11.3123 997 103.805 1271.97 427.628
1296 0 89.0593 11.8124 1052 103.621 1272.68 427.18
1297 0 90.0615 12.3027 1108 104.523 1272.34 419.91
1298 0 94.1278 12.4512 1172 103.422 1271.88 420.345
1299 0 96.0703 12.4284 1194 104.03 1271.48 420.455
1300 0 98.093 12.7532 1251 103.316 1271.48 420.157
1301 0 102.146 12.1786 1244 105.683 1271.77 416.514
1302 0 106.249 12.7154 1351 104.435 1272.15 415.348
1303 0 110.162 12.518 1379 103.177 1272.16 416.097
1304 0 113.152 13.2565 1500 101.621 1271.79 413.697
1305 0 121.239 15.6467 1897 95.0438 1271.52 408.595
1306 0 125.143 13.4886 1688 98.6226 1272.21 403.159
1307 0 127.172 14.7124 1871 95.9113 1271.42 401.913
1308 1 70.2076 9.61434 675 98.2815 1271.88 432.76
1309 0 73.0794 11.4259 835 95.4467 1272.82 432.771
1310 0 74.2765 11.2149 833 96.7599 1270.85 430.618
1311 0 77.0996 12.2439 944 94.6907 1270.48 430.844
1312 0 79.1115 11.9325 944 96.7638 1271.49 425.735
1313 0 83.274 11.6843 973 96.1994 1271.35 428.247
1314 0 82.1282 11.3481 932 98.9989 1271.2 424.794
1315 0 86.1998 13.4571 1160 94.7957 1271.39 424.755
1316 0 89.2671 10.7655 961 99.9865 1271.49 422.362
1317 0 93.2209 13.3017 1240 94.7298 1270.14 423.786
1318 0 94.158 11.5763 1090 98.033 1270.7 423.076
1319 0 97.1603 13.5137 1313 94.623 1270.55 422.162
1320 0 99.2159 11.3389 1125 100.37 1270.2 415.997
1321 0 103.04 11.1801 1152 98.8585 1270.19 420.471
1322 0 107.301 12.2366 1313 98.4021 1270.57 416.494
1323 0 108.289 10.9707 1188 100.566 1270.3 416.04
1324 0 114.273 11.6038 1326 99.0075 1270.49 412.569
1325 0 117.187 12.2028 1430 98.379 1270.58 410.648
1326 0 119.311 12.2285 1459 98.5744 1270.34 407.592
1327 0 128.209 13.049 1673 96.0114 1269.79 407.27
1328 1 69.1772 11.2176 776 88.1108 1270.07 437.523
1329 0 71.2082 11.7823 839 86.7664 1270.1 435.951
1330 0 73.1907 10.5068 769 93.5748 1269.23 435.697
1331 0 78.1684 10.9379 855 92 1269.88 435.009
1332 0 78.0804 10.5404 823 94.147 1269.21 430.182
1333 0 78.1025 9.52595 744 96.8817 1268.79 431.411
1334 0 84.1137 11.9957 1009 91.1794 1268.9 432.931
1335 0 85.1238 10.843 923 94.2199 1269.14 430.974
1336 0 88.0765 11.1153 979 94.2666 1269.59 428.778
1337 0 89.1876 12.0869 1078 94.1781 1268.24 425.673
1338 0 93.0519 12.0578 1122 94.156 1269.66 426.878
1339 0 95.1283 12.3097 1171 94.2246 1268.89 425.92
1340 0 96.0993 11.8003 1134 96.9735 1269.41 424.328
1341 0 99.3109 13.0399 1295 95.7923 1269.07 423.104
1342 0 101.098 12.3543 1249 98.0192 1268.84 420.42
1343 0 105.069 12.5822 1322 96.2973 1268.79 422.756
1344 0 104.128 11.0537 1151 100.95 1268.37 421.245
1345 0 107.184 11.8021 1265 100.485 1268.62 419.143
1346 0 110.191 11.8431 1305 100.795 1268.04 419.898
1347 0 114.086 12.6045 1438 100.855 1268.48 415.442
1348 0 118.153 13.1016 1548 100.291 1268.64 412.342
1349 0 122.157 14.6041 1784 96.5359 1268.58 410.795
1350 0 124.245 11.8073 1467 102.122 1269.01 412.947
1351 0 127.165 12.4641 1585 103.06 1268.01 406.967
1352 1 72.0522 10.8949 785 95.9503 1268.79 438.363
1353 0 71.2794 11.2936 805 96.0373 1268.12 431.457
1354 0 76.2162 12.2021 930 94.5183 1267.69 429.428
1355 0 77.158 12.0662 931 94.2299 1268.13 431.25
1356 0 80.1248 11.9564 958 94.763 1267.67 432.861
1357 0 81.1024 10.5299 854 97.6862 1267.56 433.529
1358 0 83.1012 11.3717 945 96.4042 1268.18 431.238
1359 0 87.0686 10.7272 934 96.7719 1268.14 431.692
1360 0 88.1335 10.4047 917 99.2017 1267.95 426.622
1361 0 90.1527 12.7339 1148 96.4103 1267.33 423.464
1362 0 92.1828 10.8046 996 99.5512 1267.62 423.401
1363 0 95.0791 11.2012 1065 99.1962 1267.44 424.27
1364 0 99.2169 11.9536 1186 97.4637 1266.96 423.659
1365 0 101.134 11.6281 1176 98.7594 1267.11 422.116
1366 0 100.142 11.7133 1173 99.5789 1267.52 421.286
1367 0 104.101 13.3621 1391 97.2566 1266.76 418.4
1368 0 108.187 12.1733 1317 99.5376 1268.03 418.47
1369 0 110.07 12.3558 1360 100.701 1266.8 412.136
1370 0 114.168 12.8583 1468 98.6213 1267.57 414.713
1371 0 119.243 13.6193 1624 97.1238 1267.28 411.072
1372 0 120.168 11.8751 1427 98.8865 1266.93 413.381
1373 0 122.214 12.9199 1579 97.9512 1266.77 411.045
1374 0 126.083 11.4211 1440 99.6521 1267.42 410.283
1375 0 135.203 14.6668 1983 93.238 1267.27 401.839
1376 1 76.0384 11.7967 897 88.5217 1267.87 435.688
1377 0 75.0803 10.6153 797 90.6248 1267.26 435.533
1378 0 80.0392 10.5323 843 93.9561 1267.36 427.922
1379 0 83.0714 12.2666 1019 92.4652 1267.3 428.971
1380 0 85.0895 11.7406 999 94.9019 1267.66 428.164
1381 0 87.1172 11.2722 982 97.8452 1267.22 417.863
1382 0 92.0975 12.5845 1159 95.1613 1267.46 417.157
1383 0 94.0977 13.5923 1279 95.2002 1267.04 414.749
1384 0 96.1245 11.3187 1088 99.602 1267.77 415.251
1385 0 97.137 11.5507 1122 100.096 1267.48 413.82
1386 0 103.081 12.7085 1310 99.5466 1267.61 411.24
1387 0 103.183 12.8413 1325 101.98 1267.1 409.607
1388 0 106.097 11.8759 1260 103.148 1267.02 414.51
1389 0 111.209 12.8048 1424 102.999 1267.91 410.046
1390 0 114.213 12.4067 1417 101.763 1267.63 412.621
1391 0 116.097 11.5851 1345 104.7 1266.99 407.66
1392 0 120.199 12.4544 1497 103.619 1266.6 407.894
1393 0 124.256 13.4078 1666 102.884 1266.54 406.964
1394 1 68.3171 10.8026 738 102.325 1265.91 434.543
1395 0 69.1702 10.7416 743 104.384 1266.38 431.293
1396 0 72.1219 10.9675 791 92.512 1266.82 436.29
1397 0 73.1587 13.3819 979 89.4515 1266.76 434.792
1398 0 75.0611 11.9902 900 92.6656 1266.94 434.883
1399 0 79.0863 12.9605 1025 93.5122 1266.39 425.768
1400 0 80.1242 12.4681 999 96.0531 1267.06 424.738
1401 0 83.1287 12.6912 1055 102.241 1266.65 423.914
1402 0 86.1983 13.4457 1159 100.43 1266.76 421.299
1403 0 90.0706 12.9454 1166 100.809 1266.82 420.223
1404 0 93.1632 13.6213 1269 98.736 1267.1 420.875
1405 0 95.1118 13.8048 1313 98.0883 1266.98 419.212
1406 0 99.2191 12.9612 1286 100.691 1266.59 417.608
1407 0 101.162 13.9578 1412 99.245 1266.64 418.401
1408 0 103.223 13.8632 1431 98.7435 1266.85 418.954
1409 0 104.092 14.1028 1468 99.4646 1266.24 416.025
1410 0 111.166 14.3299 1593 96.9228 1266.59 416.826
1411 0 113.131 13.0379 1475 99.4529 1266.75 415.728
1412 1 59.0464 12.143 717 93.8326 1266.94 438.038
1413 0 62.1054 10.9169 678 92.0177 1267.02 438.901
1414 0 64.0887 11.5933 743 93.245 1266.81 433.98
1415 0 62.1092 10.079 626 92.4153 1267.21 435.126
1416 0 65.0615 11.0818 721 87.0444 1267.9 437.492
1417 0 68.0343 10.5388 717 88.8717 1267.07 436.179
1418 0 71.1636 11.9022 847 88.0248 1267.94 436.347
1419 0 70.1058 11.34 795 93.6679 1267.39 428.053
1420 0 75.2229 11.9777 901 92.4906 1267.16 431.194
1421 0 78.026 13.3545 1042 92.7486 1266.96 431.721
1422 0 82.1306 12.6871 1042 95.6257 1266.65 426.434
1423 0 84.1837 13.9457 1174 94.3748 1266.78 422.814
1424 0 84.0945 12.5811 1058 97.569 1266.72 425.05
1425 0 86.1333 13.8622 1194 97.6055 1266.32 419.108
1426 0 88.0601 12.9911 1144 99.1818 1266.76 420.459
1427 0 90.1091 12.5182 1128 100.319 1266.04 419.288
1428 0 92.1066 13.1369 1210 99.2256 1267.27 421.851
1429 0 93.1429 13.7101 1277 98.7518 1266.66 421.079
1430 0 98.1222 15.1036 1482 94.832 1267 421.783
1431 0 98.0421 12.4436 1220 101.999 1266.8 418.681
1432 0 103.141 13.7578 1419 98.6681 1267.33 419.29
1433 0 102.071 12.8734 1314 102.626 1267.45 414.937
1434 0 108.158 14.2939 1546 99.6585 1266.7 415.939
1435 0 112.188 13.2368 1485 102.257 1266.63 413.42
1436 0 117.257 13.7476 1612 101.713 1267.32 411.083
1437 0 121.14 13.3069 1612 101.432 1266.56 408.953
1438 0 126.185 13.4009 1691 100.901 1267.39 407.071
1439 1 69.0942 11.8534 819 97.5861 1266.92 432.338
1440 0 71.0897 12.1537 864 95.809 1266.92 434.975
1441 0 74.1578 12.4195 921 95.0304 1266.93 430.56
1442 0 76.0948 12.0902 920 95.1207 1267.97 431.396
1443 0 78.1066 11.3563 887 96.6246 1267.01 430.154
1444 0 79.0668 12.3693 978 94.8057 1267.37 428.1
1445 0 84.12 12.3989 1043 93.9089 1266.95 428.115
1446 0 87.0813 11.7936 1027 95.4031 1266.66 421.754
1447 0 90.1107 13.8829 1251 91.0871 1266.79 425.438
1448 0 93.1806 11.1719 1041 96.5341 1266.85 423.718
1449 0 93.1343 13.3785 1246 93.4791 1266.61 422.257
1450 0 89.084 12.5051 1114 98.4964 1266.42 416.469
1451 0 99.1605 13.8362 1372 93.6603 1266.24 418.091
1452 0 97.1066 11.7603 1142 98.324 1266.61 416.467
1453 0 105.166 13.5976 1430 93.4196 1266.26 417.294
1454 0 104.306 12.3004 1283 96.06 1266.93 417.244
1455 0 111.179 13.195 1467 93.9414 1266.55 415.035
1456 0 117.184 12.6041 1477 94.3893 1266.48 411.931
1457 0 120.089 13.7148 1647 92.7237 1267.11 410.697
1458 0 124.267 12.2639 1524 94.7953 1266.99 412.675
1459 0 126.162 12.6584 1597 94.7176 1267.19 411.161
1460 0 128.171 11.6485 1493 98.5559 1267.07 402.891
1461 0 137.139 13.4462 1844 94.3633 1265.93 401.3
1462 0 144.173 14.1358 2038 91.8916 1266.66 403.868
1463 0 145.254 12.7639 1854 95.4137 1266.35 402.001
1464 0 151.245 13.3492 2019 94.6701 1267.63 397.355
1465 0 155.206 14.8255 2301 92.143 1266.7 394.224
1466 0 162.1 12.9981 2107 96.5501 1266.98 389.258
1467 0 163.204 13.8661 2263 95.7393 1266.85 383.804
1468 0 171.218 14.8757 2547 92.3859 1266.84 390.177
1469 1 97.2366 12.2279 1189 95.8175 1267.18 422.164
1470 0 95.1531 11.9071 1133 98.8888 1267.49 416.954
1471 0 102.123 12.8472 1312 95.8171 1267.41 415.83
1472 0 101.12 11.6099 1174 99.6465 1267.78 410.968
1473 0 103.208 12.9834 1340 95.8851 1268.14 417.519
1474 0 108.152 12.9539 1401 97.0914 1268.17 411.572
1475 0 115.168 13.1807 1518 95.7563 1267.22 409.511
1476 0 119.172 14.5001 1728 93.1429 1267.46 410.217
1477 0 120.192 12.7463 1532 97.8655 1267.61 405.461
1478 0 122.081 13.5565 1655 97.2375 1267.38 404.634
1479 0 126.106 13.6552 1722 98.4692 1266.93 400.139
1480 0 124.359 11.2577 1400 105.91 1266.6 394.305
1481 0 137.201 13.0612 1792 101.413 1267.07 393.551
1482 0 143.261 13.8768 1988 98.5905 1267.08 394.429
1483 0 147.146 14.1492 2082 99.9789 1266.85 391.986
1484 0 154.205 14.4354 2226 99.6806 1267.73 388.929
1485 0 157.173 13.1575 2068 104.634 1267.3 385.098
1486 0 166.232 13.3609 2221 103.188 1267.71 384.384
1487 0 168.191 13.4906 2269 103.501 1267.97 384.857
1488 0 175.221 14.69 2574 100.933 1266.95 382.881
1489 0 169.175 12.1472 2055 109.77 1267.13 375.351
